    HOUR (UT)   FLARE FACTOR    SKY TESTER    SUN TESTER
   13.04361153   -1.00000000   -1.00000000   -1.00000000
   13.07250023  102.88300323    0.92000002    2.26999998
   13.07583332  106.29000092    0.92000002    2.28999996
   13.07888889  113.83799744    0.89999998    2.26999998
   13.08222198  116.22599792    0.89999998    2.26999998
   13.08555508  121.20200348    0.89999998    2.28999996
   13.08861065  104.76100159    0.89999998    2.28999996
   13.09277725  104.76100159    0.89999998    2.28999996
   13.09694386  101.80799866    0.89999998    2.26999998
   13.10027790  111.17700195    0.89999998    2.26999998
   13.10361195  103.29799652    0.92000002    2.28999996
   13.10583401  107.33000183    0.89999998    2.28999996
   13.10722256  122.63899994    0.89999998    2.28999996
   13.11027813  110.33499908    0.89999998    2.28999996
   13.11361122  103.66899872    0.89999998    2.28999996
   13.11694431  112.98999786    0.89999998    2.28999996
   13.11999989  107.50900269    0.88000000    2.30999994
   13.12333393   -1.00000000    0.89999998    2.30999994
   13.12638855   -1.00000000    0.88000000    2.30999994
   13.12972260   -1.00000000    0.88000000    2.28999996
   13.13972187   -1.00000000    0.88000000    2.30999994
   13.14305496   -1.00000000    0.88000000    2.30999994
   13.14611053   -1.00000000    0.88000000    2.28999996
   13.14944458  234.71000671    0.88000000    2.30999994
   13.15277767  132.59399414    0.88000000    2.30999994
   13.15583324  115.61100006    0.88000000    2.30999994
   13.15916634  108.87000275    0.88000000    2.30999994
   13.16249943  120.28800201    0.88000000    2.30999994
   13.16555500  110.03099823    0.89999998    2.30999994
   13.16888905  113.70300293    0.88000000    2.30999994
   13.17194462  119.93599701    0.88000000    2.30999994
   13.17277813  110.39499664    0.88000000    2.30999994
   13.17861176  110.39499664    0.88000000    2.30999994
   13.18277836  115.52700043    0.88000000    2.32999992
   13.18583298  113.99299622    0.88000000    2.30999994
   13.18916702  125.05100250    0.88000000    2.30999994
   13.19250011  107.56400299    0.86000001    2.32999992
   13.19583321  114.33999634    0.86000001    2.32999992
   13.19888878  105.47599792    0.86000001    2.32999992
   13.20222187  124.41699982    0.88000000    2.32999992
   13.20555496  115.92199707    0.88000000    2.32999992
   13.20611095  105.34700012    0.88000000    2.32999992
   13.20888901  103.19899750    0.88000000    2.32999992
   13.21222210  119.45800018    0.88000000    2.32999992
   13.21527767  105.77700043    0.88000000    2.32999992
   13.22138882  105.77700043    0.88000000    2.32999992
   13.22555542  117.67299652    0.88000000    2.32999992
   13.22888851  108.76999664    0.88000000    2.32999992
   13.23194408  105.01899719    0.86000001    2.32999992
   13.23527813  100.84100342    0.86000001    2.32999992
   13.23861122  110.58100128    0.86000001    2.32999992
   13.23944473  102.87000275    0.86000001    2.32999992
   13.24194431  112.06900024    0.86000001    2.32999992
   13.24527836  112.68599701    0.86000001    2.32999992
   13.24833393  109.67900085    0.86000001    2.32999992
   13.25166702   99.74069977    0.86000001    2.32999992
   13.25500011  103.69100189    0.86000001    2.34999990
   13.25805569  104.92299652    0.86000001    2.32999992
   13.26444435  104.92299652    0.86000001    2.34999990
   13.26833344  120.13600159    0.83999997    2.32999992
   13.27166653  118.54000092    0.86000001    2.34999990
   13.27277756  112.22000122    0.86000001    2.34999990
   13.27527714  112.40200043    0.83999997    2.34999990
   13.27861118  104.14299774    0.83999997    2.34999990
   13.28194427  116.45700073    0.81999999    2.34999990
   13.28500080  115.43499756    0.81999999    2.34999990
   13.28833389  109.19499969    0.81999999    2.34999990
   13.29138947  111.81700134    0.81999999    2.34999990
   13.29472256  120.17299652    0.81999999    2.34999990
   13.29805565  113.45999908    0.81999999    2.34999990
   13.30111122   95.28410339    0.81999999    2.36999989
   13.30722237   95.28410339    0.81999999    2.34999990
   13.31111145  112.17099762    0.81999999    2.34999990
   13.31444454  113.66799927    0.81999999    2.36999989
   13.31777763  112.79499817    0.80000001    2.34999990
   13.32083321  118.54000092    0.80000001    2.34999990
   13.32416630  110.95099640    0.80000001    2.34999990
   13.32750034  113.54599762    0.80000001    2.36999989
   13.33055592  120.29000092    0.80000001    2.36999989
   13.33388901  102.41899872    0.79000002    2.36999989
   13.33694458  107.61199951    0.79000002    2.36999989
   13.33944416  105.38600159    0.80000001    2.36999989
   13.34055519  115.72499847    0.80000001    2.36999989
   13.34388828  108.67800140    0.80000001    2.36999989
   13.35000038  108.67800140    0.80000001    2.36999989
   13.35416698  116.73200226    0.80000001    2.34999990
   13.35722256  112.85500336    0.79000002    2.34999990
   13.36055565  103.58200073    0.79000002    2.36999989
   13.36388969  105.84500122    0.79000002    2.36999989
   13.36694431  113.17600250    0.80000001    2.36999989
   13.37027836  114.51399994    0.80000001    2.36999989
   13.37277794  111.52600098    0.79000002    2.36999989
   13.37388897  103.45999908    0.79000002    2.36999989
   13.37722206  106.66600037    0.79000002    2.36999989
   13.38055611  108.14800262    0.79000002    2.36999989
   13.38388920  114.95899963    0.79000002    2.36999989
   13.38722229  108.44400024    0.79000002    2.36999989
   13.39277744  108.44400024    0.76999998    2.39000010
   13.39694405  111.32900238    0.76999998    2.36999989
   13.40027714  107.57700348    0.75000000    2.36999989
   13.40333271  114.98400116    0.75000000    2.39000010
   13.40611076  105.97899628    0.75000000    2.36999989
   13.40694427  107.01499939    0.75000000    2.36999989
   13.41027737  105.86399841    0.75000000    2.39000010
   13.41361046  124.77700043    0.75000000    2.39000010
   13.41666698  110.52999878    0.75000000    2.36999989
   13.42000008  107.89299774    0.75000000    2.36999989
   13.42305565  118.61900330    0.75000000    2.39000010
   13.42638874  118.63300323    0.75000000    2.39000010
   13.42972279  103.08100128    0.75000000    2.39000010
   13.43555546  103.08100128    0.76999998    2.39000010
   13.43972206  113.96600342    0.75000000    2.39000010
   13.44305515  112.59300232    0.73000002    2.40000010
   13.44611073  126.01399994    0.73000002    2.39000010
   13.44944477  118.58599854    0.73000002    2.39000010
   13.45277786  111.29299927    0.73000002    2.39000010
   13.45583344  106.76499939    0.73000002    2.39000010
   13.45916653  111.84899902    0.75000000    2.39000010
   13.46249962  127.06999969    0.73000002    2.39000010
   13.46583271  105.34100342    0.73000002    2.39000010
   13.46888828  109.20200348    0.73000002    2.39000010
   13.47222137  121.58699799    0.73000002    2.40000010
   13.47277737  123.11599731    0.73000002    2.40000010
   13.47861099  123.11599731    0.73000002    2.40000010
   13.48249912  113.87699890    0.73000002    2.40000010
   13.48583317  109.31099701    0.73000002    2.39000010
   13.48916721   99.46530151    0.73000002    2.39000010
   13.49222279  105.87100220    0.73000002    2.39000010
   13.49555588  105.44100189    0.73000002    2.39000010
   13.49888897  111.27899933    0.73000002    2.40000010
   13.50194454  125.84400177    0.73000002    2.40000010
   13.50527763  104.30799866    0.73000002    2.39000010
   13.50611115  119.66500092    0.73000002    2.39000010
   13.50888920  100.02700043    0.73000002    2.40000010
   13.51194477  103.48300171    0.70999998    2.40000010
   13.51527786  106.75499725    0.70999998    2.40000010
   13.52138901  106.75499725    0.70999998    2.40000010
   13.52555561  118.18000031    0.69000000    2.40000010
   13.52861118  112.90100098    0.69000000    2.40000010
   13.53194427  119.06900024    0.67000002    2.39000010
   13.53527832  114.68699646    0.69000000    2.40000010
   13.53833389  114.40699768    0.67000002    2.40000010
   13.53944492  107.54499817    0.67000002    2.40000010
   13.54194450  109.06400299    0.67000002    2.40000010
   13.54500008  118.97499847    0.67000002    2.40000010
   13.54833412  108.82399750    0.67000002    2.40000010
   13.55166721  107.67299652    0.67000002    2.40000010
   13.55472279  109.45500183    0.69000000    2.40000010
   13.55805588  112.37699890    0.69000000    2.40000010
   13.56416702  112.37699890    0.69000000    2.40000010
   13.56833363   95.22389984    0.67000002    2.40000010
   13.57166672  121.81199646    0.67000002    2.42000008
   13.57277775  108.41100311    0.67000002    2.42000008
   13.57527733  115.86799622    0.67000002    2.42000008
   13.57833290  109.06600189    0.69000000    2.40000010
   13.58166695  111.52700043    0.69000000    2.42000008
   13.58500004  111.76599884    0.69000000    2.42000008
   13.58805561  120.30400085    0.69000000    2.42000008
   13.59138870  110.69400024    0.69000000    2.42000008
   13.59472179  111.85500336    0.69000000    2.42000008
   13.59777737  120.59999847    0.69000000    2.42000008
   13.60111141  114.54199982    0.69000000    2.42000008
   13.60694504  114.54199982    0.69000000    2.42000008
   13.61111164  111.00099945    0.67000002    2.42000008
   13.61444473  119.92700195    0.67000002    2.42000008
   13.61777782  110.66400146    0.67000002    2.42000008
   13.62083340  107.48600006    0.69000000    2.42000008
   13.62416649  111.39399719    0.67000002    2.42000008
   13.62750053  105.83699799    0.69000000    2.42000008
   13.63055611  101.51000214    0.67000002    2.42000008
   13.63388920  105.34500122    0.67000002    2.42000008
   13.63722229  109.72100067    0.67000002    2.42000008
   13.63944435  119.64900208    0.67000002    2.42000008
   13.64083290  105.65399933    0.67000002    2.42000008
   13.64388847  107.56999969    0.67000002    2.42000008
   13.64999962  107.56999969    0.67000002    2.42000008
   13.65388870  109.66200256    0.67000002    2.42000008
   13.65722179  112.86299896    0.67000002    2.42000008
   13.66055489  100.71900177    0.67000002    2.44000006
   13.66361046  133.73599243    0.67000002    2.44000006
   13.66694450   99.03869629    0.69000000    2.44000006
   13.67027855  130.86999512    0.67000002    2.42000008
   13.67277813  109.01699829    0.67000002    2.44000006
   13.67388916  119.29499817    0.67000002    2.44000006
   13.67722225  137.22399902    0.67000002    2.42000008
   13.68027782  127.98600006    0.67000002    2.42000008
   13.68361092  138.91499329    0.67000002    2.44000006
   13.68694496  129.25799561    0.67000002    2.44000006
   13.69277763  129.25799561    0.67000002    2.44000006
   13.69694424  105.43599701    0.67000002    2.44000006
   13.69999981  123.16899872    0.64999998    2.42000008
   13.70333290  114.67299652    0.64999998    2.44000006
   13.70611095  137.92700195    0.64999998    2.44000006
   13.70694447  108.78099823    0.64999998    2.44000006
   13.71027756  114.85199738    0.64999998    2.44000006
   13.71333313  143.28500366    0.64999998    2.46000004
   13.71666622  116.92400360    0.64999998    2.44000006
   13.71972179  125.27100372    0.64999998    2.44000006
   13.72305489  114.26200104    0.64999998    2.44000006
   13.72638798  114.26100159    0.64999998    2.44000006
   13.72944355  108.05300140    0.64999998    2.44000006
   13.73555565  108.05300140    0.64999998    2.44000006
   13.73972225  120.97599792    0.64999998    2.44000006
   13.74305534  110.22100067    0.64999998    2.46000004
   13.74611092  123.09999847    0.64999998    2.46000004
   13.74944496  117.55699921    0.64999998    2.46000004
   13.75277805  129.85200500    0.64999998    2.46000004
   13.75583363  126.16999817    0.64999998    2.46000004
   13.75916672  117.54100037    0.64999998    2.46000004
   13.76249981  109.62899780    0.67000002    2.46000004
   13.76555538  121.35900116    0.64999998    2.44000006
   13.76888847  109.50800323    0.64999998    2.46000004
   13.77194405  109.31700134    0.67000002    2.46000004
   13.77277756   99.85269928    0.67000002    2.46000004
   13.77833271   99.85269928    0.64999998    2.46000004
   13.78249931  109.46099854    0.67000002    2.46000004
   13.78583336  156.85400391    0.67000002    2.46000004
   13.78916740  131.69999695    0.67000002    2.46000004
   13.79222298  133.51300049    0.67000002    2.46000004
   13.79555607  145.43800354    0.67000002    2.46000004
   13.79861164  132.37300110    0.67000002    2.46000004
   13.80194473  128.84500122    0.67000002    2.46000004
   13.80527782  122.60900116    0.67000002    2.46000004
   13.80611134  125.56600189    0.67000002    2.46000004
   13.80888939  143.39500427    0.67000002    2.46000004
   13.81222248  125.74099731    0.64999998    2.46000004
   13.81527805  110.91899872    0.67000002    2.46000004
   13.82138920  110.91899872    0.64999998    2.46000004
   13.82527733  124.03800201    0.64999998    2.48000002
   13.82861137  123.41200256    0.64999998    2.46000004
   13.83194447  111.86499786    0.64999998    2.46000004
   13.83500004  104.11199951    0.67000002    2.46000004
   13.83833313  115.05100250    0.64999998    2.46000004
   13.83944416  116.08899689    0.64999998    2.46000004
   13.84194374  112.59700012    0.64999998    2.46000004
   13.84527779  105.20500183    0.64999998    2.46000004
   13.84833336  104.81900024    0.64999998    2.48000002
   13.85166740  100.72799683    0.64999998    2.46000004
   13.85472298  100.30699921    0.64999998    2.46000004
   13.85805607  107.74099731    0.63000000    2.46000004
   13.86416721  107.74099731    0.63000000    2.48000002
   13.86833382  102.74900055    0.63000000    2.48000002
   13.87138939  108.89900208    0.63000000    2.46000004
   13.87277794   98.83409882    0.63000000    2.48000002
   13.87500000  106.02400208    0.63000000    2.48000002
   13.87833309  113.89399719    0.63000000    2.46000004
   13.88138866  113.93299866    0.63000000    2.48000002
   13.88472176  117.70899963    0.61000001    2.48000002
   13.88805580  125.90000153    0.61000001    2.48000002
   13.89138889  131.64799500    0.61000001    2.48000002
   13.89444447  130.07299805    0.61000001    2.46000004
   13.89777756  118.20300293    0.61000001    2.48000002
   13.90111065  120.48400116    0.61000001    2.48000002
   13.90694427  120.48400116    0.61000001    2.48000002
   13.91111088  128.31900024    0.61000001    2.48000002
   13.91444397  118.50000000    0.61000001    2.48000002
   13.91750050  120.63899994    0.61000001    2.48000002
   13.92083359  117.49400330    0.61000001    2.48000002
   13.92416668  122.24800110    0.63000000    2.48000002
   13.92722225  120.81199646    0.63000000    2.48000002
   13.93055630  117.20400238    0.63000000    2.48000002
   13.93361092  118.70300293    0.63000000    2.48000002
   13.93694496  116.60299683    0.63000000    2.48000002
   13.93944454  108.45700073    0.63000000    2.50000000
   13.94083309  112.89800262    0.63000000    2.50000000
   13.94416714  108.39299774    0.63000000    2.48000002
   13.95027733  108.39299774    0.63000000    2.48000002
   13.95416641  104.78399658    0.63000000    2.48000002
   13.95749950  101.91999817    0.63000000    2.48000002
   13.96083355  109.08000183    0.63000000    2.48000002
   13.96388912  101.19100189    0.63000000    2.48000002
   13.96722221  115.61900330    0.63000000    2.48000002
   13.97055531  101.64700317    0.63000000    2.50000000
   13.97277737  113.58200073    0.63000000    2.50000000
   13.97416592  112.17299652    0.63000000    2.50000000
   13.97749996  108.89600372    0.61000001    2.48000002
   13.98055553  110.87500000    0.61000001    2.48000002
   13.98388958  110.29199982    0.61000001    2.48000002
   13.98722267  109.28500366    0.61000001    2.48000002
   13.99277782  109.28500366    0.61000001    2.48000002
   13.99666691  102.67299652    0.61000001    2.48000002
   14.00000000  110.69699860    0.61000001    2.48000002
   14.00333309  104.35399628    0.61000001    2.48000002
   14.00611115  103.51799774    0.61000001    2.48000002
   14.00694466  104.81300354    0.61000001    2.50000000
   14.01027775  104.84500122    0.58999997    2.50000000
   14.01333332  110.78900146    0.58999997    2.50000000
   14.01666641   97.80410004    0.58999997    2.50000000
   14.01999950  102.04699707    0.61000001    2.50000000
   14.02305508  100.71600342    0.58999997    2.50000000
   14.02638817  103.35600281    0.58999997    2.50000000
   14.02944374   94.59739685    0.58999997    2.50000000
   14.03555584   94.59739685    0.58999997    2.50000000
   14.03972244   99.78579712    0.58999997    2.51999998
   14.04277802  102.16200256    0.58999997    2.50000000
   14.04611111  103.34999847    0.58999997    2.50000000
   14.04944515   91.51840210    0.61000001    2.50000000
   14.05249977  100.43299866    0.58999997    2.50000000
   14.05583382  100.13700104    0.58999997    2.51999998
   14.05916691   97.96620178    0.58999997    2.50000000
   14.06222248   96.40699768    0.58999997    2.50000000
   14.06555557  101.05000305    0.58999997    2.50000000
   14.06888866   91.64969635    0.58999997    2.50000000
   14.07194424   91.58630371    0.61000001    2.50000000
   14.07277775   92.01689911    0.61000001    2.50000000
   14.09361076   92.01689911    0.58999997    2.50000000
   14.09777737   99.57920074    0.58999997    2.50000000
   14.10083389  100.94100189    0.58999997    2.50000000
   14.10416698   93.20970154    0.58999997    2.50000000
   14.10611153  108.14499664    0.58999997    2.50000000
   14.10777855   96.81849670    0.58999997    2.50000000
   14.11111164  106.41200256    0.61000001    2.50000000
   14.11416721  101.57900238    0.58999997    2.51999998
   14.11750031   96.58470154    0.58999997    2.51999998
   14.12083340   98.76480103    0.58999997    2.51999998
   14.12388897  101.65299988    0.58999997    2.51999998
   14.12722206  102.91000366    0.58999997    2.51999998
   14.13027763   99.06179810    0.56999999    2.50000000
   14.13638878   99.06179810    0.58999997    2.50000000
   14.14055538   99.76470184    0.58999997    2.50000000
   14.14361095  105.76200104    0.58999997    2.50000000
   14.14694405   96.09609985    0.58999997    2.50000000
   14.14999962   93.98829651    0.58999997    2.51999998
   14.15333271   94.60050201    0.58999997    2.51999998
   14.15666676   95.58619690    0.58999997    2.51999998
   14.15972137   92.62310028    0.58999997    2.51999998
   14.16333294  100.30100250    0.58999997    2.51999998
   14.16666698  106.48699951    0.56999999    2.51999998
   14.16972256   96.02390289    0.56999999    2.50000000
   14.17277813   93.55359650    0.56999999    2.50000000
   14.17333412  100.38200378    0.56999999    2.50000000
   14.17916679  100.38200378    0.56999999    2.50000000
   14.18333340   88.55660248    0.56999999    2.50000000
   14.18638897   89.16089630    0.56999999    2.51999998
   14.18972206   93.46769714    0.56999999    2.51999998
   14.19305515   90.36589813    0.55000001    2.51999998
   14.19611073   98.80690002    0.55000001    2.51999998
   14.19944477  104.27500153    0.55000001    2.51999998
   14.20277786   98.33470154    0.56999999    2.51999998
   14.20583344   99.62010193    0.56999999    2.51999998
   14.20638847   93.17819977    0.56999999    2.51999998
   14.20972157   95.23130035    0.56999999    2.50000000
   14.21305561  102.77899933    0.56999999    2.50000000
   14.21611118   97.49179840    0.56999999    2.51999998
   14.22194386   97.49179840    0.56999999    2.50000000
   14.22611046  101.51599884    0.55000001    2.50000000
   14.22944355   97.09149933    0.55000001    2.51999998
   14.23249912   94.83999634    0.55000001    2.51999998
   14.23583317   95.77169800    0.52999997    2.51999998
   14.23888874   92.97489929    0.52999997    2.51999998
   14.23972225   90.62640381    0.52999997    2.51999998
   14.24277782   95.69309998    0.52999997    2.51999998
   14.24611092   98.20200348    0.52999997    2.51999998
   14.24944496   98.95089722    0.51999998    2.51999998
   14.25249958   94.08899689    0.51999998    2.51999998
   14.25583363  101.71399689    0.51999998    2.51999998
   14.25916672   95.85150146    0.51999998    2.51999998
   14.26472187   95.85150146    0.51999998    2.51999998
   14.26888847   95.48349762    0.51999998    2.51999998
   14.27222157   96.70770264    0.52999997    2.51999998
   14.27305508   94.44819641    0.52999997    2.51999998
   14.27583313   94.31690216    0.51999998    2.51999998
   14.27916622   93.44309998    0.52999997    2.51999998
   14.28222179   93.35890198    0.52999997    2.51999998
   14.28555584  101.20200348    0.51999998    2.51999998
   14.28888893  102.85199738    0.51999998    2.51999998
   14.29194450   97.71260071    0.51999998    2.53999996
   14.29527855   96.24520111    0.51999998    2.53999996
   14.29833412   94.85510254    0.51999998    2.51999998
   14.30166721   93.66709900    0.51999998    2.51999998
   14.30777836   93.66709900    0.51999998    2.53999996
   14.31194496  102.08100128    0.51999998    2.51999998
   14.31500053  101.45800018    0.51999998    2.53999996
   14.31833363  106.25599670    0.51999998    2.53999996
   14.32166672   99.53890228    0.51999998    2.51999998
   14.32472229  108.14299774    0.51999998    2.53999996
   14.32805538  105.09600067    0.51999998    2.53999996
   14.33111095  110.48400116    0.51999998    2.53999996
   14.33444405  105.33100128    0.51999998    2.51999998
   14.33777714   93.77059937    0.52999997    2.53999996
   14.33972168   99.59850311    0.52999997    2.53999996
   14.34166622  102.13400269    0.52999997    2.53999996
   14.34472179   99.48680115    0.52999997    2.53999996
   14.35055637   99.48680115    0.55000001    2.51999998
   14.35472298   90.17479706    0.52999997    2.53999996
   14.35777855  105.08799744    0.51999998    2.53999996
   14.36111164  107.95200348    0.51999998    2.53999996
   14.36444473  107.84100342    0.51999998    2.53999996
   14.36750031  106.18599701    0.51999998    2.53999996
   14.37083340  113.61000061    0.51999998    2.53999996
   14.37305546  106.91100311    0.51999998    2.53999996
   14.37444496  109.48100281    0.51999998    2.53999996
   14.37777805  109.15100098    0.51999998    2.53999996
   14.38083363  114.88700104    0.51999998    2.53999996
   14.38416672  104.52899933    0.51999998    2.53999996
   14.38722229  112.22100067    0.51999998    2.53999996
   14.39333344  112.22100067    0.51999998    2.53999996
   14.39750004  122.45200348    0.50000000    2.53999996
   14.40083313  121.32399750    0.50000000    2.53999996
   14.40388870  102.49700165    0.47999999    2.53999996
   14.40638828  113.06900024    0.47999999    2.53999996
   14.40749931  102.11000061    0.47999999    2.53999996
   14.41083336  120.63999939    0.47999999    2.53999996
   14.41388893  113.56900024    0.50000000    2.55999994
   14.41722298  120.61100006    0.50000000    2.55999994
   14.42055607  121.60199738    0.50000000    2.53999996
   14.42361164  113.89199829    0.50000000    2.53999996
   14.42694473  102.39700317    0.47999999    2.53999996
   14.43027782  111.63700104    0.50000000    2.51999998
   14.43611145  111.63700104    0.47999999    2.55999994
   14.44027805  131.30999756    0.47999999    2.53999996
   14.44361115  129.68099976    0.47999999    2.55999994
   14.44694424  127.30599976    0.50000000    2.55999994
   14.44999981  126.31400299    0.50000000    2.53999996
   14.45333290  124.73100281    0.50000000    2.53999996
   14.45638847  131.72500610    0.50000000    2.53999996
   14.45972157  121.40399933    0.50000000    2.53999996
   14.46305561  131.44799805    0.50000000    2.53999996
   14.46611118  150.61199951    0.50000000    2.53999996
   14.46944427  126.08499908    0.50000000    2.53999996
   14.47277737  151.27999878    0.50000000    2.53999996
   14.47333336  124.91699982    0.50000000    2.53999996
   14.47916603  124.91699982    0.51999998    2.55999994
   14.48305511  141.19200134    0.51999998    2.53999996
   14.48638916  124.08899689    0.51999998    2.53999996
   14.48972225  130.26300049    0.51999998    2.55999994
   14.49277782  153.67599487    0.52999997    2.55999994
   14.49611092  147.56500244    0.51999998    2.55999994
   14.49944496  141.33299255    0.51999998    2.53999996
   14.50249958  131.69299316    0.51999998    2.53999996
   14.50583363  140.38699341    0.51999998    2.55999994
   14.50666714  147.27600098    0.52999997    2.55999994
   14.50944424  135.09300232    0.52999997    2.55999994
   14.51277733  127.86000061    0.51999998    2.55999994
   14.51583290  126.70400238    0.52999997    2.55999994
   14.52194405  126.70400238    0.52999997    2.55999994
   14.52611065  122.21099854    0.51999998    2.53999996
   14.52944374  135.13299561    0.50000000    2.55999994
   14.53277779  128.94400024    0.47999999    2.55999994
   14.53611183  137.45399475    0.47999999    2.55999994
   14.53916740  117.64299774    0.47999999    2.55999994
   14.54000092  127.73200226    0.47999999    2.55999994
   14.54277802  124.22000122    0.47999999    2.55999994
   14.54611111  120.71399689    0.47999999    2.55999994
   14.54916668  108.56099701    0.47999999    2.53999996
   14.55249977  114.65699768    0.47999999    2.55999994
   14.55583382  125.41600037    0.50000000    2.55999994
   14.55916691  124.34300232    0.50000000    2.55999994
   14.56472206  124.34300232    0.51999998    2.55999994
   14.56888866  110.49700165    0.51999998    2.55999994
   14.57194424  115.16100311    0.50000000    2.55999994
   14.57333374  119.78600311    0.50000000    2.55999994
   14.57555580  111.58699799    0.50000000    2.55999994
   14.57888889  105.85900116    0.50000000    2.55999994
   14.58222198   98.70899963    0.50000000    2.55999994
   14.58555508  122.30500031    0.51999998    2.55999994
   14.58861065  108.16699982    0.50000000    2.55999994
   14.59194374  119.67500305    0.50000000    2.55999994
   14.59527779  113.63200378    0.50000000    2.55999994
   14.59833336  116.90200043    0.50000000    2.55999994
   14.60166740  113.33100128    0.50000000    2.55999994
   14.60750008  113.33100128    0.47999999    2.55999994
   14.61166668  114.03900146    0.47999999    2.55999994
   14.61500072  111.50499725    0.47999999    2.55999994
   14.61805534  104.90299988    0.47999999    2.55999994
   14.62138939  106.69999695    0.47999999    2.55999994
   14.62472248  110.97299957    0.47999999    2.55999994
   14.62777805  108.36000061    0.47999999    2.55999994
   14.63111115  112.13500214    0.47999999    2.55999994
   14.63444424  109.83000183    0.47999999    2.55999994
   14.63749981  111.57499695    0.47999999    2.55999994
   14.64000034  105.97599792    0.47999999    2.55999994
   14.64111137  104.59300232    0.47999999    2.55999994
   14.64444447  108.02899933    0.47999999    2.55999994
   14.65055561  108.02899933    0.47999999    2.55999994
   14.65444374  106.05699921    0.47999999    2.55999994
   14.65777779  101.50199890    0.47999999    2.55999994
   14.66111088  104.87699890    0.47999999    2.55999994
   14.66416645  104.98200226    0.47999999    2.55999994
   14.66750050   83.63629913    0.47999999    2.55999994
   14.67083359  101.08799744    0.47999999    2.55999994
   14.67333412   95.19789886    0.47999999    2.55999994
   14.67416668   99.88829803    0.47999999    2.55999994
   14.67750072   98.43969727    0.47999999    2.55999994
   14.68083382  107.55500031    0.47999999    2.55999994
   14.68388939   96.28160095    0.47999999    2.55999994
   14.68722248   95.35299683    0.47999999    2.55999994
   14.69333363   95.35299683    0.50000000    2.55999994
   14.69750023  101.98400116    0.50000000    2.55999994
   14.70055580  101.62899780    0.47999999    2.55999994
   14.70388889   97.13739777    0.47999999    2.55999994
   14.70666695   89.77700043    0.47999999    2.55999994
   14.70749950   99.47630310    0.47999999    2.55999994
   14.71083355   92.36990356    0.47999999    2.55999994
   14.71416664   94.46499634    0.47999999    2.57999992
   14.71722221   99.23950195    0.50000000    2.55999994
   14.72055531   89.33200073    0.50000000    2.55999994
   14.72361088   90.64669800    0.50000000    2.55999994
   14.72694397   92.57890320    0.50000000    2.55999994
   14.73027706   91.48059845    0.50000000    2.55999994
   14.73611164   91.48059845    0.50000000    2.57999992
   14.74027824   90.33360291    0.50000000    2.55999994
   14.74361134   93.38880157    0.50000000    2.55999994
   14.74666691   96.12110138    0.50000000    2.55999994
   14.75000000   93.91259766    0.50000000    2.57999992
   14.75333309   97.92420197    0.50000000    2.57999992
   14.75638866   90.27729797    0.50000000    2.57999992
   14.75972176   82.92880249    0.51999998    2.55999994
   14.76277733   83.77369690    0.50000000    2.57999992
   14.76611137   80.90029907    0.50000000    2.57999992
   14.76944447   81.92169952    0.50000000    2.57999992
   14.77250004   85.25749969    0.47999999    2.57999992
   14.77333355   85.00830078    0.47999999    2.57999992
   14.77888870   85.00830078    0.46000001    2.57999992
   14.78305531   89.75630188    0.46000001    2.55999994
   14.78638935   92.80999756    0.46000001    2.57999992
   14.78944492   93.19259644    0.46000001    2.57999992
   14.79277802   93.77390289    0.46000001    2.55999994
   14.79611111   92.45320129    0.46000001    2.57999992
   14.79916668   93.69180298    0.46000001    2.57999992
   14.80249977   96.34329987    0.46000001    2.57999992
   14.80583382   89.76629639    0.46000001    2.57999992
   14.80666733   90.89720154    0.46000001    2.57999992
   14.80916691   82.91760254    0.46000001    2.57999992
   14.81250000   89.04900360    0.46000001    2.57999992
   14.81583309   90.52469635    0.46000001    2.57999992
   14.82166672   90.52469635    0.44000000    2.57999992
   14.82583332   91.85009766    0.44000000    2.57999992
   14.82916641   90.49539948    0.44000000    2.57999992
   14.83249950   97.72640228    0.44000000    2.57999992
   14.83555508   91.46890259    0.44000000    2.57999992
   14.83888817   92.39299774    0.44000000    2.57999992
   14.84000015   93.06819916    0.44000000    2.57999992
   14.84249973   92.58670044    0.44000000    2.57999992
   14.84583282   94.70770264    0.44000000    2.57999992
   14.84916592   97.45880127    0.44000000    2.57999992
   14.85222244   91.97450256    0.44000000    2.57999992
   14.85555553   93.31929779    0.44000000    2.57999992
   14.85888958   95.86080170    0.44000000    2.57999992
   14.86472225   95.86080170    0.46000001    2.57999992
   14.86888885   93.03179932    0.46000001    2.57999992
   14.87194443   92.66989899    0.46000001    2.57999992
   14.87333393   88.98509979    0.46000001    2.57999992
   14.87555599   88.26059723    0.46000001    2.59999990
   14.87888908   93.29049683    0.46000001    2.57999992
   14.88222218   89.76429749    0.46000001    2.57999992
   14.88527775   89.01909637    0.46000001    2.57999992
   14.88861084   88.17230225    0.46000001    2.57999992
   14.89194393   87.36769867    0.46000001    2.57999992
   14.89499950   90.69850159    0.46000001    2.57999992
   14.89833355   92.35469818    0.46000001    2.59999990
   14.90166664   86.05509949    0.46000001    2.59999990
   14.90749931   86.05509949    0.46000001    2.59999990
   14.91166592   91.14360046    0.47999999    2.57999992
   14.91499996   87.81490326    0.47999999    2.57999992
   14.91805553   89.44930267    0.47999999    2.57999992
   14.92138958   89.76439667    0.47999999    2.57999992
   14.92444515   84.52320099    0.50000000    2.57999992
   14.92777824   87.65039825    0.50000000    2.57999992
   14.93111134   87.11660004    0.47999999    2.57999992
   14.93416691   87.86419678    0.47999999    2.57999992
   14.93750000   88.77359772    0.47999999    2.57999992
   14.94000053   90.73079681    0.46000001    2.57999992
   14.94111156   98.20890045    0.46000001    2.57999992
   14.94444466   89.52140045    0.46000001    2.59999990
   14.95027733   89.52140045    0.46000001    2.57999992
   14.95444393   85.72730255    0.47999999    2.57999992
   14.95777798   87.98979950    0.46000001    2.57999992
   14.96083355   94.67780304    0.46000001    2.57999992
   14.96416664   92.44409943    0.46000001    2.57999992
   14.96749973   84.93160248    0.47999999    2.57999992
   14.97055531   88.47940063    0.47999999    2.57999992
   14.97333336   86.85469818    0.47999999    2.57999992
   14.97416592   85.12830353    0.47999999    2.59999990
   14.97749996   84.52100372    0.46000001    2.57999992
   14.98083305   89.86029816    0.46000001    2.57999992
   14.98388958   87.50160217    0.47999999    2.57999992
   14.98722267   83.28160095    0.47999999    2.57999992
   14.99333382   83.28160095    0.47999999    2.57999992
   14.99750042   87.24700165    0.47999999    2.59999990
   15.00083351   83.88169861    0.47999999    2.57999992
   15.00388908   88.41339874    0.46000001    2.57999992
   15.00666714   86.08129883    0.46000001    2.57999992
   15.00749969   86.86579895    0.46000001    2.57999992
   15.01083374   83.88009644    0.47999999    2.57999992
   15.01416683   87.15910339    0.46000001    2.59999990
   15.01749992   88.66860199    0.46000001    2.59999990
   15.02055550   88.21949768    0.47999999    2.59999990
   15.02388859   90.82309723    0.47999999    2.59999990
   15.02722168   84.57129669    0.46000001    2.57999992
   15.03027725   90.14610291    0.46000001    2.57999992
   15.03611183   90.14610291    0.46000001    2.59999990
   15.04027843   91.19120026    0.47999999    2.59999990
   15.04333401   86.59100342    0.46000001    2.57999992
   15.04666710   85.66750336    0.46000001    2.59999990
   15.05000019   88.51969910    0.46000001    2.59999990
   15.05305576   86.21579742    0.46000001    2.59999990
   15.05638885   88.32969666    0.47999999    2.57999992
   15.05972195   86.48449707    0.46000001    2.57999992
   15.06277752   84.49909973    0.46000001    2.59999990
   15.06611156   84.95439911    0.46000001    2.57999992
   15.06916618   85.37960052    0.46000001    2.57999992
   15.07250023   85.17630005    0.46000001    2.57999992
   15.07333374   87.40180206    0.46000001    2.57999992
   15.07888889   87.40180206    0.46000001    2.57999992
   15.08305550   88.09390259    0.46000001    2.59999990
   15.08638859   82.79630280    0.47999999    2.59999990
   15.08944416   83.99120331    0.46000001    2.57999992
   15.10722256   82.74600220    0.46000001    2.59999990
   15.10944462   86.31189728    0.44000000    2.59999990
   15.11277771   90.10600281    0.44000000    2.59999990
   15.11583328   86.99230194    0.44000000    2.59999990
   15.12194443   86.99230194    0.44000000    2.59999990
   15.12611103   87.42639923    0.44000000    2.57999992
   15.12916660   88.80139923    0.44000000    2.59999990
   15.13249969   84.64859772    0.44000000    2.59999990
   15.13583279   89.18620300    0.44000000    2.59999990
   15.13888836   88.66909790    0.44000000    2.59999990
   15.14027786   89.78929901    0.44000000    2.59999990
   15.14277744   83.77880096    0.44000000    2.59999990
   15.14583302   82.66049957    0.44000000    2.59999990
   15.14916611   84.70400238    0.44000000    2.59999990
   15.15249920   84.54149628    0.44000000    2.59999990
   15.15555477   86.84919739    0.44000000    2.59999990
   15.15888882   84.51270294    0.44000000    2.59999990
   15.16472149   84.51270294    0.44000000    2.59999990
   15.16888905   84.29779816    0.44000000    2.59999990
   15.17222214   85.13980103    0.44000000    2.59999990
   15.17361164   87.20950317    0.44000000    2.59999990
   15.17611122   88.41110229    0.44000000    2.59999990
   15.17916679   83.36229706    0.44000000    2.59999990
   15.18249989   87.53430176    0.44000000    2.59999990
   15.18583298   89.14990234    0.44000000    2.59999990
   15.18888855   81.93309784    0.44000000    2.59999990
   15.19222260   89.91600037    0.44000000    2.59999990
   15.19555569   86.87400055    0.44000000    2.59999990
   15.19861126   89.78549957    0.44000000    2.59999990
   15.20194435   91.26899719    0.41999999    2.59999990
   15.20749950   91.26899719    0.44000000    2.59999990
   15.21166611   89.46910095    0.46000001    2.57999992
   15.21500015   89.56189728    0.44000000    2.59999990
   15.31166649   -1.00000000   -1.00000000   -1.00000000
   15.41222191   -1.00000000   -1.00000000   -1.00000000
   15.62416649   -1.00000000   -1.00000000   -1.00000000
   15.72444439   73.02919769    0.40000001    2.61999989
   15.72749996  110.97000122    0.40000001    2.61999989
   15.73083305  101.13500214    0.40000001    2.61999989
   15.73416710  106.10900116    0.40000001    2.61999989
   15.73722267   90.12509918    0.40000001    2.61999989
   15.74055576   95.54399872    0.40000001    2.61999989
   15.74472237   95.54399872    0.40000001    2.61999989
   15.74888897   99.12950134    0.41999999    2.61999989
   15.75222206  100.32599640    0.41999999    2.61999989
   15.75527763   87.03839874    0.41999999    2.64000010
   15.75777817   93.74880219    0.41999999    2.61999989
   15.75888920  104.10299683    0.41999999    2.61999989
   15.76222229   87.70259857    0.41999999    2.61999989
   15.76555538   92.15730286    0.41999999    2.61999989
   15.76861095   94.21820068    0.40000001    2.61999989
   15.77194405   92.50689697    0.40000001    2.61999989
   15.77527714   96.13739777    0.40000001    2.61999989
   15.77833271  103.78900146    0.38000000    2.61999989
   15.78166676   98.80059814    0.38000000    2.61999989
   15.78750038   98.80059814    0.40000001    2.61999989
   15.79166698  106.36499786    0.38000000    2.61999989
   15.79500008  103.80699921    0.38000000    2.61999989
   15.79805565  103.90799713    0.38000000    2.61999989
   15.80138874  112.46199799    0.38000000    2.61999989
   15.80472279  110.49600220    0.40000001    2.61999989
   15.80777836  107.94799805    0.40000001    2.61999989
   15.81111145  108.92900085    0.40000001    2.61999989
   15.81416702  105.34400177    0.40000001    2.61999989
   15.81750011  112.41500092    0.41999999    2.61999989
   15.82083321  115.52400208    0.41999999    2.61999989
   15.82388878  109.74500275    0.41999999    2.61999989
   15.82444477  105.34200287    0.41999999    2.61999989
   15.83027744  105.34200287    0.40000001    2.61999989
   15.83444405   98.43640137    0.41999999    2.61999989
   15.83777714   97.27929688    0.41999999    2.61999989
   15.84111118  107.54199982    0.41999999    2.61999989
   15.84416676  103.49700165    0.41999999    2.61999989
   15.84749985  101.97699738    0.41999999    2.61999989
   15.85055637  106.38800049    0.41999999    2.61999989
   15.85388947  107.83899689    0.40000001    2.61999989
   15.85722256   98.53610229    0.40000001    2.61999989
   15.85777855  100.40200043    0.40000001    2.61999989
   15.86083412  103.81400299    0.40000001    2.61999989
   15.86416721   97.45690155    0.40000001    2.61999989
   15.86722279   93.36470032    0.40000001    2.61999989
   15.87333393   93.36470032    0.40000001    2.61999989
   15.87750053  103.86799622    0.40000001    2.61999989
   15.88083363   91.99600220    0.40000001    2.61999989
   15.88388920  104.87300110    0.40000001    2.64000010
   15.88722229   93.86019897    0.41999999    2.61999989
   15.89055538   96.32029724    0.41999999    2.61999989
   15.89111137   91.51670074    0.41999999    2.61999989
   15.89416695   93.52870178    0.41999999    2.61999989
   15.89750004   94.15029907    0.41999999    2.64000010
   15.90055561   95.44589996    0.41999999    2.64000010
   15.90388870   95.08609772    0.41999999    2.64000010
   15.90694427   89.23580170    0.41999999    2.64000010
   15.91027737   92.37079620    0.41999999    2.64000010
   15.91638851   92.37079620    0.41999999    2.61999989
   15.92027855   84.98570251    0.40000001    2.61999989
   15.92361164   96.17579651    0.40000001    2.61999989
   15.92444515   92.36519623    0.40000001    2.61999989
   15.92722225   96.56410217    0.40000001    2.61999989
   15.93055630   93.73690033    0.40000001    2.61999989
   15.93361092   90.90599823    0.40000001    2.64000010
   15.93694496   92.99960327    0.40000001    2.61999989
   15.94000053   87.37640381    0.40000001    2.64000010
   15.94333363   83.06939697    0.40000001    2.61999989
   15.94666672   87.04209900    0.40000001    2.61999989
   15.94972229   86.58239746    0.40000001    2.61999989
   15.95305538   87.73639679    0.40000001    2.61999989
   15.95888901   87.73639679    0.40000001    2.64000010
   15.96305561   93.29029846    0.40000001    2.61999989
   15.96638870   88.09429932    0.41999999    2.61999989
   15.96944427   89.57170105    0.41999999    2.61999989
   15.97277737   84.49579620    0.41999999    2.61999989
   15.97611046   85.63310242    0.51999998    2.64000010
   15.97916603   90.01439667    0.58999997    2.64000010
   15.98249912   96.67539978    0.67000002    2.64000010
   15.98555565   91.37290192    0.67000002    2.61999989
   15.98888874   92.96859741    0.75000000    2.64000010
   15.99111176   96.80100250    0.75000000    2.64000010
   15.99250031   98.56819916    0.75000000    2.61999989
   15.99583340   96.25679779    0.73000002    2.61999989
   16.00194359   96.25679779    0.79000002    2.61999989
   16.00583267   95.16490173    0.69000000    2.61999989
   16.00916672   99.06580353    0.69000000    2.64000010
   16.01250076   96.62449646    0.76999998    2.61999989
   16.01555634   92.32759857    0.75000000    2.64000010
   16.01888847   89.77390289    0.75000000    2.64000010
   16.02222252   99.57959747    0.70999998    2.59999990
   16.02444458  100.04900360    0.64999998    2.64000010
   16.02583313  112.86100006    0.64999998    2.64000010
   16.02916718   96.37390137    0.56999999    2.61999989
   16.03222275  105.39600372    0.58999997    2.64000010
   16.03555489   99.26560211    0.63000000    2.61999989
   16.03888893  101.15499878    0.63000000    2.61999989
   16.04472160  101.15499878    0.63000000    2.61999989
   16.04888916  101.54399872    0.61000001    2.64000010
   16.05194283  108.80500031    0.61000001    2.61999989
   16.05527687  106.84500122    0.61000001    2.61999989
   16.05777740   88.23400116    0.61000001    2.61999989
   16.05888748   89.72039795    0.61000001    2.61999989
   16.06222153  102.44400024    0.63000000    2.61999989
   16.06527710  101.69899750    0.61000001    2.61999989
   16.06861115   97.05860138    0.58999997    2.61999989
   16.07194519  106.06099701    0.58999997    2.61999989
   16.07500076   93.42379761    0.58999997    2.61999989
   16.07833481   96.07039642    0.58999997    2.64000010
   16.08166695  103.83499908    0.55000001    2.61999989
   16.08750153  103.83499908    0.55000001    2.61999989
   16.09166718   99.52359772    0.55000001    2.61999989
   16.09472275   93.09750366    0.52999997    2.64000010
   16.09805679   91.22329712    0.51999998    2.64000010
   16.10138893  101.53800201    0.51999998    2.61999989
   16.10472298   92.68139648    0.51999998    2.64000010
   16.10805511   99.93710327    0.51999998    2.64000010
   16.11111069  100.19799805    0.51999998    2.64000010
   16.11444473   99.71839905    0.50000000    2.64000010
   16.11750031   99.06690216    0.50000000    2.61999989
   16.12083435   94.18370056    0.50000000    2.61999989
   16.12416649   89.20860291    0.47999999    2.61999989
   16.12472153   93.48899841    0.47999999    2.61999989
   16.13027763   93.48899841    0.46000001    2.61999989
   16.13444519   90.26049805    0.46000001    2.61999989
   16.13777733  104.13500214    0.46000001    2.61999989
   16.14083290  103.90699768    0.46000001    2.61999989
   16.14416695   92.98870087    0.46000001    2.61999989
   16.14749908   86.49420166    0.46000001    2.61999989
   16.15055466   85.52459717    0.46000001    2.61999989
   16.15388870   93.79499817    0.41999999    2.61999989
   16.15722275   87.74490356    0.44000000    2.64000010
   16.15805435   94.53240204    0.44000000    2.64000010
   16.16055489   85.43329620    0.44000000    2.61999989
   16.16416550   87.60479736    0.41999999    2.64000010
   16.16722107   98.36209869    0.41999999    2.64000010
   16.17305565   98.36209869    0.41999999    2.61999989
   16.17722130  104.93800354    0.40000001    2.64000010
   16.18055534   98.79319763    0.40000001    2.61999989
   16.18388748   89.63520050    0.40000001    2.61999989
   16.18694305   97.67400360    0.40000001    2.64000010
   16.19027710   93.43879700    0.38000000    2.64000010
   16.19138718   96.16190338    0.38000000    2.64000010
   16.19388771   85.55269623    0.38000000    2.64000010
   16.19722176   96.97589874    0.38000000    2.64000010
   16.20055580  100.37400055    0.34000000    2.61999989
   16.20361137   95.24359894    0.36000001    2.64000010
   16.20694542   93.63539886    0.38000000    2.64000010
   16.21027946   99.09200287    0.36000001    2.64000010
   16.21611214   99.09200287    0.38000000    2.64000010
   16.22027779   94.32540131    0.38000000    2.64000010
   16.22333336   89.86550140    0.38000000    2.64000010
   16.22472191   91.30690002    0.38000000    2.64000010
   16.22694588   91.82620239    0.38000000    2.64000010
   16.23027802   88.96630096    0.40000001    2.61999989
   16.23361206   99.48280334    0.40000001    2.61999989
   16.23694420   88.90319824    0.40000001    2.61999989
   16.23999977   92.63610077    0.40000001    2.61999989
   16.24333382   85.93990326    0.40000001    2.61999989
   16.24666786   91.68939972    0.40000001    2.64000010
   16.24972153   86.98110199    0.40000001    2.61999989
   16.25305557   99.07610321    0.40000001    2.61999989
   16.25888824   99.07610321    0.41999999    2.64000010
   16.26305580   86.91989899    0.41999999    2.64000010
   16.26611137   91.71279907    0.41999999    2.64000010
   16.26944351   90.21620178    0.44000000    2.64000010
   16.27277756   91.13839722    0.44000000    2.64000010
   16.27583313   91.53839874    0.44000000    2.64000010
   16.27916718   89.15640259    0.44000000    2.64000010
   16.28249931   93.19360352    0.44000000    2.61999989
   16.28555489   88.90309906    0.44000000    2.61999989
   16.28888893   89.90859985    0.44000000    2.61999989
   16.29138756   95.21920013    0.41999999    2.61999989
   16.29249954   90.62270355    0.41999999    2.61999989
   16.29583359   91.87220001    0.41999999    2.64000010
   16.30166626   91.87220001    0.41999999    2.61999989
   16.30583191   89.77989960    0.41999999    2.64000010
   16.30916595   90.69680023    0.41999999    2.64000010
   16.31222153   95.01380157    0.41999999    2.64000010
   16.31555557   92.10240173    0.41999999    2.64000010
   16.31888962   87.67800140    0.44000000    2.64000010
   16.32194519   91.07309723    0.41999999    2.61999989
   16.32472229   87.98000336    0.41999999    2.61999989
   16.32555580   99.60230255    0.41999999    2.61999989
   16.32888985   86.90879822    0.41999999    2.64000010
   16.33222389   93.12200165    0.41999999    2.64000010
   16.33527756   87.51049805    0.41999999    2.64000010
   16.33861160   88.85540009    0.41999999    2.61999989
   16.34444427   88.85540009    0.40000001    2.64000010
   16.34861183   88.21130371    0.41999999    2.61999989
   16.35194397   93.05539703    0.41999999    2.61999989
   16.35527802   89.12270355    0.41999999    2.64000010
   16.35805511   89.77580261    0.41999999    2.64000010
   16.35861206   89.71649933    0.41999999    2.64000010
   16.36194420   95.66709900    0.41999999    2.64000010
   16.36527824   94.00499725    0.41999999    2.64000010
   16.36833382   96.23770142    0.41999999    2.64000010
   16.37166595   91.22709656    0.41999999    2.64000010
   16.37500000   95.67569733    0.41999999    2.64000010
   16.37805557   94.16269684    0.44000000    2.61999989
   16.38138962   93.79810333    0.44000000    2.61999989
   16.38750076   93.79810333    0.44000000    2.64000010
   16.39166641   87.24780273    0.46000001    2.64000010
   16.39472198   96.46140289    0.44000000    2.61999989
   16.39805603   89.30889893    0.41999999    2.64000010
   16.40111160   88.39820099    0.41999999    2.64000010
   16.40444374   88.19689941    0.44000000    2.64000010
   16.40777779   86.74870300    0.44000000    2.64000010
   16.41110992   95.52940369    0.44000000    2.64000010
   16.41416550   94.64499664    0.44000000    2.61999989
   16.41749954   96.27870178    0.44000000    2.61999989
   16.42055511   87.75090027    0.41999999    2.64000010
   16.42388916   91.49680328    0.41999999    2.61999989
   16.42472076   89.48149872    0.41999999    2.61999989
   16.43027687   89.48149872    0.41999999    2.61999989
   16.43444443   97.37390137    0.40000001    2.64000010
   16.43750000   92.58959961    0.40000001    2.64000010
   16.44083214   96.68779755    0.40000001    2.61999989
   16.44416618   90.60919952    0.40000001    2.64000010
   16.44722176   84.77210236    0.40000001    2.64000010
   16.45055580   92.02369690    0.41999999    2.64000010
   16.45388985   93.64170074    0.44000000    2.61999989
   16.45694542   94.40740204    0.44000000    2.61999989
   16.45805550   91.10089874    0.44000000    2.61999989
   16.46083450   89.16570282    0.44000000    2.61999989
   16.46389008   94.54759979    0.44000000    2.61999989
   16.46722221   94.75270081    0.40000001    2.64000010
   16.47305679   94.75270081    0.40000001    2.64000010
   16.47722244   94.45079803    0.40000001    2.64000010
   16.48055649  100.53900146    0.40000001    2.61999989
   16.48361206   96.32460022    0.40000001    2.61999989
   16.48694420   98.36100006    0.40000001    2.64000010
   16.49027824   86.18109894    0.40000001    2.61999989
   16.49138832   95.05690002    0.40000001    2.61999989
   16.49361229   94.62220001    0.38000000    2.64000010
   16.49694443   99.54959869    0.38000000    2.64000010
   16.50027847   93.16220093    0.38000000    2.61999989
   16.50333405   95.82219696    0.38000000    2.61999989
   16.50666618   96.83090210    0.38000000    2.61999989
   16.51000023  102.30699921    0.38000000    2.64000010
   16.51583290  102.30699921    0.38000000    2.64000010
   16.52000046   87.50810242    0.40000001    2.64000010
   16.52333260   97.68419647    0.40000001    2.61999989
   16.52472115  104.01599884    0.40000001    2.61999989
   16.52694511   96.05180359    0.40000001    2.61999989
   16.53027725   99.75620270    0.40000001    2.61999989
   16.53361130   99.07720184    0.41999999    2.64000010
   16.53666687   95.69249725    0.41999999    2.64000010
   16.53999901  100.55400085    0.41999999    2.64000010
   16.54333305   93.58209991    0.41999999    2.64000010
   16.54638863   97.43620300    0.44000000    2.64000010
   16.54972076   95.56079865    0.44000000    2.64000010
   16.55305481   89.56549835    0.44000000    2.64000010
   16.55888748   89.56549835    0.46000001    2.64000010
   16.56305504   84.38659668    0.44000000    2.61999989
   16.56611061   96.13710022    0.44000000    2.64000010
   16.56944466   93.40200043    0.41999999    2.64000010
   16.57250023   87.40360260    0.41999999    2.64000010
   16.57583427   98.77120209    0.38000000    2.64000010
   16.57916832   92.22910309    0.36000001    2.64000010
   16.58222389  101.28700256    0.38000000    2.64000010
   16.58555603   84.52369690    0.38000000    2.64000010
   16.58889008   92.43109894    0.38000000    2.64000010
   16.59138870   88.75299835    0.40000001    2.64000010
   16.59250069   95.49919891    0.40000001    2.64000010
   16.59555626  105.00399780    0.40000001    2.64000010
   16.60166740  105.00399780    0.40000001    2.61999989
   16.60583305   92.16410065    0.40000001    2.61999989
   16.60888863   85.79389954    0.38000000    2.64000010
   16.61222267   89.43460083    0.40000001    2.64000010
   16.61555672   91.70870209    0.40000001    2.64000010
   16.61861038   91.23239899    0.38000000    2.64000010
   16.62194443   94.98210144    0.38000000    2.64000010
   16.62472153  102.18900299    0.38000000    2.64000010
   16.62583351   95.16130066    0.38000000    2.64000010
   16.62888908   91.24929810    0.38000000    2.64000010
   16.63222313  101.03099823    0.38000000    2.64000010
   16.63527679   91.32810211    0.38000000    2.64000010
   16.63861084   93.83860016    0.40000001    2.64000010
   16.64444351   93.83860016    0.40000001    2.61999989
   16.64861107   87.01090240    0.40000001    2.61999989
   16.65194321   91.53220367    0.40000001    2.64000010
   16.65499878  101.85900116    0.40000001    2.64000010
   16.65805435  100.28700256    0.41999999    2.64000010
   16.65888786   94.72329712    0.41999999    2.64000010
   16.66194344   90.38800049    0.41999999    2.64000010
   16.66527748   94.62449646    0.41999999    2.64000010
   16.66860962   88.94229889    0.41999999    2.64000010
   16.67166519   91.59719849    0.41999999    2.64000010
   16.67499924   90.97650146    0.41999999    2.64000010
   16.67805481   90.66750336    0.40000001    2.64000010
   16.68138885   90.32469940    0.40000001    2.61999989
   16.68722153   90.32469940    0.41999999    2.64000010
   16.69138718   97.25099945    0.41999999    2.64000010
   16.69472122   90.51779938    0.41999999    2.64000010
   16.69777679   89.20089722    0.46000001    2.64000010
   16.70138931   97.28079987    0.46000001    2.64000010
   16.70444489   93.22799683    0.44000000    2.61999989
   16.70777893   93.50299835    0.41999999    2.61999989
   16.71111107   90.70850372    0.41999999    2.61999989
   16.71416664   94.22640228    0.41999999    2.61999989
   16.71750069  102.39499664    0.41999999    2.64000010
   16.72055626   86.86090088    0.40000001    2.64000010
   16.72389030  101.44799805    0.40000001    2.61999989
   16.72472191   99.88880157    0.40000001    2.61999989
   16.74555588   99.88880157    0.38000000    2.61999989
   16.74944496   92.73680115    0.40000001    2.61999989
   16.75277710   97.40740204    0.38000000    2.61999989
   16.75611115   92.86599731    0.38000000    2.61999989
   16.75805473   94.69400024    0.38000000    2.61999989
   16.75972176  100.60099792    0.40000001    2.61999989
   16.76277733   91.28009796    0.40000001    2.61999989
   16.76611137   94.45570374    0.40000001    2.64000010
   16.76916695   91.52570343    0.41999999    2.61999989
   16.77249908   98.80169678    0.44000000    2.61999989
   16.77583313   96.29080200    0.46000001    2.61999989
   16.77888870   86.58170319    0.44000000    2.61999989
   16.78222275   89.69390106    0.44000000    2.61999989
   16.78805542   89.69390106    0.44000000    2.61999989
   16.79222107   95.95590210    0.44000000    2.61999989
   16.79555511   97.72879791    0.41999999    2.64000010
   16.79888916   95.06919861    0.41999999    2.61999989
   16.80194283   90.42050171    0.40000001    2.64000010
   16.80527687   92.58560181    0.41999999    2.64000010
   16.80833244   96.86979675    0.41999999    2.64000010
   16.81166649   91.81169891    0.41999999    2.61999989
   16.81499863   97.55059814    0.44000000    2.64000010
   16.81805611   89.97170258    0.44000000    2.61999989
   16.82139015  107.90200043    0.46000001    2.64000010
   16.82472229   98.60630035    0.44000000    2.61999989
   16.82527924   94.99649811    0.44000000    2.61999989
   16.83111191   94.99649811    0.44000000    2.64000010
   16.83527756   88.29640198    0.44000000    2.64000010
   16.83833313   96.95610046    0.40000001    2.64000010
   16.84166718  102.79499817    0.40000001    2.64000010
   16.84472275  101.95600128    0.40000001    2.64000010
   16.84805679   99.47499847    0.40000001    2.61999989
   16.85138893   96.50509644    0.38000000    2.61999989
   16.85444450   96.62180328    0.41999999    2.64000010
   16.85777855  107.83699799    0.41999999    2.64000010
   16.85861206   99.65080261    0.41999999    2.64000010
   16.86166763  101.48999786    0.41999999    2.61999989
   16.86499977   93.06739807    0.41999999    2.64000010
   16.86833382   95.74880219    0.44000000    2.64000010
   16.87388992   95.74880219    0.41999999    2.64000010
   16.87805557   92.43910217    0.41999999    2.64000010
   16.88111115   94.84190369    0.41999999    2.61999989
   16.88444519  100.06400299    0.41999999    2.64000010
   16.88777733  102.34500122    0.40000001    2.64000010
   16.89083290  102.70999908    0.40000001    2.64000010
   16.89194489   93.51889801    0.41999999    2.61999989
   16.89444351   98.08899689    0.41999999    2.61999989
   16.89777756   98.49099731    0.40000001    2.61999989
   16.90111160   95.43530273    0.40000001    2.64000010
   16.90416718   97.12259674    0.40000001    2.64000010
   16.90749931   91.12709808    0.38000000    2.64000010
   16.91083336   99.60420227    0.38000000    2.64000010
   16.91666603   99.60420227    0.38000000    2.61999989
   16.92083359  101.13300323    0.38000000    2.61999989
   16.92416573   89.68190002    0.38000000    2.61999989
   16.92527771  103.52799988    0.38000000    2.61999989
   16.92749977   92.07469940    0.38000000    2.61999989
   16.93083191   99.94429779    0.40000001    2.61999989
   16.93388748   98.21459961    0.41999999    2.61999989
   16.93722153  106.31999969    0.41999999    2.61999989
   16.94055557   99.39890289    0.41999999    2.64000010
   16.94361115  108.96199799    0.41999999    2.64000010
   16.94694328  101.93599701    0.41999999    2.64000010
   16.95027924   95.68139648    0.44000000    2.64000010
   16.95333481  100.49500275    0.41999999    2.61999989
   16.95944595  100.49500275    0.41999999    2.61999989
   16.96361160   95.56929779    0.41999999    2.61999989
   16.96694565   92.53389740    0.41999999    2.61999989
   16.97027779  100.58200073    0.41999999    2.61999989
   16.97333336   96.04709625    0.41999999    2.61999989
   16.97666740   97.38159943    0.41999999    2.61999989
   16.97972298  102.18099976    0.41999999    2.61999989
   16.98305511   96.01170349    0.41999999    2.61999989
   16.98638916  106.40599823    0.41999999    2.61999989
   16.98944473  103.44400024    0.40000001    2.61999989
   16.99194527  108.69899750    0.40000001    2.61999989
   16.99305534  107.55200195    0.40000001    2.61999989
   16.99638939   97.27649689    0.38000000    2.61999989
   17.00250053   97.27649689    0.36000001    2.61999989
   17.00666618  100.45899963    0.36000001    2.61999989
   17.00972176   94.64649963    0.38000000    2.61999989
   17.01305580  109.46800232    0.38000000    2.64000010
   17.01611137  106.84100342    0.40000001    2.64000010
   17.01944351  101.07399750    0.40000001    2.64000010
   17.02277756  108.08499908    0.40000001    2.64000010
   17.02527809  113.90599823    0.40000001    2.64000010
   17.02638817  106.73400116    0.40000001    2.64000010
   17.02972221  111.08300018    0.40000001    2.61999989
   17.03305435  114.06600189    0.41999999    2.61999989
   17.03610992  115.72899628    0.41999999    2.61999989
   17.03944397  111.05599976    0.41999999    2.61999989
   17.04527664  111.05599976    0.41999999    2.61999989
   17.04944420  107.84500122    0.44000000    2.64000010
   17.05249977  108.45099640    0.47999999    2.61999989
   17.05583191  100.56099701    0.47999999    2.64000010
   17.05861092   98.20670319    0.47999999    2.61999989
   17.05944443  100.83000183    0.47999999    2.61999989
   17.06277657  103.68199921    0.46000001    2.61999989
   17.06611061  118.18900299    0.44000000    2.64000010
   17.06916809  106.94899750    0.40000001    2.61999989
   17.07250023   99.05799866    0.40000001    2.61999989
   17.07555580  109.97200012    0.38000000    2.61999989
   17.07888985  109.97699738    0.38000000    2.64000010
   17.08222389  119.23000336    0.40000001    2.61999989
   17.08805656  119.23000336    0.41999999    2.61999989
   17.09222221  129.28500366    0.41999999    2.64000010
   17.09555626  112.88899994    0.41999999    2.64000010
   17.09861183  105.85399628    0.44000000    2.61999989
   17.10194397  113.61299896    0.44000000    2.61999989
   17.10527802  107.09600067    0.44000000    2.61999989
   17.10833359  109.75199890    0.44000000    2.61999989
   17.11166763  102.99500275    0.46000001    2.61999989
   17.11472321  119.54900360    0.46000001    2.61999989
   17.11805534  118.95600128    0.47999999    2.61999989
   17.12138939  112.95700073    0.47999999    2.64000010
   17.12444496  135.73100281    0.47999999    2.61999989
   17.12527847  118.76599884    0.47999999    2.61999989
   17.13083267  118.76599884    0.47999999    2.61999989
   17.13500023  114.41000366    0.50000000    2.61999989
   17.13833237  106.36199951    0.50000000    2.61999989
   17.14166641  126.59200287    0.51999998    2.61999989
   17.14472198  110.34999847    0.50000000    2.61999989
   17.14805603  102.46900177    0.51999998    2.61999989
   17.15111160  105.38400269    0.51999998    2.61999989
   17.15444374  113.45700073    0.52999997    2.61999989
   17.15777779  106.71900177    0.55000001    2.61999989
   17.15861130  111.22699738    0.55000001    2.61999989
   17.16138840  114.41500092    0.55000001    2.61999989
   17.16444397  101.33499908    0.55000001    2.61999989
   17.16777802   98.93579865    0.51999998    2.61999989
   17.17388916   98.93579865    0.51999998    2.61999989
   17.17805481  136.71699524    0.46000001    2.61999989
   17.18111038  109.83699799    0.44000000    2.61999989
   17.18444443  106.34300232    0.44000000    2.61999989
   17.18750000  125.18499756    0.41999999    2.64000010
   17.19083214  112.90299988    0.44000000    2.64000010
   17.19194412  120.85900116    0.44000000    2.61999989
   17.19444275  115.31700134    0.44000000    2.61999989
   17.19777679  112.22200012    0.46000001    2.61999989
   17.20111275  124.37899780    0.46000001    2.61999989
   17.20416832  125.04799652    0.46000001    2.61999989
   17.20750046  118.58200073    0.46000001    2.61999989
   17.21083450  120.57499695    0.46000001    2.61999989
   17.21666718  120.57499695    0.46000001    2.61999989
   17.22083473  122.62000275    0.47999999    2.61999989
   17.22389030  120.13800049    0.47999999    2.61999989
   17.22527885  123.60299683    0.47999999    2.61999989
   17.22750092  122.31199646    0.47999999    2.61999989
   17.23083305  126.05200195    0.50000000    2.64000010
   17.23416710  123.53299713    0.50000000    2.64000010
   17.23722267  117.69799805    0.51999998    2.61999989
   17.24055672  124.64199829    0.52999997    2.61999989
   17.24388885  116.84400177    0.52999997    2.61999989
   17.24694443  122.73899841    0.51999998    2.61999989
   17.25027847  122.94000244    0.52999997    2.61999989
   17.25361061  122.25099945    0.51999998    2.61999989
   17.25944519  122.25099945    0.50000000    2.61999989
   17.26361084  126.16600037    0.47999999    2.59999990
   17.26694489  132.25399780    0.46000001    2.61999989
   17.27000046  134.59700012    0.41999999    2.64000010
   17.27333260  134.80200195    0.40000001    2.61999989
   17.27638817  129.76699829    0.38000000    2.61999989
   17.27972221  131.32099915    0.38000000    2.61999989
   17.28305435  127.31099701    0.40000001    2.61999989
   17.28610992  116.86399841    0.40000001    2.61999989
   17.28944397  119.12999725    0.40000001    2.61999989
   17.29194450  120.79100037    0.40000001    2.61999989
   17.29305458  124.11699677    0.40000001    2.61999989
   17.29638863  123.21199799    0.41999999    2.61999989
   17.30249977  123.21199799    0.44000000    2.61999989
   17.30666542  113.74900055    0.46000001    2.61999989
   17.30972099  125.96199799    0.47999999    2.61999989
   17.31305504  119.76399994    0.47999999    2.61999989
   17.31638718  143.78199768    0.47999999    2.61999989
   17.31944466  127.26499939    0.47999999    2.61999989
   17.32277870  123.15000153    0.47999999    2.61999989
   17.32527924  125.23799896    0.47999999    2.61999989
   17.32638931  126.88300323    0.47999999    2.61999989
   17.32972336  128.26300049    0.47999999    2.61999989
   17.33305550  123.60500336    0.46000001    2.61999989
   17.33611107  132.21899414    0.44000000    2.61999989
   17.33944511  123.29499817    0.44000000    2.61999989
   17.34527779  123.29499817    0.40000001    2.61999989
   17.34916687  133.94500732    0.40000001    2.61999989
   17.35250092  118.79699707    0.40000001    2.61999989
   17.35583305  117.26100159    0.40000001    2.61999989
   17.35861206  103.50399780    0.41999999    2.61999989
   17.35916710  115.15100098    0.41999999    2.61999989
   17.36250114  109.86900330    0.44000000    2.61999989
   17.36583328  132.14799500    0.44000000    2.61999989
   17.36888885  120.11599731    0.44000000    2.59999990
   17.37222290  129.35699463    0.46000001    2.61999989
   17.37555504  123.48799896    0.46000001    2.61999989
   17.37861061  135.86599731    0.46000001    2.61999989
   17.38194466  125.82199860    0.46000001    2.61999989
   17.38805580  125.82199860    0.44000000    2.61999989
   17.39222145  118.56800079    0.44000000    2.61999989
   17.39555550  124.45899963    0.44000000    2.61999989
   17.39861107  140.02699280    0.44000000    2.61999989
   17.40194321  122.23200226    0.44000000    2.61999989
   17.40527725  119.49900055    0.44000000    2.61999989
   17.40833282  114.51000214    0.44000000    2.61999989
   17.41166687  124.54000092    0.41999999    2.61999989
   17.41472244  124.98999786    0.41999999    2.61999989
   17.41805458  128.19700623    0.40000001    2.59999990
   17.42138863  131.16600037    0.40000001    2.61999989
   17.42444420  122.44300079    0.40000001    2.61999989
   17.42527771  118.36399841    0.40000001    2.61999989
   17.43083191  118.36399841    0.40000001    2.61999989
   17.43499947  128.89100647    0.41999999    2.61999989
   17.43833160  143.37699890    0.41999999    2.61999989
   17.44138718  127.02600098    0.44000000    2.61999989
   17.44472122  127.49600220    0.44000000    2.61999989
   17.44777679  129.68600464    0.44000000    2.61999989
   17.45111275  137.43200684    0.41999999    2.59999990
   17.45444489  121.21199799    0.44000000    2.61999989
   17.45750046  121.26200104    0.44000000    2.61999989
   17.45861244  121.98799896    0.44000000    2.61999989
   17.46111107  115.05100250    0.46000001    2.61999989
   17.46444511  123.99400330    0.46000001    2.61999989
   17.46777916  127.42800140    0.46000001    2.59999990
   17.47361183  127.42800140    0.47999999    2.61999989
   17.47777748  123.83300018    0.46000001    2.61999989
   17.48111153  117.04199982    0.46000001    2.61999989
   17.48416710  114.07299805    0.46000001    2.61999989
   17.48750114  117.55599976    0.46000001    2.61999989
   17.49083328  118.17299652    0.44000000    2.61999989
   17.49194527  115.67500305    0.44000000    2.61999989
   17.49444389  112.84600067    0.44000000    2.61999989
   17.49749947  121.07199860    0.44000000    2.61999989
   17.50083351  122.66200256    0.41999999    2.59999990
   17.50388908  122.91200256    0.41999999    2.61999989
   17.50722313  116.07399750    0.41999999    2.61999989
   17.51055527  119.98999786    0.41999999    2.61999989
   17.51666641  119.98999786    0.41999999    2.61999989
   17.52055550  106.87500000    0.41999999    2.59999990
   17.52388954  116.22599792    0.41999999    2.59999990
   17.52555466  119.61699677    0.41999999    2.61999989
   17.52777672  106.76399994    0.41999999    2.61999989
   17.53166580  125.68599701    0.41999999    2.61999989
   17.53499985  110.93499756    0.44000000    2.61999989
   17.53805542  119.67400360    0.44000000    2.59999990
   17.54138756  108.28099823    0.44000000    2.61999989
   17.54472160  114.69300079    0.46000001    2.61999989
   17.54777718  115.30899811    0.44000000    2.61999989
   17.55111122  106.56800079    0.44000000    2.61999989
   17.55444336  110.59400177    0.46000001    2.61999989
   17.55944443  110.59400177    0.47999999    2.61999989
   17.56361008  105.37300110    0.46000001    2.61999989
   17.56666756  111.24299622    0.46000001    2.61999989
   17.57000160  104.71700287    0.44000000    2.61999989
   17.57333374  115.69400024    0.46000001    2.61999989
   17.57666779  121.83100128    0.44000000    2.61999989
   17.58000183  110.65299988    0.41999999    2.59999990
   17.58333397  115.05599976    0.40000001    2.61999989
   17.58638954  117.47100067    0.40000001    2.61999989
   17.58972359  117.38300323    0.40000001    2.61999989
   17.59194565  121.32299805    0.41999999    2.59999990
   17.59361267  105.43900299    0.41999999    2.59999990
   17.59666824  111.61399841    0.41999999    2.59999990
   17.60222244  111.61399841    0.44000000    2.61999989
   17.60639000  109.83399963    0.44000000    2.61999989
   17.60972214  127.20400238    0.46000001    2.59999990
   17.61277771  111.52500153    0.44000000    2.61999989
   17.61611176  119.57299805    0.46000001    2.59999990
   17.61944389  109.99199677    0.46000001    2.59999990
   17.62249947  116.60399628    0.46000001    2.61999989
   17.62527847  112.31600189    0.46000001    2.61999989
   17.62638855  119.55200195    0.46000001    2.61999989
   17.62944412  117.62400055    0.44000000    2.59999990
   17.63277817  116.94799805    0.44000000    2.59999990
   17.63583374  114.48899841    0.44000000    2.59999990
   17.63916588  112.32800293    0.44000000    2.59999990
   17.64500046  112.32800293    0.44000000    2.59999990
   17.64916611  119.70899963    0.46000001    2.61999989
   17.65250015  106.51699829    0.46000001    2.59999990
   17.65555573  107.33499908    0.46000001    2.61999989
   17.65861130  109.17800140    0.44000000    2.61999989
   17.65944481  111.86199951    0.44000000    2.61999989
   17.66250038  104.79499817    0.41999999    2.59999990
   17.66583252  110.50000000    0.41999999    2.59999990
   17.66916656  106.30999756    0.41999999    2.59999990
   17.67222214  109.41200256    0.41999999    2.61999989
   17.67555428  110.85099792    0.44000000    2.59999990
   17.67860985  115.61599731    0.46000001    2.59999990
   17.68194389  121.42099762    0.44000000    2.61999989
   17.68777657  121.42099762    0.46000001    2.59999990
   17.69194412   96.96219635    0.46000001    2.59999990
   17.69527626  107.37599945    0.46000001    2.59999990
   17.69861031  109.11100006    0.44000000    2.61999989
   17.70166779  108.40100098    0.40000001    2.61999989
   17.70499992  118.80000305    0.40000001    2.59999990
   17.70833397  100.35099792    0.40000001    2.59999990
   17.71138954  106.83799744    0.40000001    2.59999990
   17.71472359  109.27400208    0.38000000    2.59999990
   17.71777916   94.60359955    0.40000001    2.59999990
   17.72111130  103.99299622    0.41999999    2.59999990
   17.72444534  101.34700012    0.44000000    2.59999990
   17.72527885  101.63200378    0.44000000    2.59999990
   17.73083305  101.63200378    0.47999999    2.59999990
   17.73500061  101.15100098    0.50000000    2.57999992
   17.73805618  109.25599670    0.50000000    2.59999990
   17.74138832  104.66000366    0.50000000    2.59999990
   17.75888824  102.19999695    0.50000000    2.59999990
   17.76138878   98.85600281    0.47999999    2.59999990
   17.76472282  117.43499756    0.47999999    2.61999989
   17.76777840  110.89900208    0.50000000    2.59999990
   17.77388954  110.89900208    0.47999999    2.57999992
   17.77805519  119.29799652    0.47999999    2.59999990
   17.78111076  105.32499695    0.47999999    2.59999990
   17.78444481  115.24700165    0.44000000    2.61999989
   17.78777695  108.23600006    0.41999999    2.59999990
   17.79083252  104.01000214    0.41999999    2.59999990
   17.79222107  119.38999939    0.40000001    2.59999990
   17.79472160  103.70200348    0.40000001    2.59999990
   17.79777718  106.50700378    0.40000001    2.59999990
   17.80111122  105.04399872    0.41999999    2.59999990
   17.80444336  107.71600342    0.41999999    2.59999990
   17.80749893  102.87300110    0.40000001    2.59999990
   17.81083298  108.43699646    0.40000001    2.59999990
   17.81666756  108.43699646    0.44000000    2.59999990
   17.82083511  112.54900360    0.44000000    2.59999990
   17.82389069  109.23000336    0.44000000    2.59999990
   17.82555580  107.80899811    0.46000001    2.59999990
   17.82777786  108.26499939    0.46000001    2.59999990
   17.83083344  112.03099823    0.46000001    2.59999990
   17.83416748  115.74199677    0.47999999    2.59999990
   17.83750153  100.95700073    0.50000000    2.59999990
   17.84055710  119.09600067    0.51999998    2.59999990
   17.84388924  118.90599823    0.51999998    2.59999990
   17.84722328  114.24299622    0.51999998    2.59999990
   17.85027885  124.39499664    0.50000000    2.57999992
   17.85361099  117.43699646    0.51999998    2.59999990
   17.85944557  117.43699646    0.51999998    2.59999990
   17.86361122  116.90799713    0.52999997    2.57999992
   17.86694527  114.91600037    0.52999997    2.57999992
   17.87000084  122.93199921    0.56999999    2.59999990
   17.87333298  114.83499908    0.55000001    2.59999990
   17.87666702  117.99600220    0.52999997    2.59999990
   17.87972260  119.00299835    0.47999999    2.59999990
   17.88305473  116.12000275    0.46000001    2.59999990
   17.88611031  126.24400330    0.46000001    2.59999990
   17.88944435  113.13999939    0.46000001    2.59999990
   17.89222145  102.84100342    0.46000001    2.59999990
   17.89333344  112.72699738    0.46000001    2.59999990
   17.89638901  105.73899841    0.47999999    2.59999990
   17.90222168  105.73899841    0.50000000    2.59999990
   17.90638924  119.92500305    0.50000000    2.59999990
   17.90972137  128.03399658    0.50000000    2.59999990
   17.91305542  115.03199768    0.51999998    2.59999990
   17.91611099  102.30500031    0.51999998    2.59999990
   17.91944313  114.21399689    0.51999998    2.59999990
   17.92249870  106.32499695    0.50000000    2.57999992
   17.92555428  114.29499817    0.51999998    2.57999992
   17.92638779  111.48200226    0.51999998    2.57999992
   17.92944336  110.10700226    0.51999998    2.57999992
   17.93277740  100.56700134    0.55000001    2.59999990
   17.93610954  109.21800232    0.55000001    2.59999990
   17.93916512  102.26599884    0.55000001    2.59999990
   17.94527626  102.26599884    0.50000000    2.57999992
   17.94944382  109.69100189    0.47999999    2.59999990
   17.95250130  100.65299988    0.47999999    2.59999990
   17.95583344   98.48229980    0.47999999    2.59999990
   17.95888901  101.73400116    0.47999999    2.59999990
   17.95944595  102.50599670    0.47999999    2.59999990
   17.96250153  114.57599640    0.47999999    2.59999990
   17.96583366   98.15229797    0.47999999    2.59999990
   17.96916771  105.20300293    0.47999999    2.59999990
   17.97222328   98.32820129    0.47999999    2.59999990
   17.97555542  109.62899780    0.47999999    2.59999990
   17.97861099  103.59700012    0.47999999    2.59999990
   17.98194504  109.06199646    0.47999999    2.59999990
   17.98805618  109.06199646    0.47999999    2.59999990
   17.99222183  100.55100250    0.47999999    2.59999990
   17.99277878  104.61299896    0.47999999    2.59999990
   17.99583435  104.47799683    0.47999999    2.59999990
   17.99916649  100.89399719    0.47999999    2.59999990
   18.00250053  100.00199890    0.47999999    2.59999990
   18.00555611  105.03199768    0.47999999    2.59999990
   18.00888824   94.83139801    0.47999999    2.59999990
   18.01194382   99.51619720    0.47999999    2.59999990
   18.01527786   98.62640381    0.47999999    2.59999990
   18.01861000  101.82499695    0.47999999    2.59999990
   18.02166557  102.57499695    0.47999999    2.59999990
   18.02499962  110.57199860    0.47999999    2.59999990
   18.02555466  112.84200287    0.47999999    2.59999990
   18.03083229  112.84200287    0.47999999    2.59999990
   18.03499985  102.50700378    0.47999999    2.59999990
   18.03833199  107.76599884    0.47999999    2.59999990
   18.04138756  100.91500092    0.47999999    2.59999990
   18.04472160  105.25000000    0.47999999    2.59999990
   18.04805565  102.78700256    0.47999999    2.59999990
   18.05111122  107.25099945    0.47999999    2.59999990
   18.05444336   98.23840332    0.47999999    2.59999990
   18.05749893   97.29060364    0.47999999    2.59999990
   18.05888748  103.22599792    0.47999999    2.59999990
   18.06138802  102.49299622    0.47999999    2.59999990
   18.06444359  100.62300110    0.47999999    2.59999990
   18.06777954  102.91799927    0.47999999    2.59999990
   18.07361221  102.91799927    0.47999999    2.59999990
   18.07777786  105.73100281    0.47999999    2.59999990
   18.08111191  103.05500031    0.47999999    2.59999990
   18.08444595  102.04699707    0.47999999    2.59999990
   18.08750153  100.08300018    0.47999999    2.59999990
   18.09083366  106.15799713    0.47999999    2.59999990
   18.09222221  115.78800201    0.47999999    2.59999990
   18.09444427  107.14299774    0.47999999    2.59999990
   18.09749985  113.67099762    0.47999999    2.59999990
   18.10083389   96.28260040    0.47999999    2.59999990
   18.10416794  109.08799744    0.47999999    2.59999990
   18.10722351  106.37300110    0.47999999    2.59999990
   18.11055565   97.70269775    0.47999999    2.59999990
   18.11666679   97.70269775    0.47999999    2.59999990
   18.12083435  111.06199646    0.47999999    2.59999990
   18.12388992  107.06300354    0.47999999    2.59999990
   18.12555504  108.81999969    0.47999999    2.59999990
   18.12777710  104.35600281    0.47999999    2.59999990
   18.13083267  105.12699890    0.47999999    2.59999990
   18.13416672  100.35600281    0.47999999    2.59999990
   18.13750076  101.72399902    0.47999999    2.59999990
   18.14055634  103.72699738    0.47999999    2.59999990
   18.14388847  104.03099823    0.47999999    2.59999990
   18.14722252  104.30400085    0.47999999    2.59999990
   18.15027809  103.62799835    0.47999999    2.59999990
   18.15361023   98.85079956    0.47999999    2.59999990
   18.15944481   98.85079956    0.47999999    2.59999990
   18.16361046  102.40100098    0.47999999    2.59999990
   18.16666603   98.45089722    0.47999999    2.59999990
   18.17000008  102.14800262    0.47999999    2.59999990
   18.17333221   93.98580170    0.47999999    2.59999990
   18.17638779   98.43740082    0.47999999    2.59999990
   18.17972183  100.83799744    0.47999999    2.59999990
   18.18305397   90.85749817    0.47999999    2.59999990
   18.18610954   98.05010223    0.47999999    2.59999990
   18.18944359  106.01499939    0.47999999    2.59999990
   18.19222069  103.02999878    0.47999999    2.59999990
   18.19305420  115.86199951    0.47999999    2.59999990
   18.19610977  100.71700287    0.47999999    2.59999990
   18.20222282  100.71700287    0.47999999    2.59999990
   18.20639038   98.61380005    0.47999999    2.59999990
   18.20972252  103.30000305    0.47999999    2.59999990
   18.21277809  102.20700073    0.47999999    2.59999990
   18.21611214  107.50399780    0.47999999    2.59999990
   18.21916771  103.69400024    0.47999999    2.59999990
   18.22249985  106.85299683    0.47999999    2.59999990
   18.22555542   99.27120209    0.47999999    2.59999990
   18.22611237  105.22799683    0.47999999    2.59999990
   18.22916794   99.23809814    0.47999999    2.59999990
   18.23250008  102.64700317    0.47999999    2.59999990
   18.23583412  112.36599731    0.47999999    2.59999990
   18.23888969   97.60710144    0.47999999    2.59999990
   18.24500084   97.60710144    0.47999999    2.59999990
   18.24916649  108.68099976    0.47999999    2.59999990
   18.25250053   99.27799988    0.47999999    2.59999990
   18.25555611  109.37000275    0.47999999    2.59999990
   18.25888824  101.05799866    0.47999999    2.59999990
   18.25944519  113.86399841    0.47999999    2.59999990
   18.26250076  108.58499908    0.47999999    2.59999990
   18.26583290  107.87000275    0.47999999    2.59999990
   18.26916695  109.57900238    0.47999999    2.59999990
   18.27222252  107.20200348    0.47999999    2.59999990
   18.27555466  104.85099792    0.47999999    2.59999990
   18.27861023   96.67169952    0.47999999    2.59999990
   18.28194427  114.10199738    0.47999999    2.59999990
   18.28805542  114.10199738    0.47999999    2.59999990
   18.29194450  103.12200165    0.47999999    2.59999990
   18.29249954  107.48799896    0.47999999    2.59999990
   18.29583359  107.54499817    0.47999999    2.59999990
   18.29916573  100.90799713    0.47999999    2.59999990
   18.30222130  110.69200134    0.47999999    2.59999990
   18.30555534  109.72699738    0.47999999    2.59999990
   18.30888748  113.60900116    0.47999999    2.59999990
   18.31194305  105.25599670    0.47999999    2.59999990
   18.31527710  100.78299713    0.47999999    2.59999990
   18.31833458  103.52999878    0.47999999    2.59999990
   18.32166672   97.01090240    0.47999999    2.59999990
   18.32500076  101.23100281    0.47999999    2.59999990
   18.32583427  100.34100342    0.47999999    2.59999990
   18.33083344  100.34100342    0.47999999    2.59999990
   18.33500099  105.62599945    0.47999999    2.59999990
   18.33805656  108.29900360    0.47999999    2.59999990
   18.34138870  107.41400146    0.47999999    2.59999990
   18.34472275  101.68699646    0.47999999    2.59999990
   18.34777832  110.70300293    0.47999999    2.59999990
   18.35111237  108.73899841    0.47999999    2.59999990
   18.35416794  112.69899750    0.47999999    2.59999990
   18.35750008  106.39900208    0.47999999    2.59999990
   18.35916710  108.05100250    0.47999999    2.59999990
   18.36111069   96.81909943    0.47999999    2.59999990
   18.36444473  103.27100372    0.47999999    2.59999990
   18.36750031  105.66999817    0.47999999    2.59999990
   18.37361145  105.66999817    0.47999999    2.59999990
   18.37777710  107.05400085    0.47999999    2.59999990
   18.38111115  110.18000031    0.47999999    2.59999990
   18.38416672  100.56500244    0.47999999    2.59999990
   18.38750076  105.53399658    0.47999999    2.59999990
   18.39055634  112.73899841    0.47999999    2.59999990
   18.39249992  104.30300140    0.47999999    2.59999990
   18.39416695  101.72100067    0.47999999    2.59999990
   18.39749908  113.75399780    0.47999999    2.59999990
   18.40055466  101.84899902    0.47999999    2.59999990
   18.40388870  105.06700134    0.47999999    2.59999990
   18.40722275  110.71099854    0.47999999    2.59999990
   18.41027832  102.47200012    0.47999999    2.59999990
   18.41638756  102.47200012    0.47999999    2.59999990
   18.42055511  110.55899811    0.47999999    2.59999990
   18.42388916  104.01300049    0.47999999    2.59999990
   18.42611122  101.99400330    0.47999999    2.59999990
   18.42749977  107.98899841    0.47999999    2.59999990
   18.43083191   98.63649750    0.47999999    2.59999990
   18.43388748   93.55269623    0.47999999    2.59999990
   18.43722153   99.95970154    0.47999999    2.59999990
   18.44055557   98.98960114    0.47999999    2.59999990
   18.44361115  100.06900024    0.47999999    2.59999990
   18.44694328  100.03700256    0.47999999    2.59999990
   18.45027924  106.91699982    0.47999999    2.59999990
   18.45333481  106.26300049    0.47999999    2.59999990
   18.45944595  106.26300049    0.47999999    2.59999990
   18.46361160  102.87500000    0.47999999    2.59999990
   18.46666718  104.58499908    0.47999999    2.59999990
   18.47000122   95.22109985    0.47999999    2.59999990
   18.47305679   97.99079895    0.47999999    2.59999990
   18.47638893  104.24800110    0.47999999    2.59999990
   18.47972298   98.14990234    0.47999999    2.59999990
   18.48277855  106.53500366    0.47999999    2.59999990
   18.48611069  104.58200073    0.47999999    2.59999990
   18.48916626  105.29399872    0.47999999    2.59999990
   18.49250031  111.83399963    0.47999999    2.59999990
   18.49305534   98.27130127    0.47999999    2.59999990
   18.49638939  107.12400055    0.47999999    2.59999990
   18.50222206  107.12400055    0.47999999    2.59999990
   18.50638962  101.72399902    0.47999999    2.59999990
   18.50944519  101.26699829    0.47999999    2.59999990
   18.51277733  103.17700195    0.47999999    2.59999990
   18.51611137  104.36599731    0.47999999    2.59999990
   18.51916695  105.14900208    0.47999999    2.59999990
   18.52249908  111.44999695    0.47999999    2.59999990
   18.52583313  109.77799988    0.47999999    2.59999990
   18.52638817  107.70400238    0.47999999    2.59999990
   18.52944374  108.62400055    0.47999999    2.59999990
   18.53249931  105.47599792    0.47999999    2.59999990
   18.53583336  108.08999634    0.47999999    2.59999990
   18.53916550  106.60700226    0.47999999    2.59999990
   18.54500008  106.60700226    0.47999999    2.59999990
   18.54916573  104.68699646    0.47999999    2.59999990
   18.55249977  107.68699646    0.47999999    2.59999990
   18.55555534  105.11499786    0.47999999    2.59999990
   18.55888748  100.28600311    0.47999999    2.59999990
   18.55972099  103.55100250    0.47999999    2.59999990
   18.56250000   99.55750275    0.47999999    2.59999990
   18.56555557  102.12500000    0.47999999    2.59999990
   18.56888962  100.26300049    0.47999999    2.59999990
   18.57222366  105.67400360    0.47999999    2.59999990
   18.57527924   99.58709717    0.47999999    2.59999990
   18.57861137   99.85449982    0.47999999    2.59999990
   18.58166695  108.72000122    0.47999999    2.59999990
   18.58777809  108.72000122    0.47999999    2.59999990
   18.59194565  107.40599823    0.47999999    2.59999990
   18.59305573   98.21769714    0.47999999    2.59999990
   18.59583473   99.03479767    0.47999999    2.59999990
   18.59889030  103.08899689    0.47999999    2.59999990
   18.60222244   95.68620300    0.47999999    2.59999990
   18.60555649  101.54399872    0.47999999    2.59999990
   18.60861206   94.83760071    0.47999999    2.59999990
   18.61194420  103.41600037    0.47999999    2.59999990
   18.61499977   89.99839783    0.47999999    2.59999990
   18.61833382   96.94589996    0.47999999    2.59999990
   18.62166595  103.27500153    0.47999999    2.59999990
   18.62472153  103.19899750    0.47999999    2.59999990
   18.62638855   99.09220123    0.47999999    2.59999990
   18.63083267   99.09220123    0.47999999    2.59999990
   18.63472176   99.40339661    0.47999999    2.59999990
   18.63805580  108.43299866    0.47999999    2.59999990
   18.64138794  100.29000092    0.47999999    2.59999990
   18.64444351  102.04799652    0.47999999    2.59999990
   18.64777756  100.71499634    0.47999999    2.59999990
   18.65083313  104.53199768    0.47999999    2.59999990
   18.65416718  104.90599823    0.47999999    2.59999990
   18.65749931  107.07900238    0.47999999    2.59999990
   18.65972137  105.45500183    0.47999999    2.59999990
   18.66110992  101.54799652    0.47999999    2.59999990
   18.66416550   98.42710114    0.47999999    2.59999990
   18.66749954  107.15899658    0.47999999    2.59999990
   18.67361069  107.15899658    0.47999999    2.59999990
   18.67777634  102.33300018    0.47999999    2.59999990
   18.68083191  101.26000214    0.47999999    2.59999990
   18.68416595  100.65799713    0.47999999    2.59999990
   18.68722153  106.73000336    0.47999999    2.59999990
   18.69055557   94.71549988    0.47999999    2.59999990
   18.69305420  103.54299927    0.47999999    2.59999990
   18.69416618   97.15390015    0.47999999    2.59999990
   18.69722176  106.65299988    0.47999999    2.59999990
   18.70055580   99.50509644    0.47999999    2.59999990
   18.70388985  105.46099854    0.47999999    2.59999990
   18.70694542   95.05239868    0.47999999    2.59999990
   18.71027946   99.10289764    0.47999999    2.59999990
   18.71638870   99.10289764    0.47999999    2.59999990
   18.72055626  107.98400116    0.47999999    2.59999990
   18.72389030  106.16200256    0.47999999    2.59999990
   18.72638893   97.11260223    0.47999999    2.59999990
   18.72750092  104.33399963    0.47999999    2.59999990
   18.73055649   96.99479675    0.47999999    2.59999990
   18.73388863  100.23699951    0.47999999    2.59999990
   18.73722267   99.45600128    0.47999999    2.59999990
   18.74027824  100.74900055    0.47999999    2.59999990
   18.74361229   89.91220093    0.47999999    2.59999990
   18.74694443   99.05090332    0.47999999    2.59999990
   18.75000000  100.42800140    0.47999999    2.59999990
   18.75333405   96.95639801    0.47999999    2.59999990
   18.75916672   96.95639801    0.47999999    2.59999990
   18.77777672   95.80509949    0.47999999    2.59999990
   18.78083229   97.64939880    0.47999999    2.59999990
   18.78416634   96.92070007    0.47999999    2.59999990
   18.78722191  104.64399719    0.47999999    2.59999990
   18.79055595  103.80000305    0.47999999    2.59999990
   18.79388809  103.87699890    0.47999999    2.59999990
   18.79694366  106.05200195    0.47999999    2.59999990
   18.80222130  106.05200195    0.47999999    2.59999990
   18.80638885   98.54429626    0.47999999    2.59999990
   18.80972099  105.12100220    0.47999999    2.59999990
   18.81083298   99.73130035    0.47999999    2.59999990
   18.81333351   96.74849701    0.47999999    2.59999990
   18.81666756   98.64779663    0.47999999    2.59999990
   18.81972313  109.12300110    0.47999999    2.59999990
   18.82305717  108.74400330    0.47999999    2.59999990
   18.82638931  112.73000336    0.47999999    2.59999990
   18.82944489  107.13200378    0.47999999    2.59999990
   18.83277893  101.40299988    0.47999999    2.59999990
   18.83611107  103.73300171    0.47999999    2.59999990
   18.83916664  104.36799622    0.47999999    2.59999990
   18.84527779  104.36799622    0.47999999    2.59999990
   18.84944534  106.70500183    0.47999999    2.59999990
   18.85250092  108.09999847    0.47999999    2.59999990
   18.85583305  103.00000000    0.47999999    2.59999990
   18.85888863  111.53800201    0.47999999    2.59999990
   18.86222267  110.67400360    0.47999999    2.59999990
   18.86555672  105.24700165    0.47999999    2.59999990
   18.86861038  105.93299866    0.47999999    2.59999990
   18.87194443  109.47799683    0.47999999    2.59999990
   18.87527847  116.06999969    0.47999999    2.59999990
   18.87750053  110.14199829    0.47999999    2.59999990
   18.87888908  112.42299652    0.47999999    2.59999990
   18.88222313  107.86399841    0.47999999    2.59999990
   18.88805580  107.86399841    0.47999999    2.59999990
   18.89222145  104.73899841    0.47999999    2.59999990
   18.89555550  107.20999908    0.47999999    2.59999990
   18.89861107  113.85399628    0.47999999    2.59999990
   18.90194321  122.48999786    0.47999999    2.59999990
   18.90499878  108.21299744    0.47999999    2.59999990
   18.90833282  108.13300323    0.47999999    2.59999990
   18.91083336  106.23200226    0.47999999    2.59999990
   18.91194344  108.43099976    0.47999999    2.59999990
   18.91527748  112.32199860    0.47999999    2.59999990
   18.91860962  118.15399933    0.47999999    2.59999990
   18.92166519  110.63099670    0.47999999    2.59999990
   18.92499924  119.40599823    0.47999999    2.59999990
   18.93083191  119.40599823    0.47999999    2.59999990
   18.93499947  120.57399750    0.47999999    2.59999990
   18.93833160  118.50800323    0.47999999    2.59999990
   18.94138718  120.19000244    0.47999999    2.59999990
   18.94416618  119.05100250    0.47999999    2.59999990
   18.94499969  103.54900360    0.47999999    2.59999990
   18.94833183  116.72899628    0.47999999    2.59999990
   18.95166779  113.17299652    0.47999999    2.59999990
   18.95472336  117.43499756    0.47999999    2.59999990
   18.95805550  113.17500305    0.47999999    2.59999990
   18.96111107  110.84600067    0.47999999    2.59999990
   18.96444511  122.41300201    0.47999999    2.59999990
   18.96777916  112.24600220    0.47999999    2.59999990
   18.97361183  112.24600220    0.47999999    2.59999990
   18.97777748  114.92900085    0.47999999    2.59999990
   18.98111153  123.41000366    0.47999999    2.59999990
   18.98444557  114.10700226    0.47999999    2.59999990
   18.98750114  112.03600311    0.47999999    2.59999990
   18.99083328  115.62599945    0.47999999    2.59999990
   18.99388885  124.94599915    0.47999999    2.59999990
   18.99722290  115.59500122    0.47999999    2.59999990
   19.00055504  116.31500244    0.47999999    2.59999990
   19.00361061  119.55500031    0.47999999    2.59999990
   19.00694466  116.56700134    0.47999999    2.59999990
   19.01027870  110.64199829    0.47999999    2.59999990
   19.01083374  117.79499817    0.47999999    2.59999990
   19.01666641  117.79499817    0.47999999    2.59999990
   19.02083397  123.42299652    0.47999999    2.59999990
   19.02388954  120.90100098    0.47999999    2.59999990
   19.02722168  121.51499939    0.47999999    2.59999990
   19.03055573  127.84899902    0.47999999    2.59999990
   19.03361130  135.73500061    0.47999999    2.59999990
   19.03694344  122.91799927    0.47999999    2.59999990
   19.03999901  119.28900146    0.47999999    2.59999990
   19.04333305  134.05700684    0.47999999    2.59999990
   19.04416656  119.26699829    0.47999999    2.59999990
   19.04694366  124.14099884    0.47999999    2.59999990
   19.05027771  125.27200317    0.47999999    2.59999990
   19.05333328  117.65000153    0.47999999    2.59999990
   19.05944443  117.65000153    0.47999999    2.59999990
   19.06361008  135.97599792    0.47999999    2.59999990
   19.06666756  143.17900085    0.47999999    2.59999990
   19.07000160  130.47999573    0.47999999    2.59999990
   19.07333374  134.02099609    0.47999999    2.59999990
   19.07638931  129.59700012    0.47999999    2.59999990
   19.07750130  123.31600189    0.47999999    2.59999990
   19.08000183  132.66200256    0.47999999    2.59999990
   19.08333397  127.79799652    0.47999999    2.59999990
   19.08666801  143.09399414    0.47999999    2.59999990
   19.08972359  138.59100342    0.47999999    2.59999990
   19.09305573  134.06300354    0.47999999    2.59999990
   19.09611130  139.12699890    0.47999999    2.59999990
   19.10222244  139.12699890    0.47999999    2.59999990
   19.10639000  137.08299255    0.47999999    2.59999990
   19.10972214  134.55299377    0.47999999    2.59999990
   19.11083412  132.64399719    0.47999999    2.59999990
   19.11333466  126.29599762    0.47999999    2.59999990
   19.11666679  113.92299652    0.47999999    2.59999990
   19.12000084  115.15799713    0.47999999    2.59999990
   19.12305641  130.47000122    0.47999999    2.59999990
   19.12638855  124.74199677    0.47999999    2.59999990
   19.12944412  126.73799896    0.47999999    2.59999990
   19.13277817  135.86099243    0.47999999    2.59999990
   19.13611031  140.28399658    0.47999999    2.59999990
   19.13916588  132.90199280    0.47999999    2.59999990
   19.14500046  132.90199280    0.47999999    2.59999990
   19.14916611  123.73999786    0.47999999    2.59999990
   19.15250015  122.12000275    0.47999999    2.59999990
   19.15555573  130.03100586    0.47999999    2.59999990
   19.15888786  128.48899841    0.47999999    2.59999990
   19.16222191  128.64199829    0.47999999    2.59999990
   19.16527748  137.50599670    0.47999999    2.59999990
   19.16860962  127.89199829    0.47999999    2.59999990
   19.17194366  138.65499878    0.47999999    2.59999990
   19.17499924  136.51400757    0.47999999    2.59999990
   19.17749977  134.85200500    0.47999999    2.59999990
   19.17860985  131.20599365    0.47999999    2.59999990
   19.18194389  141.03999329    0.47999999    2.59999990
   19.18805504  141.03999329    0.47999999    2.59999990
   19.19222069  130.18899536    0.47999999    2.59999990
   19.19527626  123.53099823    0.47999999    2.59999990
   19.19861031  116.67299652    0.47999999    2.59999990
   19.20166779  133.14399719    0.47999999    2.59999990
   19.20499992  138.84199524    0.47999999    2.59999990
   19.20833397  115.41699982    0.47999999    2.59999990
   19.21083450  123.77200317    0.47999999    2.59999990
   19.21194458  121.47000122    0.47999999    2.59999990
   19.21527863  117.40399933    0.47999999    2.59999990
   19.21861076  134.83099365    0.47999999    2.59999990
   19.22166634  121.98799896    0.47999999    2.59999990
   19.22500038  120.23100281    0.47999999    2.59999990
   19.23083305  120.23100281    0.47999999    2.59999990
   19.23500061  122.98200226    0.47999999    2.59999990
   19.23805618  126.59799957    0.47999999    2.59999990
   19.24138832  115.53900146    0.47999999    2.59999990
   19.24416733  113.16999817    0.47999999    2.59999990
   19.24500084  131.44099426    0.47999999    2.59999990
   19.24833298  124.31900024    0.47999999    2.59999990
   19.25166702  121.34400177    0.47999999    2.59999990
   19.25472260  133.70300293    0.47999999    2.59999990
   19.25805473  115.37200165    0.47999999    2.59999990
   19.26111031  119.32800293    0.47999999    2.59999990
   19.26444435  113.06999969    0.47999999    2.59999990
   19.26777840  130.06500244    0.47999999    2.59999990
   19.27361107  130.06500244    0.47999999    2.59999990
   19.27777672  123.01499939    0.47999999    2.59999990
   19.28111076  125.47299957    0.47999999    2.59999990
   19.28416634  129.82899475    0.47999999    2.59999990
   19.28750038  138.34199524    0.47999999    2.59999990
   19.29083252  128.74899292    0.47999999    2.59999990
   19.29388809  122.33200073    0.47999999    2.59999990
   19.29722214  123.42299652    0.47999999    2.59999990
   19.30027771  119.93000031    0.47999999    2.59999990
   19.30360985  121.94100189    0.47999999    2.59999990
   19.30694389  121.35800171    0.47999999    2.59999990
   19.30999947  120.29100037    0.47999999    2.59999990
   19.31083298  126.69899750    0.47999999    2.59999990
   19.31638718  126.69899750    0.47999999    2.59999990
   19.32055664  117.30599976    0.47999999    2.59999990
   19.32389069  125.15299988    0.47999999    2.59999990
   19.32722282  113.09400177    0.47999999    2.59999990
   19.33027840  120.10199738    0.47999999    2.59999990
   19.33361244  119.23400116    0.47999999    2.59999990
   19.33666801  119.89600372    0.47999999    2.59999990
   19.34000015  116.57299805    0.47999999    2.59999990
   19.34333420  109.37899780    0.47999999    2.59999990
   19.34416771  112.02300262    0.47999999    2.59999990
   19.34666824  114.87200165    0.47999999    2.59999990
   19.35000038  125.10600281    0.47999999    2.59999990
   19.35333443  112.75199890    0.47999999    2.59999990
   19.35944557  112.75199890    0.47999999    2.59999990
   19.36333466  118.09799957    0.47999999    2.59999990
   19.36666679  125.40699768    0.47999999    2.59999990
   19.37000084  120.95200348    0.47999999    2.59999990
   19.37305641  113.87300110    0.47999999    2.59999990
   19.37638855  116.48100281    0.47999999    2.59999990
   19.37750053  112.22200012    0.47999999    2.59999990
   19.38000107  115.83999634    0.47999999    2.59999990
   19.38333321  112.54799652    0.47999999    2.59999990
   19.38666725  117.87300110    0.47999999    2.59999990
   19.38972282  121.92700195    0.47999999    2.59999990
   19.39305496  122.60399628    0.47999999    2.59999990
   19.39638901  115.52400208    0.47999999    2.59999990
   19.40222168  115.52400208    0.47999999    2.59999990
   19.40638924  118.04399872    0.47999999    2.59999990
   19.40944481  121.18800354    0.47999999    2.59999990
   19.41083336  115.42700195    0.47999999    2.59999990
   19.41305542  117.25000000    0.47999999    2.59999990
   19.41638756  126.62899780    0.47999999    2.59999990
   19.41972160  117.31700134    0.47999999    2.59999990
   19.42277718  114.22299957    0.47999999    2.59999990
   19.42611122  119.26499939    0.47999999    2.59999990
   19.42944336  123.21600342    0.47999999    2.59999990
   19.43249893  127.07399750    0.47999999    2.59999990
   19.43583298  125.65799713    0.47999999    2.59999990
   19.43888855  124.45700073    0.47999999    2.59999990
   19.44499969  124.45700073    0.47999999    2.59999990
   19.44916534  137.85699463    0.47999999    2.59999990
   19.45250130  129.93299866    0.47999999    2.59999990
   19.45555687  124.78700256    0.47999999    2.59999990
   19.45888901  126.10399628    0.47999999    2.59999990
   19.46194458  121.52100372    0.47999999    2.59999990
   19.46527863  132.67799377    0.47999999    2.59999990
   19.46861076  130.59300232    0.47999999    2.59999990
   19.47166634  130.31500244    0.47999999    2.59999990
   19.47500038  131.47300720    0.47999999    2.59999990
   19.47750092  128.49000549    0.47999999    2.59999990
   19.47861099  129.42300415    0.47999999    2.59999990
   19.48194504  135.63200378    0.47999999    2.59999990
   19.48777771  135.63200378    0.47999999    2.59999990
   19.49194527  129.34800720    0.47999999    2.59999990
   19.49527740  123.64199829    0.47999999    2.59999990
   19.49833298  134.88499451    0.47999999    2.59999990
   19.50166702  126.91600037    0.47999999    2.59999990
   19.50499916  130.06399536    0.47999999    2.59999990
   19.50805473  128.31799316    0.47999999    2.59999990
   19.51083374  120.50299835    0.47999999    2.59999990
   19.51166725  124.35600281    0.47999999    2.59999990
   19.51499939  131.47399902    0.47999999    2.59999990
   19.51833344  125.26499939    0.47999999    2.59999990
   19.52138901  132.58000183    0.47999999    2.59999990
   19.52472115  132.74899292    0.47999999    2.59999990
   19.53083229  132.74899292    0.47999999    2.59999990
   19.53472137  130.45799255    0.47999999    2.59999990
   19.53805542  132.25999451    0.47999999    2.59999990
   19.54138756  132.30400085    0.47999999    2.59999990
   19.54416656  124.46800232    0.47999999    2.59999990
   19.54472160  131.40400696    0.47999999    2.59999990
   19.54805565  129.91400146    0.47999999    2.59999990
   19.55138779  127.53900146    0.47999999    2.59999990
   19.55444336  129.59500122    0.47999999    2.59999990
   19.55777740  132.54400635    0.47999999    2.59999990
   19.56110954  136.61700439    0.47999999    2.59999990
   19.56416512  141.07499695    0.47999999    2.59999990
   19.56750107  153.01899719    0.47999999    2.59999990
   19.57361221  153.01899719    0.47999999    2.59999990
   19.57777786  134.62899780    0.47999999    2.59999990
   19.58083344  137.13200378    0.47999999    2.59999990
   19.58416748  138.02299500    0.47999999    2.59999990
   19.58750153  131.12600708    0.47999999    2.59999990
   19.59055710  144.75999451    0.47999999    2.59999990
   19.59388924  153.48300171    0.47999999    2.59999990
   19.59694481  132.72700500    0.47999999    2.59999990
   19.60027885  153.22999573    0.47999999    2.59999990
   19.60361099  149.05999756    0.47999999    2.59999990
   19.60666656  148.13000488    0.47999999    2.59999990
   19.61000061  133.23599243    0.47999999    2.59999990
   19.61083412  136.30299377    0.47999999    2.59999990
   19.61638832  136.30299377    0.47999999    2.59999990
   19.62055588  162.85899353    0.47999999    2.59999990
   19.62388992  156.34700012    0.47999999    2.59999990
   19.62694550  153.07899475    0.47999999    2.59999990
   19.63027763  163.94700623    0.47999999    2.59999990
   19.63361168  165.21600342    0.47999999    2.59999990
   19.63666725  174.93400574    0.47999999    2.59999990
   19.63999939  194.79200745    0.47999999    2.59999990
   19.64333344  166.33700562    0.47999999    2.59999990
   19.64416695  187.24200439    0.47999999    2.59999990
   19.64694405  180.50199890    0.47999999    2.59999990
   19.64999962  159.78999329    0.47999999    2.59999990
   19.65333366  168.39999390    0.47999999    2.59999990
   19.65916634  168.39999390    0.47999999    2.59999990
   19.66333389  163.23199463    0.47999999    2.59999990
   19.66666603  164.36500549    0.47999999    2.59999990
   19.66972160  158.74699402    0.47999999    2.59999990
   19.67305565  193.60600281    0.47999999    2.59999990
   19.67638779  242.66999817    0.47999999    2.59999990
   19.67749977  269.89498901    0.47999999    2.59999990
   19.68000031  330.11700439    0.47999999    2.59999990
   19.68305397  289.60400391    0.47999999    2.59999990
   19.68638802  376.66500854    0.47999999    2.59999990
   19.68944359  356.19400024    0.47999999    2.59999990
   19.69277763  401.43899536    0.47999999    2.59999990
   19.69472122  381.79299927    0.47999999    2.59999990
   19.69610977  441.26400757    0.47999999    2.59999990
   19.69749832  400.55899048    0.47999999    2.59999990
   19.69888878  437.84799194    0.47999999    2.59999990
   19.70027924  481.08300781    0.47999999    2.59999990
   19.70166779  588.32501221    0.47999999    2.59999990
   19.70305634  255.36799622    0.47999999    2.59999990
   19.70305634  158.74699402    0.47999999    2.59999990
   19.70333481  193.60600281    0.47999999    2.59999990
   19.70333481  242.66999817    0.47999999    2.59999990
   19.70333481  330.11700439    0.47999999    2.59999990
   19.70361137  289.60400391    0.47999999    2.59999990
   19.70361137  376.66500854    0.47999999    2.59999990
   19.70388985  356.19400024    0.47999999    2.59999990
   19.70388985  401.43899536    0.47999999    2.59999990
   19.70388985  164.36500549    0.47999999    2.59999990
   19.70444489  100.79100037    0.47999999    2.59999990
   19.70777893   -1.00000000    0.47999999    2.59999990
   19.71111107   -1.00000000    0.55000001    2.40000010
   19.71416664   -1.00000000    0.55000001    2.40000010
   19.71750069   -1.00000000    0.55000001    2.40000010
   19.72805595   -1.00000000    0.52999997    2.39000010
   19.73111153   -1.00000000    0.51999998    2.39000010
   19.73444557   -1.00000000    0.52999997    2.39000010
   19.73777771   -1.00000000    0.51999998    2.39000010
   19.74111176   -1.00000000    0.51999998    2.39000010
   19.74444389   -1.00000000    0.51999998    2.39000010
   19.74749947   -1.00000000    0.50000000    2.39000010
   19.75083351   -1.00000000    0.51999998    2.39000010
   19.75388908   -1.00000000    0.52999997    2.39000010
