    HOUR (UT)   FLARE FACTOR    SKY TESTER    SUN TESTER
   11.23583317   -1.00000000   -1.00000000   -1.00000000
   11.27250004  172.25100708    2.93000007    2.05999994
   11.27833271  169.17900085    2.91000009    2.05999994
   11.28166676  174.57800293    2.89000010    2.05999994
   11.28472233  162.81100464    2.89000010    2.05999994
   11.28805637  156.93099976    2.89000010    2.07999992
   11.29138947  167.21899414    2.89000010    2.07999992
   11.29444504  162.48899841    2.86999989    2.07999992
   11.29777813  152.77400208    2.84999990    2.07999992
   11.30111122  151.68299866    2.84999990    2.07999992
   11.30416679  158.58700562    2.84999990    2.07999992
   11.30583382  159.18600464    2.84999990    2.09999990
   11.30805588  159.21600342    2.82999992    2.09999990
   11.31111145  160.55200195    2.84999990    2.09999990
   11.31444454  166.93899536    2.82999992    2.09999990
   11.31750011  182.62800598    2.82999992    2.09999990
   11.32083321  162.07800293    2.80999994    2.09999990
   11.32416630  177.47099304    2.80999994    2.09999990
   11.32722187  157.54100037    2.78999996    2.11999989
   11.33055592  174.24499512    2.78999996    2.11999989
   11.33388901  167.92599487    2.76999998    2.11999989
   11.33694458  180.25599670    2.76999998    2.11999989
   11.33916664  173.31500244    2.76999998    2.11999989
   11.34083271  169.30900574    2.76999998    2.11999989
   11.34388828  166.11700439    2.75000000    2.13000011
   11.34722233  177.59399414    2.75000000    2.13000011
   11.35027790  163.06599426    2.75000000    2.11999989
   11.35361195  161.19799805    2.75000000    2.13000011
   11.35694504  161.35699463    2.75000000    2.13000011
   11.36000061  171.58500671    2.75000000    2.13000011
   11.36333370  159.15499878    2.75000000    2.13000011
   11.36666679  167.07899475    2.75000000    2.13000011
   11.36972237  162.59500122    2.73000002    2.15000010
   11.37250042  166.41400146    2.73000002    2.15000010
   11.37361145  162.36799622    2.73000002    2.15000010
   11.37666702  159.30299377    2.73000002    2.15000010
   11.38000011  165.36399841    2.73000002    2.15000010
   11.38305569  165.69000244    2.75000000    2.15000010
   11.38638878  154.58500671    2.75000000    2.15000010
   11.38972187  155.52000427    2.75000000    2.15000010
   11.39277744  153.26800537    2.75000000    2.15000010
   11.39611053  151.24299622    2.76999998    2.17000008
   11.39944458  157.30400085    2.75000000    2.17000008
   11.40249920  153.54600525    2.76999998    2.17000008
   11.40583324  153.61500549    2.76999998    2.17000008
   11.40638828  151.75999451    2.76999998    2.17000008
   11.40944386  163.78900146    2.76999998    2.17000008
   11.41277695  163.77299500    2.76999998    2.17000008
   11.41583252  159.74000549    2.76999998    2.17000008
   11.41916656  155.50700378    2.76999998    2.19000006
   11.42250061  154.77000427    2.78999996    2.17000008
   11.42583370  159.51100159    2.76999998    2.17000008
   11.42888927  156.59700012    2.76999998    2.17000008
   11.43222237  161.24400330    2.76999998    2.19000006
   11.43527794  161.06100464    2.75000000    2.19000006
   11.43861103  162.73399353    2.75000000    2.19000006
   11.43916702  160.98199463    2.73000002    2.19000006
   11.44222260  158.12600708    2.71000004    2.19000006
   11.44527817  173.18899536    2.71000004    2.19000006
   11.44861126  154.05700684    2.69000006    2.19000006
   11.45194435  152.74499512    2.66000009    2.19000006
   11.45499992  148.99099731    2.64000010    2.21000004
   11.45833302  153.13999939    2.61999989    2.21000004
   11.46138859  150.88999939    2.59999990    2.21000004
   11.46472168  143.49600220    2.59999990    2.21000004
   11.46805477  161.85600281    2.57999992    2.21000004
   11.47111034  149.86199951    2.59999990    2.23000002
   11.47249985  161.00399780    2.57999992    2.23000002
   11.47499943  157.10400391    2.57999992    2.23000002
   11.47805500  159.66700745    2.57999992    2.21000004
   11.48138809  159.73800659    2.55999994    2.21000004
   11.48472214  161.15499878    2.55999994    2.23000002
   11.48777771  158.97399902    2.53999996    2.23000002
   11.49111176  156.31799316    2.53999996    2.23000002
   11.49416733  152.05000305    2.53999996    2.23000002
   11.49750042  150.62100220    2.51999998    2.23000002
   11.50083351  167.88200378    2.50000000    2.23000002
   11.50388908  161.15100098    2.46000004    2.23000002
   11.50583363  165.10699463    2.46000004    2.25000000
   11.50777817  150.35600281    2.46000004    2.25000000
   11.51083374  152.21000671    2.46000004    2.25000000
   11.51416683  155.28100586    2.46000004    2.25000000
   11.51749992  153.78799438    2.39000010    2.25000000
   11.52055550  155.24600220    2.40000010    2.25000000
   11.52388859  146.81199646    2.39000010    2.25000000
   11.52694416  166.29600525    2.36999989    2.25000000
   11.53027725  155.87100220    2.36999989    2.25000000
   11.53361130  169.82400513    2.34999990    2.26999998
   11.53666687  149.99000549    2.34999990    2.25000000
   11.53916740  154.63900757    2.32999992    2.25000000
   11.54055595  150.82400513    2.32999992    2.26999998
   11.54361153  160.21200562    2.32999992    2.26999998
   11.54694462  155.84399414    2.30999994    2.26999998
   11.55027771  157.53100586    2.28999996    2.26999998
   11.55333328  154.32600403    2.26999998    2.26999998
   11.55666733  151.92599487    2.26999998    2.26999998
   11.55972195  154.96699524    2.26999998    2.26999998
   11.56305599  153.81700134    2.26999998    2.28999996
   11.56638908  154.09700012    2.26999998    2.26999998
   11.56944466  151.16200256    2.26999998    2.28999996
   11.57250023  165.30499268    2.26999998    2.26999998
   11.57333374  163.39900208    2.26999998    2.28999996
   11.57638836  168.14599609    2.26999998    2.28999996
   11.57972240  156.76199341    2.26999998    2.28999996
   11.58305550  148.39199829    2.26999998    2.28999996
   11.58611107  153.93499756    2.26999998    2.30999994
   11.58944416  151.15100098    2.26999998    2.30999994
   11.59249973  152.92700195    2.26999998    2.30999994
   11.59583282  163.08599854    2.26999998    2.30999994
   11.59916592  161.74000549    2.26999998    2.30999994
   11.60222244  154.53599548    2.25000000    2.28999996
   11.60555553  150.36900330    2.25000000    2.30999994
   11.60611153  151.63499451    2.25000000    2.30999994
   11.60944462  154.08799744    2.23000002    2.30999994
   11.61250019  151.13099670    2.23000002    2.30999994
   11.61583328  144.60699463    2.21000004    2.30999994
   11.61888885  134.33099365    2.23000002    2.30999994
   11.62222195  141.88000488    2.21000004    2.32999992
   11.62555599  139.34500122    2.23000002    2.32999992
   11.62861156  152.33700562    2.23000002    2.32999992
   11.63194466  139.99299622    2.23000002    2.30999994
   11.63527775  130.56300354    2.23000002    2.32999992
   11.63833332  147.41900635    2.25000000    2.32999992
   11.63944435  144.53700256    2.25000000    2.32999992
   11.64222240  144.46899414    2.25000000    2.32999992
   11.64527798  141.75700378    2.25000000    2.32999992
   11.64861107  152.39199829    2.21000004    2.32999992
   11.65166664  136.20700073    2.19000006    2.32999992
   11.65499973  152.86700439    2.17000008    2.32999992
   11.65833282  146.55499268    2.15000010    2.32999992
   11.66138840  133.11799622    2.11999989    2.32999992
   11.66472149  147.83299255    2.11999989    2.34999990
   11.66805553  141.73399353    2.09999990    2.34999990
   11.67111111  143.88900757    2.09999990    2.34999990
   11.67277813  145.11300659    2.09999990    2.34999990
   11.67500019  138.71099854    2.07999992    2.34999990
   11.67805576  139.44299316    2.05999994    2.34999990
   11.68138885  142.52999878    2.07999992    2.34999990
   11.68444443  141.18099976    2.05999994    2.34999990
   11.68777752  141.59100342    2.03999996    2.36999989
   11.69111156  135.40400696    2.01999998    2.36999989
   11.69416714  138.44900513    2.00000000    2.36999989
   11.69750023  136.07899475    1.98000002    2.36999989
   11.70083332  141.44000244    1.96000004    2.36999989
   11.70388889  142.57600403    1.94000006    2.36999989
   11.70611095  144.12800598    1.94000006    2.36999989
   11.70777798  146.19099426    1.94000006    2.36999989
   11.71083355  155.13999939    1.91999996    2.34999990
   11.71416664  143.39700317    1.94000006    2.36999989
   11.71722221  145.50000000    1.89999998    2.34999990
   11.72055531  150.02600098    1.89999998    2.36999989
   11.72388840  143.84300232    1.89999998    2.36999989
   11.72694397  143.27499390    1.89999998    2.36999989
   11.73027706  141.48800659    1.89999998    2.36999989
   11.73361111  141.25000000    1.88000000    2.36999989
   11.73666668  155.85699463    1.88000000    2.36999989
   11.73944473  145.79100037    1.86000001    2.39000010
   11.74055576  147.93499756    1.86000001    2.39000010
   11.74361134  147.16999817    1.86000001    2.39000010
   11.74694443  151.96400452    1.86000001    2.36999989
   11.75027752  144.21800232    1.86000001    2.39000010
   11.75361156  150.24899292    1.86000001    2.36999989
   11.75694466  138.73300171    1.86000001    2.36999989
   11.76000023  136.99299622    1.86000001    2.39000010
   11.76333332  146.57499695    1.86000001    2.39000010
   11.76638889  140.03999329    1.86000001    2.39000010
   11.76972198  144.70899963    1.88000000    2.39000010
   11.77277756  147.20500183    1.88000000    2.39000010
   11.77333355  144.11999512    1.88000000    2.39000010
   11.77638817  150.84700012    1.88000000    2.39000010
   11.77972221  151.34700012    1.88000000    2.39000010
   11.78305531  143.13900757    1.91999996    2.39000010
   11.78611183  145.47900391    1.91999996    2.39000010
   11.78944492  141.52999878    1.98000002    2.40000010
   11.79250050  142.40299988    1.98000002    2.40000010
   11.79583359  140.87899780    1.98000002    2.40000010
   11.79916668  144.43200684    1.98000002    2.40000010
   11.80222225  141.61599731    1.98000002    2.40000010
   11.80555534  138.05599976    1.96000004    2.40000010
   11.80611134  153.60899353    1.96000004    2.40000010
   11.80916691  141.87500000    1.96000004    2.40000010
   11.81222248  145.24400330    1.98000002    2.40000010
   11.81555557  137.54600525    2.00000000    2.40000010
   11.81888866  137.20500183    1.96000004    2.40000010
   11.82194424  140.70799255    1.94000006    2.40000010
   11.82527733  134.02200317    1.91999996    2.40000010
   11.82833290  144.47999573    1.94000006    2.40000010
   11.83166695  133.61900330    1.94000006    2.40000010
   11.83500004  141.21200562    1.94000006    2.40000010
   11.83805561  143.51400757    1.96000004    2.40000010
   11.83944416  144.81399536    1.96000004    2.40000010
   11.84194374  152.57000732    1.94000006    2.40000010
   11.84499931  141.57200623    1.94000006    2.40000010
   11.84833336  142.69000244    1.94000006    2.40000010
   11.85166740  149.64799500    1.91999996    2.40000010
   11.85500050  140.35699463    1.89999998    2.42000008
   11.85805607  156.17300415    1.89999998    2.42000008
   11.86138916  142.47300720    1.89999998    2.42000008
   11.86472225  143.89799500    1.89999998    2.42000008
   11.86805534  165.11199951    1.91999996    2.42000008
   11.87138939  175.06100464    1.89999998    2.42000008
   11.87277794  163.72900391    1.89999998    2.42000008
   11.87500000  184.02900696    1.88000000    2.42000008
   11.87805557  169.47099304    1.88000000    2.42000008
   11.88138866  147.47700500    1.88000000    2.42000008
   11.88472176  168.38099670    1.83000004    2.44000006
   11.88777733  163.80900574    1.85000002    2.42000008
   11.89111137  168.71400452    1.83000004    2.44000006
   11.89444447  151.58000183    1.80999994    2.44000006
   11.89750004  177.80400085    1.85000002    2.44000006
   11.90083313  161.32299805    1.86000001    2.44000006
   11.90388870  166.75000000    1.86000001    2.44000006
   11.90611076  155.54699707    1.86000001    2.44000006
   11.90777779  147.54699707    1.86000001    2.44000006
   11.91083336  150.06399536    1.86000001    2.44000006
   11.91416645  145.38600159    1.86000001    2.44000006
   11.91750050  151.17599487    1.86000001    2.44000006
   11.92055607  139.81900024    1.86000001    2.46000004
   11.92388916  137.45700073    1.86000001    2.46000004
   11.92722225  140.69099426    1.86000001    2.46000004
   11.93027782  135.57600403    1.85000002    2.44000006
   11.93361092  140.83599854    1.86000001    2.46000004
   11.93666649  140.86000061    1.85000002    2.46000004
   11.93944454  133.15299988    1.86000001    2.46000004
   11.94055557  144.10299683    1.86000001    2.46000004
   11.94388866  137.87100220    1.86000001    2.46000004
   11.94694424  143.88999939    1.86000001    2.46000004
   11.95027733  143.51800537    1.86000001    2.46000004
   11.95333290  142.61599731    1.86000001    2.46000004
   11.95666695  148.21400452    1.86000001    2.46000004
   11.96000004  144.97700500    1.86000001    2.46000004
   11.96305561  144.05900574    1.86000001    2.46000004
   11.96638870  140.64399719    1.86000001    2.46000004
   11.96972179  142.24000549    1.86000001    2.46000004
   11.97277737  138.54400635    1.86000001    2.46000004
   11.97333336  148.11900330    1.86000001    2.46000004
   11.97638798  149.02200317    1.86000001    2.46000004
   11.97972202  149.02299500    1.86000001    2.46000004
   11.98305511  150.47200012    1.86000001    2.48000002
   11.98611164  142.68200684    1.86000001    2.48000002
   11.98944473  130.25599670    1.86000001    2.46000004
   11.99277782  141.63900757    1.86000001    2.46000004
   11.99583340  144.27900696    1.86000001    2.46000004
   11.99916649  147.57299805    1.86000001    2.46000004
   12.00222206  138.27699280    1.88000000    2.46000004
   12.00555515  135.59800720    1.86000001    2.46000004
   12.00611115  136.59700012    1.86000001    2.46000004
   12.00916672  139.07299805    1.86000001    2.46000004
   12.01249981  141.51199341    1.86000001    2.48000002
   12.01555538  147.28999329    1.86000001    2.48000002
   12.01888847  141.40100098    1.86000001    2.48000002
   12.02194405  140.57299805    1.86000001    2.48000002
   12.02527714  138.66000366    1.85000002    2.48000002
   12.02861118  152.71800232    1.85000002    2.48000002
   12.03166676  143.91200256    1.83000004    2.48000002
   12.03500080  133.55000305    1.80999994    2.50000000
   12.03833389  140.90600586    1.80999994    2.50000000
   12.03944492  134.80599976    1.80999994    2.48000002
   12.04194450  155.20100403    1.80999994    2.48000002
   12.04500008  139.89100647    1.78999996    2.48000002
   12.04833412  142.82299805    1.76999998    2.50000000
   12.05166721  142.30900574    1.76999998    2.48000002
   12.05472279  140.33000183    1.76999998    2.48000002
   12.05805588  150.32499695    1.76999998    2.50000000
   12.06138897  142.14799500    1.78999996    2.50000000
   12.06444454  150.13299561    1.76999998    2.50000000
   12.06777763  135.48800659    1.76999998    2.50000000
   12.07083321  144.43400574    1.76999998    2.50000000
   12.07277775  143.89599609    1.76999998    2.50000000
   12.07472229  141.93400574    1.76999998    2.50000000
   12.07777786  149.15699768    1.76999998    2.50000000
   12.08111095  149.59500122    1.76999998    2.50000000
   12.08444405  151.36599731    1.78999996    2.50000000
   12.08749962  138.75399780    1.78999996    2.50000000
   12.09083271  147.66900635    1.78999996    2.50000000
   12.09416676  141.15400696    1.78999996    2.50000000
   12.09722233  137.41000366    1.78999996    2.51999998
   12.10055637  136.54299927    1.78999996    2.50000000
   12.10361195  149.18699646    1.78999996    2.50000000
   12.10611153  140.11000061    1.78999996    2.50000000
   12.10750008  135.43699646    1.78999996    2.50000000
   12.11055565  142.11500549    1.78999996    2.50000000
   12.11388969  142.89799500    1.78999996    2.51999998
   12.11999989  137.29499817    1.76999998    2.51999998
   12.12305546  139.96099854    1.76999998    2.51999998
   12.12638855  131.48599243    1.76999998    2.51999998
   12.12972260  142.18899536    1.75000000    2.51999998
   12.13277817  141.47300720    1.75000000    2.50000000
   12.13611126  140.32800293    1.75000000    2.51999998
   12.13944435  147.55599976    1.73000002    2.51999998
   12.14000034  143.03199768    1.73000002    2.51999998
   12.14305496  141.82299805    1.73000002    2.51999998
   12.14638901  137.35899353    1.71000004    2.51999998
   12.14972210  138.83799744    1.71000004    2.51999998
   12.15277767  136.88999939    1.71000004    2.51999998
   12.15611076  140.01899719    1.71000004    2.51999998
   12.15916634  143.07800293    1.66999996    2.53999996
   12.16249943  142.84100342    1.66999996    2.51999998
   12.16583252  146.60600281    1.66999996    2.53999996
   12.16888905  143.81300354    1.66999996    2.53999996
   12.17222214  141.10099792    1.63000000    2.53999996
   12.17305565  143.47999573    1.63000000    2.53999996
   12.17583370  137.04800415    1.63000000    2.53999996
   12.17916679  140.42500305    1.63000000    2.53999996
   12.18222237  140.57400513    1.63000000    2.53999996
   12.18555546  135.85499573    1.61000001    2.53999996
   12.18888855  137.78100586    1.61000001    2.53999996
   12.19194412  135.82699585    1.61000001    2.53999996
   12.19527817  135.49699402    1.61000001    2.53999996
   12.19861126  135.61000061    1.61000001    2.53999996
   12.20166683  129.18499756    1.60000002    2.53999996
   12.20499992  132.09199524    1.60000002    2.53999996
   12.20666695  127.26399994    1.60000002    2.53999996
   12.20861053  137.75300598    1.60000002    2.53999996
   12.21194458  133.30799866    1.60000002    2.53999996
   12.21500015  135.95100403    1.60000002    2.53999996
   12.21833324  134.01600647    1.60000002    2.53999996
   12.22166634  130.61099243    1.60000002    2.53999996
   12.22472191  138.87199402    1.60000002    2.53999996
   12.22805500  143.71299744    1.60000002    2.53999996
   12.23138809  137.95599365    1.61000001    2.53999996
   12.23444462  137.56399536    1.60000002    2.55999994
   12.23777771  138.13000488    1.60000002    2.55999994
   12.24000072  142.81700134    1.61000001    2.53999996
   12.24138927  137.45300293    1.61000001    2.53999996
   12.24472237  136.64500427    1.60000002    2.53999996
   12.24777794  134.83799744    1.61000001    2.53999996
   12.25111103  138.93400574    1.61000001    2.53999996
   12.25444412  135.89599609    1.61000001    2.53999996
   12.25749969  134.92799377    1.61000001    2.55999994
   12.26083374  135.55099487    1.63000000    2.53999996
   12.26416683  127.79100037    1.63000000    2.53999996
   12.26722240  135.56500244    1.63000000    2.53999996
   12.27055550  133.78999329    1.61000001    2.53999996
   12.28916740  128.96600342    1.60000002    2.55999994
   12.29055595  124.91600037    1.60000002    2.55999994
   12.29361153  131.19299316    1.60000002    2.55999994
   12.29694462  134.99600220    1.58000004    2.55999994
   12.30027771  132.10200500    1.58000004    2.55999994
   12.30333328  130.40699768    1.58000004    2.55999994
   12.30666733  137.64900208    1.60000002    2.57999992
   12.31000042  123.84600067    1.60000002    2.57999992
   12.31305599  120.55799866    1.60000002    2.55999994
   12.31638908  130.50700378    1.60000002    2.55999994
   12.31944466  134.71400452    1.58000004    2.55999994
   12.32250023  133.70199585    1.58000004    2.57999992
   12.32305527  133.05499268    1.58000004    2.57999992
   12.32638836  133.23399353    1.58000004    2.57999992
   12.32972240  139.30900574    1.58000004    2.57999992
   12.33277798  129.11900330    1.58000004    2.57999992
   12.33611107  132.96299744    1.58000004    2.57999992
   12.33944416  130.21099854    1.55999994    2.55999994
   12.34249973  128.52000427    1.55999994    2.55999994
   12.34583282  132.39799500    1.58000004    2.57999992
   12.34888840  129.73699951    1.58000004    2.57999992
   12.35222244  132.53199768    1.58000004    2.57999992
   12.35555553  136.44799805    1.60000002    2.57999992
   12.35611153  128.93299866    1.60000002    2.57999992
   12.35916710  130.75399780    1.61000001    2.57999992
   12.36250019  130.64599609    1.63000000    2.57999992
   12.36583328  131.34500122    1.61000001    2.57999992
   12.36888885  130.36199951    1.61000001    2.57999992
   12.37222195  133.41799927    1.63000000    2.57999992
   12.37527752  128.59300232    1.61000001    2.57999992
   12.37861156  132.77299500    1.60000002    2.57999992
   12.38194466  130.03900146    1.61000001    2.59999990
   12.38583279  130.36900330    1.60000002    2.59999990
   12.38888836  129.01199341    1.60000002    2.59999990
   12.38944435  140.09800720    1.60000002    2.59999990
   12.39277744  132.80499268    1.60000002    2.59999990
   12.39611053  127.41699982    1.58000004    2.57999992
   12.39916611  128.07899475    1.58000004    2.57999992
   12.40249920  131.89900208    1.58000004    2.57999992
   12.40583324  130.49099731    1.60000002    2.57999992
   12.40888882  135.55599976    1.60000002    2.59999990
   12.41222191  136.24200439    1.60000002    2.59999990
   12.41527748  135.77900696    1.60000002    2.59999990
   12.41861153  137.02900696    1.60000002    2.57999992
   12.42194462  131.39999390    1.60000002    2.59999990
   12.42277813  134.68400574    1.60000002    2.59999990
   12.42555618  137.09199524    1.58000004    2.59999990
   12.42888927  141.17500305    1.58000004    2.59999990
   12.43194485  134.79200745    1.58000004    2.59999990
   12.43527794  142.92599487    1.58000004    2.59999990
   12.43861103  155.36500549    1.55999994    2.57999992
   12.44166660  149.07299805    1.55999994    2.59999990
   12.44499969  160.35899353    1.55999994    2.59999990
   12.44833374  152.76100159    1.55999994    2.59999990
   12.45138836  153.20199585    1.55999994    2.59999990
   12.45472240  146.71099854    1.58000004    2.59999990
   12.45611095  158.49099731    1.55999994    2.61999989
   12.45833302  142.19900513    1.55999994    2.61999989
   12.46166611  148.72399902    1.58000004    2.59999990
   12.46472168  152.78999329    1.58000004    2.59999990
   12.46805477  159.32000732    1.58000004    2.59999990
   12.47111034  147.00700378    1.58000004    2.59999990
   12.47444439  142.50100708    1.60000002    2.61999989
   12.47777748  161.17300415    1.60000002    2.59999990
   12.48083305  156.20300293    1.58000004    2.61999989
   12.48416710  159.61300659    1.60000002    2.59999990
   12.48750019  141.54499817    1.60000002    2.61999989
   12.48944473  150.37899780    1.60000002    2.61999989
   12.49111176  149.83799744    1.60000002    2.61999989
   12.49444485  167.99000549    1.60000002    2.61999989
   12.49750042  161.78999329    1.58000004    2.59999990
   12.50083351  145.73300171    1.58000004    2.61999989
   12.50388908  163.17900085    1.60000002    2.59999990
   12.50722218  152.40600586    1.58000004    2.61999989
   12.51055527  153.80200195    1.58000004    2.61999989
   12.51361084  142.56599426    1.58000004    2.59999990
   12.51694393  154.13900757    1.58000004    2.61999989
   12.52027798  156.83900452    1.58000004    2.61999989
   12.52277756  149.04299927    1.58000004    2.61999989
   12.52388859  157.27600098    1.58000004    2.61999989
   12.52722168  161.56199646    1.58000004    2.61999989
   12.53027725  159.63999939    1.55999994    2.64000010
   12.53361130  161.66799927    1.53999996    2.61999989
   12.53694534  148.27499390    1.55999994    2.61999989
   12.54000092  151.88400269    1.53999996    2.61999989
   12.54333401  149.01199341    1.53999996    2.61999989
   12.54638958  150.94799805    1.53999996    2.61999989
   12.54972267  150.06599426    1.55999994    2.61999989
   12.55305576  137.86999512    1.55999994    2.61999989
   12.55611134  146.22200012    1.53999996    2.61999989
   12.55666733  141.13099670    1.53999996    2.61999989
   12.56000042  147.94999695    1.55999994    2.61999989
   12.56305599  136.67100525    1.55999994    2.61999989
   12.56638908  145.47200012    1.55999994    2.61999989
   12.56972218  151.19599915    1.55999994    2.61999989
   12.57277775  133.21800232    1.58000004    2.64000010
   12.57611084  143.83000183    1.55999994    2.61999989
   12.57916641  143.92599487    1.55999994    2.61999989
   12.58249950  139.79600525    1.55999994    2.61999989
   12.58583260  137.79499817    1.53999996    2.61999989
   12.58888817  135.47500610    1.50000000    2.61999989
   12.58944416  138.65699768    1.48000002    2.64000010
   12.59249973  142.65699768    1.48000002    2.61999989
   12.59583282  145.35600281    1.48000002    2.64000010
   12.59888840  133.99699402    1.48000002    2.61999989
   12.60222244  138.76100159    1.48000002    2.64000010
   12.60555553  136.72399902    1.48000002    2.64000010
   12.60861111  141.90400696    1.48000002    2.64000010
   12.61194515  141.20199585    1.48000002    2.64000010
   12.61527824  140.88099670    1.48000002    2.64000010
   12.61833382  141.47599792    1.48000002    2.64000010
   12.62166691  138.30099487    1.51999998    2.64000010
   12.62277794  134.94799805    1.51999998    2.64000010
   12.62527752  139.92500305    1.51999998    2.64000010
   12.62861156  137.24699402    1.50000000    2.64000010
   12.63166714  143.47000122    1.50000000    2.64000010
   12.63500023  137.83799744    1.50000000    2.64000010
   12.63833332  140.15699768    1.48000002    2.64000010
   12.64138889  137.64900208    1.50000000    2.64000010
   12.64472198  139.14199829    1.51999998    2.64000010
   12.64777756  133.43899536    1.51999998    2.64000010
   12.65138817  140.42100525    1.51999998    2.64000010
   12.65444374  131.14999390    1.51999998    2.64000010
   12.65611076  131.64700317    1.51999998    2.64000010
   12.65805531  135.48699951    1.51999998    2.64000010
   12.66138840  129.89399719    1.51999998    2.64000010
   12.66444397  134.82600403    1.51999998    2.66000009
   12.66777802  133.20100403    1.51999998    2.64000010
   12.67111111  128.55200195    1.51999998    2.64000010
   12.67416668  133.71800232    1.48000002    2.64000010
   12.67750072  122.50299835    1.46000004    2.64000010
   12.68083382  134.05599976    1.46000004    2.64000010
   12.68388939  131.96400452    1.46000004    2.66000009
   12.68722248  128.04499817    1.46000004    2.66000009
   12.68944454  123.51999664    1.44000006    2.64000010
   12.69083309  128.09100342    1.44000006    2.64000010
   12.69416714  130.11099243    1.46000004    2.64000010
   12.69722271  133.45199585    1.46000004    2.64000010
   12.70055580  129.73199463    1.41999996    2.66000009
   12.70388889  140.89199829    1.41999996    2.66000009
   12.70694447  129.21299744    1.41999996    2.64000010
   12.71027756  132.36399841    1.41999996    2.66000009
   12.71361065  133.85800171    1.41999996    2.66000009
   12.71666622  139.61000061    1.41999996    2.66000009
   12.71999931  126.87400055    1.41999996    2.66000009
   12.72277737  133.74000549    1.44000006    2.66000009
   12.72361088  129.44599915    1.41999996    2.66000009
   12.72694397  135.23800659    1.44000006    2.66000009
   12.72999954  131.61399841    1.44000006    2.66000009
   12.73333359  127.71600342    1.46000004    2.66000009
   12.73666668  131.78500366    1.44000006    2.64000010
   12.73972225  138.33099365    1.44000006    2.66000009
   12.74305534  130.29600525    1.44000006    2.66000009
   12.74638939  138.41000366    1.46000004    2.67000008
   12.74944496  135.22500610    1.48000002    2.67000008
   12.75277805  134.77699280    1.48000002    2.67000008
   12.75583363  129.39799500    1.48000002    2.66000009
   12.75638866  131.97599792    1.48000002    2.66000009
   12.75972176  134.35200500    1.50000000    2.66000009
   12.76305580  133.70700073    1.50000000    2.66000009
   12.76611137  134.74099731    1.48000002    2.66000009
   12.76944447  126.65299988    1.48000002    2.66000009
   12.77277756  127.09100342    1.48000002    2.66000009
   12.77583313  133.10000610    1.48000002    2.66000009
   12.77916622  134.69700623    1.48000002    2.66000009
   12.78249931  131.91200256    1.50000000    2.66000009
   12.78555584  138.66600037    1.50000000    2.66000009
   12.78888893  132.50000000    1.48000002    2.66000009
   12.79944515  130.11900330    1.48000002    2.67000008
   12.80194473  120.12300110    1.41999996    2.67000008
   12.80527782  133.50100708    1.39999998    2.66000009
   12.80833340  129.62100220    1.38000000    2.66000009
   12.81305599  133.93600464    1.39999998    2.67000008
   12.81638908  126.04199982    1.38000000    2.66000009
   12.81944466  128.04600525    1.38000000    2.66000009
   12.82277775  133.07699585    1.36000001    2.67000008
   12.82333374  128.63800049    1.36000001    2.67000008
   12.82611084  129.12300110    1.36000001    2.67000008
   12.82944393  130.37800598    1.36000001    2.67000008
   12.83277798  127.87999725    1.36000001    2.67000008
   12.83583260  135.39300537    1.36000001    2.66000009
   12.83916664  127.29599762    1.36000001    2.67000008
   12.84249973  124.37300110    1.36000001    2.67000008
   12.84555531  127.99600220    1.36000001    2.67000008
   12.84888840  132.05200195    1.39999998    2.69000006
   12.85194492  122.41799927    1.39999998    2.67000008
   12.85527802  131.92700195    1.39999998    2.67000008
   12.85666752  128.72500610    1.39999998    2.67000008
   12.85888958  130.52699280    1.39999998    2.67000008
   12.86222267  127.64600372    1.39999998    2.67000008
   12.86555576  132.90199280    1.41999996    2.67000008
   12.86861134  126.31700134    1.41999996    2.67000008
   12.87194443  128.66499329    1.44000006    2.67000008
   12.87527752  135.65199280    1.41999996    2.67000008
   12.87833309  127.10299683    1.41999996    2.67000008
   12.88166714  125.41000366    1.44000006    2.67000008
   12.88472176  130.18800354    1.46000004    2.67000008
   12.88805580  124.13700104    1.46000004    2.67000008
   12.89000034  128.13299561    1.44000006    2.67000008
   12.89166641  128.97399902    1.44000006    2.67000008
   12.89499950  126.23799896    1.46000004    2.67000008
   12.89833355  121.19899750    1.44000006    2.67000008
   12.90138817  124.99400330    1.44000006    2.67000008
   12.90472221  127.60099792    1.44000006    2.69000006
   12.90805531  121.07399750    1.44000006    2.67000008
   12.91111088  127.80500031    1.44000006    2.67000008
   12.91444397  128.14399719    1.46000004    2.67000008
   12.91777802  127.35500336    1.46000004    2.67000008
   12.92083359  128.64500427    1.44000006    2.67000008
   12.92333412  124.08300018    1.41999996    2.67000008
   12.92444515  128.61599731    1.41999996    2.67000008
   12.92777824  118.70899963    1.39999998    2.67000008
   12.93111134  122.64299774    1.39999998    2.69000006
   12.93416691  125.47499847    1.39999998    2.69000006
   12.93750000  121.65000153    1.39999998    2.69000006
   12.94083309  125.75099945    1.38000000    2.69000006
   12.94388866  123.34500122    1.38000000    2.69000006
   12.94722271  128.13200378    1.38000000    2.69000006
   12.95027733  125.24199677    1.38000000    2.69000006
   12.95361137  130.58200073    1.38000000    2.69000006
   12.95666695  127.68800354    1.38000000    2.69000006
   12.95722198  122.45800018    1.38000000    2.69000006
   12.96055508  123.82900238    1.36000001    2.69000006
   12.96388912  128.79800415    1.36000001    2.69000006
   12.96694374  122.56900024    1.36000001    2.69000006
   12.97027779  126.89900208    1.36000001    2.69000006
   12.97361088  122.10800171    1.39999998    2.69000006
   12.97666645  123.68900299    1.36000001    2.69000006
   12.97999954  122.65599823    1.39999998    2.69000006
   12.98305511  123.31900024    1.39999998    2.69000006
   12.98638916  124.21900177    1.39999998    2.69000006
   12.98972225  128.42399597    1.41999996    2.69000006
   12.99027824  122.32800293    1.41999996    2.69000006
   12.99333382  124.55699921    1.41999996    2.69000006
   12.99666691  123.65699768    1.41999996    2.69000006
   13.00000000  131.82000732    1.41999996    2.69000006
   13.00305557  121.20099640    1.41999996    2.69000006
   13.00638866  127.64199829    1.41999996    2.71000004
   13.00944424  118.70700073    1.41999996    2.71000004
   13.01277733  129.66000366    1.39999998    2.69000006
   13.01611137  121.93900299    1.39999998    2.71000004
   13.01916599  124.66000366    1.39999998    2.69000006
   13.02250004  123.01899719    1.39999998    2.69000006
   13.02361107  119.49099731    1.39999998    2.69000006
   13.02611065  118.82099915    1.39999998    2.69000006
   13.02944374  121.71600342    1.39999998    2.71000004
   13.03277779  125.03600311    1.38000000    2.71000004
   13.03583336  123.67199707    1.38000000    2.71000004
   13.03916740  126.64900208    1.36000001    2.71000004
   13.04222298  122.19100189    1.34000003    2.71000004
   13.04555607  124.08499908    1.33000004    2.71000004
   13.04888916  122.79000092    1.33000004    2.71000004
   13.05194473  124.50399780    1.33000004    2.71000004
   13.05527782  122.78500366    1.30999994    2.71000004
   13.05694485  122.57499695    1.28999996    2.71000004
   13.05888939  119.83399963    1.26999998    2.71000004
   13.06222248  124.48699951    1.26999998    2.71000004
   13.06555557  126.95500183    1.26999998    2.71000004
   13.06861115  127.45800018    1.26999998    2.71000004
   13.07194424  131.67700195    1.23000002    2.71000004
   13.07499981  137.54800415    1.21000004    2.71000004
   13.07833290  125.78600311    1.21000004    2.71000004
   13.08166695  123.09799957    1.23000002    2.71000004
   13.08472157  128.17199707    1.25000000    2.71000004
   13.08805561  128.13200378    1.23000002    2.71000004
   13.09027767  120.84300232    1.23000002    2.71000004
   13.09166622  130.56799316    1.23000002    2.71000004
   13.09499931  124.59500122    1.23000002    2.71000004
   13.09833336  121.69899750    1.26999998    2.71000004
   13.10138893  125.33300018    1.26999998    2.71000004
   13.10472298  121.37899780    1.28999996    2.69000006
   13.10805607  123.59500122    1.36000001    2.69000006
   13.22055531   -1.00000000   -1.00000000   -1.00000000
   13.31805515   -1.00000000   -1.00000000   -1.00000000
   13.45222187   -1.00000000   -1.00000000   -1.00000000
   13.50361156   74.84169769    1.09000003    2.76999998
   13.50694466  119.97100067    1.11000001    2.76999998
   13.51027775  123.11599731    1.11000001    2.76999998
   13.51333332  115.57800293    1.11000001    2.76999998
   13.51666641  126.52799988    1.13000000    2.76999998
   13.51972198  123.29399872    1.13000000    2.76999998
   13.52388859  123.29399872    1.13000000    2.78999996
   13.52805519  118.22599792    1.14999998    2.75000000
   13.53138828  120.61599731    1.14999998    2.75000000
   13.53444481  126.74500275    1.14999998    2.75000000
   13.53694534  130.33999634    1.14999998    2.76999998
   13.53833389  123.44000244    1.14999998    2.76999998
   13.54166698  123.16500092    1.16999996    2.76999998
   13.54472256  123.24500275    1.14999998    2.75000000
   13.54805565  120.26899719    1.14999998    2.76999998
   13.55111122  128.14999390    1.14999998    2.76999998
   13.55444431  126.70300293    1.14999998    2.76999998
   13.55777836  123.34300232    1.13000000    2.76999998
   13.56083393  126.09100342    1.13000000    2.76999998
   13.56694412  126.09100342    1.13000000    2.76999998
   13.57083321  120.83499908    1.11000001    2.76999998
   13.57416630  125.58300018    1.09000003    2.76999998
   13.57750034  125.34600067    1.07000005    2.76999998
   13.58055592  124.54900360    1.05999994    2.76999998
   13.58388901  120.62699890    1.03999996    2.78999996
   13.58722210  119.44999695    1.03999996    2.78999996
   13.59027767  125.58699799    1.03999996    2.76999998
   13.59361076  117.53199768    1.03999996    2.76999998
   13.59694386  119.88999939    1.03999996    2.76999998
   13.60000038  122.00900269    1.03999996    2.76999998
   13.60333347  121.96199799    1.05999994    2.78999996
   13.60388947  127.87000275    1.05999994    2.78999996
   13.60972214  127.87000275    1.05999994    2.76999998
   13.61388969  123.71099854    1.05999994    2.76999998
   13.61694431  117.32299805    1.05999994    2.76999998
   13.62027836  123.47200012    1.05999994    2.78999996
   13.62361145  119.31900024    1.05999994    2.76999998
   13.62666702  124.61399841    1.03999996    2.78999996
   13.63000011  116.81900024    1.01999998    2.78999996
   13.63305569  120.65899658    1.03999996    2.76999998
   13.63638878  122.97399902    1.03999996    2.76999998
   13.63722229  122.14199829    1.03999996    2.76999998
   13.64000034  120.00099945    1.03999996    2.76999998
   13.64333344  124.90299988    1.03999996    2.78999996
   13.64666653  127.15599823    1.03999996    2.78999996
   13.65249920  127.15599823    1.03999996    2.76999998
   13.65666676  120.87200165    1.05999994    2.76999998
   13.65999985  119.89600372    1.05999994    2.78999996
   13.66305542  120.19599915    1.05999994    2.78999996
   13.66638851  122.52799988    1.09000003    2.78999996
   13.66944504  118.54299927    1.11000001    2.76999998
   13.67055607  119.11900330    1.11000001    2.76999998
   13.67305565  123.18900299    1.11000001    2.76999998
   13.67638874  125.10099792    1.11000001    2.76999998
   13.67972279  126.20099640    1.13000000    2.76999998
   13.68277836  123.80699921    1.13000000    2.76999998
   13.68611145  115.62400055    1.13000000    2.76999998
   13.68944454  120.45600128    1.13000000    2.76999998
   13.69527817  120.45600128    1.09000003    2.78999996
   13.69944477  126.90299988    1.09000003    2.78999996
   13.70277786  121.23899841    1.09000003    2.76999998
   13.70388889  121.44100189    1.09000003    2.76999998
   13.70611095  120.28800201    1.07000005    2.78999996
   13.70944405  120.07599640    1.01999998    2.78999996
   13.71277714  115.94899750    1.00000000    2.78999996
   13.71583271  118.60299683    1.00000000    2.78999996
   13.71916580  116.79399872    0.98000002    2.78999996
   13.72249985  118.88200378    1.00000000    2.78999996
   13.72555542  117.40599823    1.00000000    2.78999996
   13.72888851  121.16500092    1.00000000    2.78999996
   13.73194408  122.06600189    0.98000002    2.78999996
   13.73833370  122.06600189    0.98000002    2.78999996
   13.74250031  121.61399841    0.98000002    2.78999996
   13.74555588  123.07800293    0.98000002    2.78999996
   13.74888897  118.92500305    0.98000002    2.78999996
   13.75194454  120.25199890    1.00000000    2.78999996
   13.75527763  119.50299835    1.00000000    2.78999996
   13.75861073  116.88500214    1.00000000    2.78999996
   13.76166630  121.08100128    0.98000002    2.78999996
   13.76500034  119.09899902    0.94000000    2.78999996
   13.76833344  119.12899780    0.92000002    2.78999996
   13.77166653  114.20700073    0.92000002    2.78999996
   13.77305508  124.16200256    0.92000002    2.78999996
   13.77638817  120.74700165    0.92000002    2.78999996
   13.78111076  120.74700165    0.89999998    2.78999996
   13.78527832  118.58300018    0.92000002    2.80999994
   13.78861141  119.36199951    0.94000000    2.78999996
   13.79166698  112.65200043    0.95999998    2.78999996
   13.79500008  122.25900269    0.98000002    2.80999994
   13.79833412  117.06199646    0.98000002    2.80999994
   13.80138874  120.04799652    0.98000002    2.78999996
   13.80388927  116.68299866    0.98000002    2.78999996
   13.80500031  112.05300140    0.98000002    2.78999996
   13.80833340  117.85299683    0.98000002    2.78999996
   13.81166649  117.16999817    0.98000002    2.78999996
   13.81472206  117.34700012    0.98000002    2.78999996
   13.81805515  123.56099701    0.98000002    2.80999994
   13.82388878  123.56099701    1.01999998    2.78999996
   13.82805538  114.83499908    1.01999998    2.78999996
   13.83138847  121.77799988    1.03999996    2.78999996
   13.83472157  119.45400238    1.05999994    2.78999996
   13.83722210  114.00000000    1.05999994    2.78999996
   13.83805561  120.97200012    1.05999994    2.78999996
   13.84138870  128.39900208    1.07000005    2.78999996
   13.84472179  114.18800354    1.07000005    2.78999996
   13.84777737  118.02200317    1.07000005    2.78999996
   13.85111141  115.25599670    1.07000005    2.78999996
   13.85444450  114.60099792    1.07000005    2.78999996
   13.85750008  114.62300110    1.03999996    2.80999994
   13.86083412  120.20700073    1.03999996    2.80999994
   13.86694431  120.20700073    1.01999998    2.78999996
   13.87111092  116.61900330    1.01999998    2.78999996
   13.87416649  117.09600067    1.00000000    2.78999996
   13.87750053  123.70200348    1.00000000    2.80999994
   13.88083363  117.45200348    0.98000002    2.80999994
   13.88388920  121.52999878    0.98000002    2.80999994
   13.88722229  118.17400360    0.98000002    2.78999996
   13.89027786  118.97599792    0.98000002    2.80999994
   13.89361095  120.88899994    0.98000002    2.80999994
   13.89694405  121.74199677    1.00000000    2.80999994
   13.89999962  125.49900055    0.98000002    2.80999994
   13.90333271  118.95800018    0.95999998    2.80999994
   13.90388870  121.85600281    0.95999998    2.80999994
   13.90972137  121.85600281    0.95999998    2.80999994
   13.91388893  123.52899933    0.95999998    2.80999994
   13.91694450  119.65899658    0.95999998    2.80999994
   13.92027855  117.65100098    0.95999998    2.80999994
   13.92361164  122.41999817    0.95999998    2.80999994
   13.92666721  117.77100372    0.95999998    2.80999994
   13.93000031  123.53900146    0.95999998    2.80999994
   13.93333340  116.24400330    0.94000000    2.80999994
   13.93638897  120.44400024    0.94000000    2.80999994
   13.93722248  115.67900085    0.94000000    2.80999994
   13.94027805  120.20500183    0.94000000    2.80999994
   13.94333363  117.22000122    0.95999998    2.80999994
   13.94666672  120.76999664    0.95999998    2.80999994
   13.95249939  120.76999664    0.94000000    2.80999994
   13.95666695  118.11399841    0.94000000    2.80999994
   13.96000004  109.51399994    0.94000000    2.80999994
   13.96305561  125.73799896    0.94000000    2.80999994
   13.96638870  114.43399811    0.94000000    2.82999992
   13.96972179  118.81300354    0.95999998    2.80999994
   13.97083282  120.15599823    0.95999998    2.80999994
   13.97333336  118.37300110    0.98000002    2.78999996
   13.97666645  117.38800049    0.98000002    2.78999996
   13.97999954  117.83599854    0.98000002    2.80999994
   13.98305511  116.91699982    1.00000000    2.80999994
   13.98638916  118.85900116    1.01999998    2.78999996
   13.98972225  124.43000031    1.01999998    2.78999996
   13.99527836  124.43000031    0.95999998    2.82999992
   13.99944496  115.92400360    0.95999998    2.80999994
   14.00277805  117.07299805    0.95999998    2.80999994
   14.00388908  122.51499939    0.95999998    2.80999994
   14.00638866  123.16500092    0.92000002    2.82999992
   14.00944424  121.96499634    0.88000000    2.80999994
   14.01277733  118.66000366    0.88000000    2.80999994
   14.01611137  108.04900360    0.89999998    2.80999994
   14.01916599  115.28399658    0.88000000    2.80999994
   14.02250004  123.36199951    0.88000000    2.82999992
   14.02555561  116.85500336    0.86000001    2.82999992
   14.02888870  121.11799622    0.86000001    2.82999992
   14.03222179  121.26399994    0.88000000    2.82999992
   14.03833389  121.26399994    0.83999997    2.82999992
   14.04250050  119.04799652    0.83999997    2.80999994
   14.04555607  112.11100006    0.81999999    2.80999994
   14.04888916  116.37100220    0.81999999    2.82999992
   14.05222225  115.25099945    0.81999999    2.82999992
   14.05527782  115.50800323    0.81999999    2.80999994
   14.05861092  115.50900269    0.83999997    2.82999992
   14.06194496  109.41999817    0.83999997    2.80999994
   14.06500053  112.72399902    0.88000000    2.80999994
   14.06833363  118.40200043    0.86000001    2.82999992
   14.07055569  119.84999847    0.86000001    2.82999992
   14.07194424  119.73000336    0.86000001    2.82999992
   14.07527733  119.76699829    0.86000001    2.82999992
   14.08111095  119.76699829    0.89999998    2.80999994
   14.08527756  123.44000244    0.89999998    2.80999994
   14.08833313  118.50800323    0.89999998    2.80999994
   14.09166622  119.48600006    0.89999998    2.80999994
   14.09499931  113.79100037    0.89999998    2.80999994
   14.09833336  109.42800140    0.92000002    2.80999994
   14.10138893  122.55999756    0.92000002    2.80999994
   14.10388947  119.72000122    0.92000002    2.80999994
   14.10527802  108.84100342    0.92000002    2.80999994
   14.10833359  112.87500000    0.92000002    2.80999994
   14.11166668  116.80599976    0.89999998    2.82999992
   14.11500072  119.42600250    0.89999998    2.80999994
   14.11805534  121.44899750    0.89999998    2.80999994
   14.12388897  121.44899750    0.88000000    2.82999992
   14.12805557  120.58999634    0.88000000    2.80999994
   14.13138866  110.88300323    0.88000000    2.80999994
   14.13444424  112.28700256    0.89999998    2.80999994
   14.13722229  114.52500153    0.88000000    2.82999992
   14.13833332  112.38899994    0.88000000    2.80999994
   14.14138889  105.52700043    0.88000000    2.80999994
   14.14472198  107.91899872    0.88000000    2.82999992
   14.14777756  106.64700317    0.88000000    2.82999992
   14.15111065  116.95800018    0.88000000    2.82999992
   14.15444374  114.08599854    0.86000001    2.82999992
   14.15749931  114.98899841    0.83999997    2.82999992
   14.16083336  114.78099823    0.83999997    2.82999992
   14.16666698  114.78099823    0.81999999    2.80999994
   14.17083359  119.87400055    0.80000001    2.82999992
   14.17416668  111.23300171    0.80000001    2.80999994
   14.17750072  116.07599640    0.79000002    2.82999992
   14.18055630  113.14900208    0.75000000    2.82999992
   14.18388939  112.86799622    0.76999998    2.80999994
   14.18694496  111.62300110    0.76999998    2.82999992
   14.19027805  110.74900055    0.76999998    2.82999992
   14.19361115  113.56600189    0.76999998    2.82999992
   14.19666672  115.28900146    0.79000002    2.82999992
   14.19999981  114.70400238    0.79000002    2.82999992
   14.20305538  115.43299866    0.79000002    2.82999992
   14.20388889  114.38600159    0.79000002    2.82999992
   14.20972157  114.38600159    0.79000002    2.82999992
   14.21361065  117.64700317    0.79000002    2.82999992
   14.21694374  114.07700348    0.79000002    2.82999992
   14.22027779  117.05899811    0.79000002    2.82999992
   14.22333336  112.88400269    0.79000002    2.82999992
   14.22666645  114.30899811    0.79000002    2.82999992
   14.22999954  118.69899750    0.79000002    2.82999992
   14.23305511  114.96499634    0.79000002    2.82999992
   14.23638916  121.41200256    0.80000001    2.80999994
   14.23722267  116.17099762    0.80000001    2.80999994
   14.24000072  121.09999847    0.80000001    2.80999994
   14.24305534  105.77700043    0.80000001    2.82999992
   14.24638939  109.29000092    0.86000001    2.82999992
   14.25249958  109.29000092    0.83999997    2.84999990
   14.25666714  111.73200226    0.83999997    2.84999990
   14.25972176  109.32499695    0.89999998    2.82999992
   14.26305580  113.39099884    0.88000000    2.82999992
   14.26638889  112.00099945    0.88000000    2.82999992
   14.26944447  112.04000092    0.88000000    2.82999992
   14.27055550  112.59100342    0.88000000    2.82999992
   14.27333355  114.88999939    0.88000000    2.82999992
   14.27638817  109.89299774    0.88000000    2.82999992
   14.27972221  117.30899811    0.88000000    2.82999992
   14.28277779  119.26699829    0.88000000    2.82999992
   14.28611183  119.85600281    0.86000001    2.82999992
   14.28944492  105.71700287    0.86000001    2.82999992
   14.29527855  105.71700287    0.86000001    2.84999990
   14.29944515  113.96900177    0.83999997    2.82999992
   14.30277824  113.44400024    0.83999997    2.82999992
   14.30388927  110.50900269    0.83999997    2.82999992
   14.30638885  114.89499664    0.81999999    2.82999992
   14.30944443  113.43900299    0.81999999    2.82999992
   14.31277752  115.49800110    0.81999999    2.82999992
   14.31611156  123.29000092    0.81999999    2.82999992
   14.31916618  118.00900269    0.80000001    2.82999992
   14.32250023  108.33699799    0.80000001    2.82999992
   14.32555580  116.76100159    0.79000002    2.84999990
   14.32888889  118.56500244    0.76999998    2.84999990
   14.33222198  114.71199799    0.76999998    2.82999992
   14.33805561  114.71199799    0.73000002    2.84999990
   14.34222221  111.61799622    0.69000000    2.84999990
   14.34555531  113.41300201    0.67000002    2.84999990
   14.34888840  121.37899780    0.69000000    2.82999992
   14.35194492  125.37799835    0.67000002    2.84999990
   14.35527802  118.91600037    0.67000002    2.84999990
   14.35833359  116.55100250    0.69000000    2.84999990
   14.36166668  115.65399933    0.69000000    2.84999990
   14.36500072  112.65000153    0.70999998    2.82999992
   14.36805534  121.76100159    0.70999998    2.84999990
   14.37055588  123.06999969    0.70999998    2.84999990
   14.37194443  116.31400299    0.70999998    2.82999992
   14.37500000  124.40299988    0.70999998    2.82999992
   14.38111115  124.40299988    0.70999998    2.84999990
   14.38500023  115.73000336    0.70999998    2.82999992
   14.38833332  116.58999634    0.70999998    2.84999990
   14.39166641  116.28600311    0.79000002    2.84999990
   14.39472198  109.00299835    0.79000002    2.84999990
   14.39805508  115.13999939    0.79000002    2.84999990
   14.40166664  109.33899689    0.81999999    2.84999990
   14.40388870  110.58699799    0.89999998    2.82999992
   14.40527725  106.09400177    0.88000000    2.82999992
   14.40833282  105.97000122    0.89999998    2.84999990
   14.41166592  108.27300262    0.92000002    2.84999990
   14.41499996  109.08200073    0.92000002    2.82999992
   14.41805553  114.73200226    0.92000002    2.84999990
   14.42388916  114.73200226    0.89999998    2.84999990
   14.42805576  115.94300079    0.88000000    2.84999990
   14.43111134  113.42900085    0.86000001    2.84999990
   14.43444443  122.87000275    0.86000001    2.84999990
   14.43722248  111.00399780    0.86000001    2.84999990
   14.43833351  108.29699707    0.86000001    2.84999990
   14.44138908  118.61799622    0.86000001    2.84999990
   14.44472218  109.12999725    0.86000001    2.84999990
   14.44805527  119.30300140    0.83999997    2.84999990
   14.45111084  111.42199707    0.83999997    2.84999990
   14.45444393  113.88099670    0.83999997    2.84999990
   14.45749950  117.48699951    0.81999999    2.84999990
   14.46083355  115.97000122    0.81999999    2.82999992
   14.46666622  115.97000122    0.79000002    2.84999990
   14.47083282  116.40899658    0.76999998    2.84999990
   14.47416592  112.23600006    0.75000000    2.84999990
   14.47722149  120.52799988    0.76999998    2.82999992
   14.48055553  112.88700104    0.79000002    2.84999990
   14.48361111  117.05200195    0.79000002    2.84999990
   14.48694515  113.98799896    0.76999998    2.84999990
   14.49027824  114.26200104    0.80000001    2.84999990
   14.49333382  119.01000214    0.80000001    2.84999990
   14.49666691  117.28500366    0.81999999    2.84999990
   14.50000000  116.40200043    0.83999997    2.84999990
   14.50305557  121.77700043    0.83999997    2.84999990
   14.50388908  116.05999756    0.81999999    2.84999990
   14.52472210  116.05999756    0.83999997    2.84999990
   14.52888870  122.45800018    0.83999997    2.84999990
   14.53194427  124.50299835    0.86000001    2.84999990
   14.53527832  117.96299744    0.83999997    2.84999990
   14.53722286  122.25000000    0.83999997    2.84999990
   14.53888893  117.64900208    0.83999997    2.84999990
   14.54194450  127.47599792    0.80000001    2.84999990
   14.54527855  112.00299835    0.79000002    2.84999990
   14.54861164  112.95099640    0.79000002    2.84999990
   14.55166721  117.63300323    0.79000002    2.84999990
   14.55500031  109.08899689    0.76999998    2.84999990
   14.55805588  116.83399963    0.76999998    2.84999990
   14.56138897  117.82900238    0.76999998    2.84999990
   14.56750011  117.82900238    0.79000002    2.84999990
   14.57138920  117.98899841    0.76999998    2.84999990
   14.57472229  112.34400177    0.76999998    2.84999990
   14.57805538  117.11900330    0.76999998    2.84999990
   14.58111095  119.93199921    0.79000002    2.84999990
   14.58444405  115.89600372    0.76999998    2.86999989
   14.58777714  112.93399811    0.76999998    2.86999989
   14.59083271  128.56100464    0.76999998    2.84999990
   14.59416676  119.07199860    0.75000000    2.84999990
   14.59749985  117.52400208    0.75000000    2.84999990
   14.60055637  115.57700348    0.69000000    2.84999990
   14.60388947  117.90799713    0.70999998    2.86999989
   14.60444450   98.55500031    0.70999998    2.84999990
   14.61027813   98.55500031    0.70999998    2.84999990
   14.61444473  118.24400330    0.73000002    2.84999990
   14.61750031  115.67199707    0.75000000    2.86999989
   14.62083340  107.27899933    0.75000000    2.84999990
   14.62472248  114.77300262    0.73000002    2.84999990
   14.62805557  114.40100098    0.75000000    2.84999990
   14.63111115  121.45800018    0.73000002    2.84999990
   14.63444424  125.77500153    0.73000002    2.84999990
   14.63777733  121.68699646    0.70999998    2.84999990
   14.63833332  119.13700104    0.70999998    2.84999990
   14.64138889  130.84300232    0.70999998    2.84999990
   14.64472198  114.72299957    0.73000002    2.86999989
   14.64777756  125.54000092    0.73000002    2.86999989
   14.65305519  125.54000092    0.70999998    2.84999990
   14.65722179  114.47000122    0.69000000    2.84999990
   14.66055489  116.08300018    0.69000000    2.86999989
   14.66361046  115.29599762    0.67000002    2.84999990
   14.66694450  120.11799622    0.64999998    2.86999989
   14.67000008  121.15200043    0.64999998    2.86999989
   14.67111111  119.45600128    0.64999998    2.86999989
   14.67361164  120.70200348    0.64999998    2.86999989
   14.67694473  124.02300262    0.64999998    2.84999990
   14.68027782  123.99500275    0.64999998    2.86999989
   14.68333340  121.96499634    0.63000000    2.86999989
   14.68666649  123.68599701    0.63000000    2.86999989
   14.69000053  130.29699707    0.61000001    2.84999990
   14.69583321  130.29699707    0.58999997    2.84999990
   14.69999981  117.13200378    0.58999997    2.84999990
   14.70333290  123.75599670    0.58999997    2.86999989
   14.70444393  122.73300171    0.58999997    2.86999989
   14.70694447  117.65499878    0.58999997    2.86999989
   14.71000004  147.85299683    0.58999997    2.86999989
   14.71333313  119.57199860    0.58999997    2.84999990
   14.71638870  121.50199890    0.61000001    2.84999990
   14.71972179  108.17600250    0.61000001    2.84999990
   14.72305489  109.57599640    0.64999998    2.86999989
   14.72611046  109.14600372    0.64999998    2.86999989
   14.72972202  123.20700073    0.69000000    2.86999989
   14.73277760  121.97599792    0.67000002    2.86999989
   14.73888874  121.97599792    0.69000000    2.84999990
   14.74277782  107.43900299    0.69000000    2.84999990
   14.74611092  114.20099640    0.70999998    2.84999990
   14.74944496  122.73000336    0.69000000    2.84999990
   14.75249958  118.31800079    0.67000002    2.84999990
   14.75583363  121.82599640    0.61000001    2.86999989
   14.75916672  123.45800018    0.58999997    2.84999990
   14.76222229  121.03800201    0.63000000    2.86999989
   14.76555538  123.08399963    0.61000001    2.84999990
   14.76861095  117.90299988    0.61000001    2.84999990
   14.77111053  110.88099670    0.61000001    2.84999990
   14.77250004  111.60299683    0.63000000    2.84999990
   14.77555561  115.44599915    0.63000000    2.84999990
   14.78166676  115.44599915    0.64999998    2.84999990
   14.78583336  121.26399994    0.64999998    2.86999989
   14.78888893  114.56300354    0.63000000    2.84999990
   14.79222298  118.76399994    0.63000000    2.84999990
   14.79555607  115.50099945    0.61000001    2.86999989
   14.79861164  119.77200317    0.61000001    2.86999989
   14.80194473  110.61699677    0.63000000    2.86999989
   14.80444431  117.06700134    0.58999997    2.84999990
   14.80555534  115.36399841    0.58999997    2.86999989
   14.80861092  126.30699921    0.58999997    2.86999989
   14.81194496  118.98600006    0.58999997    2.86999989
   14.81500053  120.25199890    0.55000001    2.86999989
   14.81833363  114.72599792    0.55000001    2.86999989
   14.82444477  114.72599792    0.55000001    2.86999989
   14.82861137  123.83999634    0.55000001    2.86999989
   14.83166695  123.03500366    0.55000001    2.86999989
   14.83500004  112.51599884    0.52999997    2.86999989
   14.83777714  125.31500244    0.52999997    2.86999989
   14.83888817  122.22299957    0.52999997    2.86999989
   14.84194374  114.33799744    0.52999997    2.86999989
   14.84527779  118.29299927    0.52999997    2.84999990
   14.84833336  117.63400269    0.55000001    2.86999989
   14.85166740  122.84500122    0.55000001    2.86999989
   14.85500050  120.81999969    0.55000001    2.86999989
   14.85805607  111.23100281    0.61000001    2.86999989
   14.86138916  116.69599915    0.61000001    2.86999989
   14.86722279  116.69599915    0.58999997    2.86999989
   14.87138939  112.63999939    0.58999997    2.86999989
   14.87472248  103.80200195    0.58999997    2.86999989
   14.87777805  123.66799927    0.58999997    2.86999989
   14.88111115  117.56999969    0.55000001    2.86999989
   14.88444424  126.59500122    0.55000001    2.86999989
   14.88749981  118.21399689    0.52999997    2.86999989
   14.89083290  120.23799896    0.52999997    2.86999989
   14.89416695  117.96499634    0.52999997    2.86999989
   14.89722252  121.51599884    0.52999997    2.86999989
   14.90055561  122.06099701    0.52999997    2.86999989
   14.90361118  126.82499695    0.52999997    2.86999989
   14.90444374  122.88500214    0.52999997    2.86999989
   14.91027737  122.88500214    0.51999998    2.86999989
   14.91416645  115.37899780    0.51999998    2.86999989
   14.91750050  116.69899750    0.51999998    2.86999989
   14.92083359  119.09100342    0.51999998    2.86999989
   14.92388916  117.65799713    0.55000001    2.86999989
   14.92722225  123.11599731    0.55000001    2.86999989
   14.93055630  117.78700256    0.56999999    2.86999989
   14.93361092  109.17299652    0.56999999    2.86999989
   14.93694496  126.23899841    0.63000000    2.86999989
   14.93777752  118.97000122    0.63000000    2.86999989
   14.94055557  113.70600128    0.63000000    2.86999989
   14.94361115  117.26599884    0.63000000    2.86999989
   14.94694424  115.49700165    0.63000000    2.86999989
   14.95305538  115.49700165    0.63000000    2.86999989
   14.95722198  117.09999847    0.61000001    2.86999989
   14.96027756  121.64600372    0.61000001    2.86999989
   14.96361065  121.55699921    0.63000000    2.86999989
   14.96694374  103.90299988    0.64999998    2.86999989
   14.96999931  104.93800354    0.64999998    2.86999989
   14.97111034  120.32800293    0.64999998    2.86999989
   14.97388840  116.38099670    0.64999998    2.86999989
   14.97722149  110.89399719    0.63000000    2.86999989
   14.98027706  123.27300262    0.63000000    2.86999989
   14.98361111  108.58100128    0.61000001    2.86999989
   14.98666668  118.12100220    0.58999997    2.86999989
   14.99000072  119.65200043    0.55000001    2.86999989
   14.99583340  119.65200043    0.55000001    2.86999989
   15.00000000  111.23500061    0.55000001    2.86999989
   15.00333309  116.37599945    0.55000001    2.86999989
   15.00444412  109.45500183    0.52999997    2.86999989
   15.00694466  117.64700317    0.55000001    2.89000010
   15.01000023  127.73600006    0.55000001    2.86999989
   15.01333332  117.44499969    0.55000001    2.86999989
   15.01666641  119.08699799    0.55000001    2.89000010
   15.01972198  114.74800110    0.41999999    2.86999989
   15.02305508  110.82199860    0.41999999    2.86999989
   15.02638817  118.52899933    0.41999999    2.89000010
   15.02944374  110.53399658    0.41999999    2.86999989
   15.03277779  113.44200134    0.41999999    2.86999989
   15.03861141  113.44200134    0.44000000    2.89000010
   15.04277802  114.25000000    0.47999999    2.86999989
   15.04611111  101.69100189    0.50000000    2.86999989
   15.04916668  112.94699860    0.52999997    2.89000010
   15.05249977  120.81700134    0.56999999    2.86999989
   15.05583382  123.05699921    0.56999999    2.86999989
   15.05888939  114.95800018    0.63000000    2.86999989
   15.06222248  111.30300140    0.63000000    2.86999989
   15.06527805  113.19000244    0.58999997    2.86999989
   15.06861115  114.45600128    0.61000001    2.86999989
   15.07111073  114.69300079    0.61000001    2.86999989
   15.07250023  110.60099792    0.61000001    2.86999989
   15.07555580  108.64600372    0.61000001    2.86999989
   15.08138847  108.64600372    0.55000001    2.89000010
   15.08555508  112.49199677    0.52999997    2.86999989
   15.08888817  114.30300140    0.52999997    2.86999989
   15.09222221  115.00299835    0.51999998    2.89000010
   15.09527779  118.08599854    0.50000000    2.86999989
   15.09861088  113.44599915    0.50000000    2.89000010
   15.10166740  120.36499786    0.47999999    2.86999989
   15.10444450  115.46800232    0.44000000    2.89000010
   15.10555553  112.48100281    0.44000000    2.89000010
   15.10861111  112.05799866    0.41999999    2.89000010
   15.11194515  121.87899780    0.41999999    2.89000010
   15.11527824  111.93800354    0.41999999    2.89000010
   15.11833382  119.44300079    0.38000000    2.91000009
   15.12444496  119.44300079    0.38000000    2.89000010
   15.12861156  129.97099304    0.38000000    2.89000010
   15.13166714  103.23400116    0.38000000    2.89000010
   15.13500023  109.73699951    0.38000000    2.89000010
   15.13777733   96.36219788    0.38000000    2.89000010
   15.13861084  117.21600342    0.40000001    2.89000010
   15.14166641  117.03900146    0.41999999    2.86999989
   15.14499950  118.88200378    0.44000000    2.86999989
   15.14833355  111.18599701    0.44000000    2.89000010
   15.15138817  108.99299622    0.44000000    2.89000010
   15.15472221  116.79900360    0.44000000    2.86999989
   15.15777779  108.70700073    0.50000000    2.89000010
   15.16111088  100.91500092    0.44000000    2.91000009
   15.16722298  100.91500092    0.44000000    2.89000010
   15.17138958  119.13899994    0.44000000    2.89000010
   15.17472267  108.46499634    0.44000000    2.89000010
   15.17805576  110.61000061    0.44000000    2.89000010
   15.18111134  114.85199738    0.44000000    2.89000010
   15.18444443  116.52500153    0.44000000    2.89000010
   15.18777752  115.95600128    0.44000000    2.89000010
   15.19083309  107.00000000    0.44000000    2.89000010
   15.19416714  119.37000275    0.44000000    2.89000010
   15.19750023  109.79900360    0.44000000    2.89000010
   15.20055580  108.70400238    0.44000000    2.89000010
   15.20388889  118.07299805    0.41999999    2.89000010
   15.20444393  117.38099670    0.41999999    2.89000010
   15.21000004  117.38099670    0.50000000    2.89000010
   15.21416664  113.28700256    0.46000001    2.89000010
   15.21749973  106.10600281    0.46000001    2.89000010
   15.22055531  111.54699707    1.33000004    2.89000010
   15.22388840  113.16000366    3.09999990    2.89000010
   15.22722149  112.84400177    0.58999997    2.89000010
   15.23027706  107.63999939    0.46000001    2.91000009
   15.23361111  114.56099701    0.44000000    2.89000010
   15.23666668  104.41300201    0.44000000    2.89000010
   15.23777771  109.03199768    0.44000000    2.86999989
   15.24055576  117.93399811    0.41999999    2.89000010
   15.24361134  106.59999847    0.44000000    2.89000010
   15.24694443  106.30699921    0.44000000    2.89000010
   15.25277805  106.30699921    0.44000000    2.89000010
   15.25694466  109.32700348    0.44000000    2.89000010
   15.26027775  115.17800140    0.44000000    2.89000010
   15.26361084  115.87500000    0.38000000    2.89000010
   15.26666641  104.45999908    0.36000001    2.89000010
   15.26999950  107.80599976    0.36000001    2.86999989
   15.27111053  114.97499847    0.36000001    2.86999989
   15.27361107  112.94899750    0.36000001    2.86999989
   15.27666664  111.69599915    0.38000000    2.86999989
   15.27999973  120.49199677    0.38000000    2.86999989
   15.28333378  120.96299744    0.40000001    2.86999989
   15.28638935  119.02799988    0.40000001    2.89000010
   15.28972244  120.83899689    0.40000001    2.89000010
   15.29583359  120.83899689    0.40000001    2.89000010
   15.30000019  108.21399689    0.38000000    2.89000010
   15.30305576  117.93800354    0.38000000    2.89000010
   15.30444431  119.95400238    0.40000001    2.91000009
   15.30694485  119.16300201    0.38000000    2.89000010
   15.31000042  111.86799622    0.40000001    2.89000010
   15.31333351  129.82800293    0.40000001    2.89000010
   15.31666660  106.60900116    0.40000001    2.89000010
   15.31972218  114.46900177    0.44000000    2.89000010
   15.32305527  118.41100311    0.44000000    2.89000010
   15.32638836  120.94599915    0.41999999    2.89000010
   15.32944393  107.70300293    0.41999999    2.89000010
   15.33277798  115.86699677    0.41999999    2.89000010
   15.33861065  115.86699677    0.47999999    2.89000010
   15.34277725  112.85500336    0.47999999    2.89000010
   15.34611034  115.71900177    0.47999999    2.89000010
   15.34916592  110.26899719    0.51999998    2.89000010
   15.35249996  120.34799957    0.51999998    2.89000010
   15.35555553  116.57299805    0.52999997    2.86999989
   15.35888958  113.53099823    0.52999997    2.86999989
   15.36222267   93.01750183    0.55000001    2.89000010
   15.36527824  117.44300079    0.55000001    2.89000010
   15.36861134  118.28800201    0.55000001    2.89000010
   15.37111092  106.10299683    0.55000001    2.89000010
   15.37222195  122.22100067    0.56999999    2.89000010
   15.37527752  117.83200073    0.61000001    2.89000010
   15.38138866  117.83200073    0.64999998    2.89000010
   15.38555527  111.98799896    0.64999998    2.89000010
   15.38888836  112.50299835    0.67000002    2.86999989
   15.39194393  107.20400238    0.67000002    2.89000010
   15.39527798  111.74700165    0.67000002    2.86999989
   15.39861107  112.62000275    0.58999997    2.89000010
   15.40166664  123.73400116    0.56999999    2.89000010
   15.40444374  109.17299652    0.56999999    2.89000010
   15.40555477  115.19999695    0.56999999    2.89000010
   15.40861034  104.41799927    0.56999999    2.91000009
   15.41194439  119.70700073    0.56999999    2.89000010
   15.41527748  121.58300018    0.58999997    2.89000010
   15.41833401  109.66500092    0.58999997    2.89000010
   15.42416668  109.66500092    0.63000000    2.86999989
   15.42833328  111.18099976    0.63000000    2.89000010
   15.43166733  109.71600342    0.64999998    2.89000010
   15.43500042  108.90699768    0.63000000    2.89000010
   15.43777752  110.93000031    0.63000000    2.89000010
   15.43861103  108.75399780    0.63000000    2.89000010
   15.44166660  115.76499939    0.64999998    2.89000010
   15.44499969  112.70099640    0.64999998    2.89000010
   15.44833374  114.01200104    0.67000002    2.86999989
   15.45138836  117.77700043    0.67000002    2.86999989
   15.45472240  108.94499969    0.64999998    2.89000010
   15.45805550  112.36799622    0.64999998    2.89000010
   15.46111107  109.21299744    0.61000001    2.89000010
   15.46722221  109.21299744    0.61000001    2.89000010
   15.47138882  107.36199951    0.61000001    2.89000010
   15.47444439  106.73400116    0.63000000    2.89000010
   15.47777748  108.65799713    0.63000000    2.89000010
   15.48083305  108.06700134    0.64999998    2.89000010
   15.48416710  112.31500244    0.63000000    2.89000010
   15.48750019  118.38899994    0.63000000    2.89000010
   15.49055576  110.64600372    0.63000000    2.89000010
   15.49388885  109.26399994    0.58999997    2.89000010
   15.49722290   99.99849701    0.58999997    2.89000010
   15.50027752  104.08899689    0.56999999    2.91000009
   15.50361156  109.60600281    0.56999999    2.91000009
   15.50444412  108.07800293    0.56999999    2.89000010
   15.51000023  108.07800293    0.56999999    2.89000010
   15.51416683  115.08599854    0.52999997    2.89000010
   15.51722240  124.70099640    0.55000001    2.89000010
   15.52055550  114.97100067    0.55000001    2.89000010
   15.53833389  112.36599731    0.52999997    2.89000010
   15.54055595  108.21099854    0.56999999    2.89000010
   15.54388905  112.45800018    0.56999999    2.91000009
   15.54722309  114.40599823    0.56999999    2.91000009
   15.55305576  114.40599823    0.55000001    2.89000010
   15.55722237  117.48100281    0.58999997    2.89000010
   15.56027794   98.93409729    0.58999997    2.89000010
   15.56361103  111.55200195    0.58999997    2.91000009
   15.56694412  110.24299622    0.58999997    2.89000010
   15.56999969  112.56700134    0.58999997    2.89000010
   15.57138920  107.87400055    0.58999997    2.89000010
   15.57388878  112.37799835    0.58999997    2.89000010
   15.57694435  109.32900238    0.61000001    2.91000009
   15.58027744  110.12300110    0.61000001    2.91000009
   15.58361053  108.39900208    0.63000000    2.89000010
   15.58666611  112.01999664    0.64999998    2.89000010
   15.59000015  108.10500336    0.64999998    2.89000010
   15.59583282  108.10500336    0.64999998    2.89000010
   15.60000038  116.01999664    0.64999998    2.89000010
   15.60333347  109.18599701    0.64999998    2.89000010
   15.60472298  105.35500336    0.67000002    2.89000010
   15.60694504  115.51000214    0.67000002    2.89000010
   15.61000061  109.22499847    0.67000002    2.89000010
   15.61333370  109.24299622    0.67000002    2.89000010
   15.61666679  111.17600250    0.67000002    2.89000010
   15.61972237  105.27300262    0.70999998    2.89000010
   15.62305546  104.34300232    0.73000002    2.89000010
   15.62638855  111.23400116    0.73000002    2.89000010
   15.62944412  101.58799744    0.73000002    2.89000010
   15.63277817  108.30100250    0.70999998    2.89000010
   15.63861084  108.30100250    0.63000000    2.89000010
   15.64277744  107.16200256    0.56999999    2.91000009
   15.64611053  107.37500000    0.56999999    2.91000009
   15.64916611  108.85700226    0.56999999    2.89000010
   15.65249920  105.92400360    0.56999999    2.89000010
   15.65583324  106.38500214    0.52999997    2.91000009
   15.65888882  106.41100311    0.50000000    2.91000009
   15.66222191  101.19000244    0.50000000    2.91000009
   15.66555500  110.99400330    0.44000000    2.91000009
   15.66861153  112.83699799    0.40000001    2.89000010
   15.67138958   97.36949921    0.38000000    2.89000010
   15.67250061  104.41400146    0.38000000    2.89000010
   15.67583370  102.27400208    0.36000001    2.91000009
   15.68166733  102.27400208    0.44000000    2.91000009
   15.68555546  104.44400024    0.56999999    2.91000009
   15.68888855  111.77100372    0.56999999    2.91000009
   15.69222260  113.22200012    0.56999999    2.89000010
   15.69527817  113.87100220    0.55000001    2.89000010
   15.70805550  106.35500336    0.00000000    0.00000000
   15.70861053  100.41999817    0.50000000    2.91000009
   15.71166611  104.33799744    0.51999998    2.91000009
   15.71500015  109.43499756    0.56999999    2.89000010
   15.71805477  109.11699677    0.56999999    2.89000010
   15.72444439  109.11699677    0.56999999    2.91000009
   15.72861099  110.45300293    0.56999999    2.89000010
   15.73166656  105.07099915    0.55000001    2.89000010
   15.73500061  112.85700226    0.56999999    2.89000010
   15.73833370  105.87999725    0.56999999    2.89000010
   15.74138927  112.79599762    0.55000001    2.91000009
   15.74194431  111.40200043    0.55000001    2.91000009
   15.74499989  110.80799866    0.52999997    2.89000010
   15.74833393  115.06999969    0.51999998    2.89000010
   15.75138855  105.87100220    0.51999998    2.89000010
   15.75472260  111.86699677    0.47999999    2.91000009
   15.75777817  112.47200012    0.46000001    2.91000009
   15.76111126  119.26200104    0.46000001    2.91000009
   15.76722240  119.26200104    0.40000001    2.91000009
   15.77138901  113.03600311    0.38000000    2.91000009
   15.77472210  105.41200256    0.38000000    2.91000009
   15.77527714   99.59020233    0.38000000    2.91000009
   15.77833271  111.80100250    0.44000000    2.91000009
   15.78166676   99.40529633    0.47999999    2.91000009
   15.78472233  100.44100189    0.51999998    2.89000010
   15.78805637  114.44599915    0.52999997    2.91000009
   15.79138947  105.68699646    0.52999997    2.91000009
   15.79444504  101.51999664    0.51999998    2.91000009
   15.79777813  111.15699768    0.51999998    2.89000010
   15.80083370  104.71199799    0.51999998    2.91000009
   15.80416679  106.01799774    0.50000000    2.89000010
   15.81000042  106.01799774    0.50000000    2.91000009
   15.81416702  109.14600372    0.50000000    2.91000009
   15.81750011  108.27500153    0.51999998    2.91000009
   15.82055569  109.06900024    0.55000001    2.91000009
   15.82388878  101.65799713    0.56999999    2.89000010
   15.82722187  111.89499664    0.58999997    2.91000009
   15.83027744  112.09400177    0.58999997    2.91000009
   15.83361053  104.07199860    0.61000001    2.91000009
   15.83694458  104.76999664    0.58999997    2.89000010
   15.84000015  111.93299866    0.61000001    2.91000009
   15.84194374  109.43499756    0.61000001    2.91000009
   15.84361076  104.07900238    0.61000001    2.89000010
   15.84694386  102.38200378    0.55000001    2.89000010
   15.85305595  102.38200378    0.55000001    2.91000009
   15.85722256  105.62899780    0.55000001    2.91000009
   15.86027813  101.92099762    0.56999999    2.91000009
   15.86361122  104.00599670    0.56999999    2.89000010
   15.86666679  110.09400177    0.56999999    2.91000009
   15.86999989  102.63400269    0.52999997    2.89000010
   15.87333393  107.70300293    0.52999997    2.91000009
   15.87527752  112.51200104    0.52999997    2.91000009
   15.87694454  109.12500000    0.52999997    2.89000010
   15.88027763  103.35500336    0.52999997    2.91000009
   15.88361073  106.58999634    0.52999997    2.91000009
   15.88666630   93.90029907    0.51999998    2.91000009
   15.89000034   98.59190369    0.51999998    2.93000007
   15.89583302   98.59190369    0.50000000    2.91000009
   15.89999962  101.53299713    0.50000000    2.91000009
   15.90305519  103.95899963    0.47999999    2.91000009
   15.90638828  106.83399963    0.46000001    2.91000009
   15.90861034  105.69599915    0.44000000    2.91000009
   15.90999985  103.42199707    0.40000001    2.91000009
   15.91333294  108.12899780    0.40000001    2.91000009
   15.91638851  105.64600372    0.40000001    2.91000009
   15.91972256  106.58699799    0.41999999    2.91000009
   15.92277813  100.99600220    0.40000001    2.91000009
   15.92611122   99.37950134    0.40000001    2.91000009
   15.92944431  106.95899963    0.38000000    2.91000009
   15.93249989   97.16699982    0.38000000    2.93000007
   15.93861103   97.16699982    0.40000001    2.91000009
   15.94277763  102.77400208    0.40000001    2.91000009
   15.94611073  110.73200226    0.40000001    2.91000009
   15.94916630  105.93399811    0.40000001    2.91000009
   15.95249939  101.55300140    0.40000001    2.91000009
   15.95555496  105.40000153    0.40000001    2.91000009
   15.95888901  112.50199890    0.44000000    2.91000009
   15.96222210  109.66400146    0.44000000    2.91000009
   15.96555519   99.85759735    0.44000000    2.91000009
   15.96861076  106.34700012    0.47999999    2.91000009
   15.97194386   99.89499664    0.47999999    2.91000009
   15.97499943  101.52899933    0.46000001    2.91000009
   15.97555542  109.68199921    0.46000001    2.91000009
   15.98194408  109.68199921    0.47999999    2.91000009
   15.98611164  101.80899811    0.47999999    2.91000009
   15.98916721  104.25299835    0.47999999    2.91000009
   15.99250031  107.86000061    0.46000001    2.91000009
   15.99583340  100.91100311    0.44000000    2.93000007
   15.99888897   99.90889740    0.44000000    2.91000009
   16.00222206  105.30699921    0.41999999    2.91000009
   16.00555611  100.10299683    0.41999999    2.91000009
   16.00861168  110.56099701    0.44000000    2.91000009
   16.00916672  104.19400024    0.44000000    2.91000009
   16.01250076  106.99800110    0.41999999    2.91000009
   16.01583290  111.58399963    0.40000001    2.91000009
   16.01888847  107.87000275    0.40000001    2.91000009
   16.02444458  107.87000275    0.41999999    2.91000009
   16.02833366  111.29299927    0.40000001    2.91000009
   16.03166580  106.82900238    0.38000000    2.93000007
   16.03499985  108.23400116    0.38000000    2.93000007
   16.03805542  112.05000305    0.40000001    2.91000009
   16.04138756  104.76499939    0.38000000    2.91000009
   16.04249954  101.80500031    0.38000000    2.93000007
   16.04500008  110.57900238    0.38000000    2.93000007
   16.04833221  102.12100220    0.36000001    2.91000009
   16.05138779  106.59999847    0.36000001    2.93000007
   16.05472183   95.01499939    0.34000000    2.91000009
   16.05777740  104.95400238    0.34000000    2.91000009
   16.06110954  109.86499786    0.34000000    2.91000009
   16.06722260  109.86499786    0.36000001    2.91000009
   16.07139015  103.20600128    0.34000000    2.91000009
   16.07444572  104.85399628    0.34000000    2.91000009
   16.07583427  105.18099976    0.34000000    2.91000009
   16.07805634  109.84200287    0.34000000    2.91000009
   16.08139038  112.04599762    0.36000001    2.91000009
   16.08444595   99.21260071    0.34000000    2.93000007
   16.08777809  100.75700378    0.34000000    2.91000009
   16.09083366  107.85199738    0.36000001    2.91000009
   16.09416771   92.84190369    0.38000000    2.91000009
   16.09749985  102.82599640    0.38000000    2.91000009
   16.10055542   98.92729950    0.41999999    2.91000009
   16.10388947  102.86399841    0.41999999    2.93000007
   16.11027908  102.86399841    0.44000000    2.91000009
   16.11416626  103.83699799    0.44000000    2.91000009
   16.11888885  104.41400146    0.44000000    2.91000009
   16.12194443   99.07350159    0.44000000    2.91000009
   16.12527847   99.33589935    0.44000000    2.91000009
   16.12861061   96.46910095    0.44000000    2.91000009
   16.13166618  100.01699829    0.44000000    2.91000009
   16.13500023  100.67500305    0.41999999    2.91000009
   16.13833237  102.61199951    0.41999999    2.91000009
   16.14138794   98.71779633    0.41999999    2.91000009
   16.14249992  105.60399628    0.41999999    2.91000009
   16.14527702  103.53900146    0.41999999    2.91000009
   16.14861107   96.76840210    0.40000001    2.93000007
   16.15277672   96.76840210    0.41999999    2.91000009
   16.15694427   99.11199951    0.41999999    2.91000009
   16.16027832  106.46700287    0.41999999    2.91000009
   16.16333389  111.50000000    0.40000001    2.91000009
   16.16666603  103.59200287    0.40000001    2.91000009
   16.17000008  107.70600128    0.40000001    2.91000009
   16.17305565  107.40299988    0.41999999    2.91000009
   16.17583275  115.51200104    0.40000001    2.91000009
   16.17666626   99.76280212    0.40000001    2.91000009
   16.17972183  100.41699982    0.40000001    2.93000007
   16.18305397  104.11799622    0.38000000    2.91000009
   16.18638802  103.38999939    0.38000000    2.91000009
   16.18944359  100.68900299    0.38000000    2.91000009
   16.19583321  100.68900299    0.38000000    2.93000007
   16.19972038  106.48000336    0.38000000    2.91000009
   16.20305634  106.18399811    0.40000001    2.91000009
   16.20639038   98.22129822    0.41999999    2.91000009
   16.20916748  103.59600067    0.41999999    2.91000009
   16.21000099  108.84200287    0.41999999    2.91000009
   16.21333504  102.26599884    0.41999999    2.91000009
   16.21638870  101.68800354    0.41999999    2.91000009
   16.21972275  108.55599976    0.41999999    2.91000009
   16.22305679   98.57579803    0.41999999    2.93000007
   16.22611237   96.98190308    0.40000001    2.93000007
   16.22944450  102.89399719    0.40000001    2.93000007
   16.23250008   98.41400146    0.41999999    2.93000007
   16.23861122   98.41400146    0.41999999    2.91000009
   16.24277878  107.01899719    0.44000000    2.91000009
   16.24583435  105.32900238    0.44000000    2.91000009
   16.24916649  101.75499725    0.44000000    2.91000009
   16.25250053   98.07610321    0.44000000    2.93000007
   16.25555611   99.18530273    0.46000001    2.91000009
   16.25888824  109.99700165    0.46000001    2.93000007
   16.26222229  104.60399628    0.46000001    2.91000009
   16.26527786  101.51799774    0.46000001    2.91000009
   16.26861000  100.06500244    0.44000000    2.91000009
   16.27166557  105.51300049    0.44000000    2.91000009
   16.27499962  104.28399658    0.44000000    2.91000009
   16.27583313   98.81159973    0.44000000    2.91000009
   16.28166580   98.81159973    0.44000000    2.91000009
   16.28555489  103.16100311    0.44000000    2.91000009
   16.28888893   99.98190308    0.44000000    2.91000009
   16.29222107  102.59999847    0.46000001    2.91000009
   16.29527664  102.12200165    0.46000001    2.91000009
   16.29861069  109.17600250    0.44000000    2.93000007
   16.30194283   97.80419922    0.44000000    2.91000009
   16.30499840  105.57599640    0.44000000    2.91000009
   16.30833244  103.35800171    0.44000000    2.91000009
   16.30916595  102.12899780    0.44000000    2.91000009
   16.31194305   98.79889679    0.44000000    2.91000009
   16.31527710  100.66699982    0.44000000    2.91000009
   16.31833458  103.04199982    0.46000001    2.91000009
   16.32416725  103.04199982    0.46000001    2.91000009
   16.32833481  102.00599670    0.44000000    2.91000009
   16.33166695   98.71340179    0.44000000    2.91000009
   16.33472252   99.93769836    0.44000000    2.91000009
   16.33805656   99.57230377    0.44000000    2.91000009
   16.34138870   99.74880219    0.44000000    2.93000007
   16.34250069  101.66200256    0.44000000    2.91000009
   16.34500122  100.06400299    0.44000000    2.91000009
   16.34833336   98.97360229    0.44000000    2.91000009
   16.35138893  100.99299622    0.44000000    2.91000009
   16.35472298   95.43219757    0.46000001    2.91000009
   16.35777855  103.15899658    0.44000000    2.91000009
   16.36111069  103.52100372    0.44000000    2.91000009
   16.36694527  103.52100372    0.46000001    2.91000009
   16.37111092  102.79900360    0.46000001    2.91000009
   16.37444496   96.10910034    0.44000000    2.91000009
   16.37583351  101.91600037    0.44000000    2.91000009
   16.37805557   97.61470032    0.46000001    2.91000009
   16.38138962  106.92900085    0.46000001    2.91000009
   16.38444519   97.15899658    0.46000001    2.91000009
   16.38777733  100.29399872    0.46000001    2.91000009
   16.39111137  102.79599762    0.46000001    2.91000009
   16.39416695  104.30400085    0.46000001    2.91000009
   16.39749908   99.99269867    0.46000001    2.91000009
   16.40055466  105.15499878    0.44000000    2.93000007
   16.40388870   99.70529938    0.44000000    2.91000009
   16.40999985   99.70529938    0.46000001    2.91000009
   16.41416550   99.86759949    0.47999999    2.91000009
   16.41722107  101.97799683    0.46000001    2.91000009
   16.42055511   94.64099884    0.47999999    2.91000009
   16.42361069  105.31700134    0.47999999    2.91000009
   16.42694473  100.53700256    0.46000001    2.93000007
   16.43027687   99.05539703    0.46000001    2.91000009
   16.43333244   95.88770294    0.46000001    2.91000009
   16.43666649  101.40899658    0.46000001    2.91000009
   16.43999863  102.07599640    0.44000000    2.91000009
   16.44249916  101.69400024    0.44000000    2.91000009
   16.44361115  103.53700256    0.44000000    2.91000009
   16.44694328   97.15679932    0.46000001    2.93000007
   16.45277786   97.15679932    0.46000001    2.91000009
   16.45694542  101.13200378    0.46000001    2.93000007
   16.46000099  102.21199799    0.44000000    2.93000007
   16.46333504  104.14600372    0.41999999    2.93000007
   16.46666718   99.77100372    0.41999999    2.93000007
   16.46972275   96.42150116    0.40000001    2.93000007
   16.47305679  102.37799835    0.40000001    2.93000007
   16.47583389   98.76679993    0.41999999    2.91000009
   16.47666740  106.88300323    0.41999999    2.91000009
   16.48000145   95.43800354    0.41999999    2.93000007
   16.48305511  100.55200195    0.41999999    2.91000009
   16.48638916  106.23400116    0.41999999    2.91000009
   16.48972321  102.66799927    0.40000001    2.93000007
   16.49555588  102.66799927    0.40000001    2.93000007
   16.49972153   96.58360291    0.40000001    2.93000007
   16.50305557  100.75299835    0.41999999    2.93000007
   16.50611115  101.37400055    0.41999999    2.91000009
   16.50916672  103.02100372    0.44000000    2.91000009
   16.50972176   96.29049683    0.41999999    2.91000009
   16.51305580   97.21610260    0.41999999    2.91000009
   16.51611137   94.28869629    0.44000000    2.91000009
   16.51944351   98.76799774    0.41999999    2.93000007
   16.52277756   96.84880066    0.44000000    2.91000009
   16.52583313  101.51200104    0.44000000    2.91000009
   16.52916718   98.26589966    0.44000000    2.91000009
   16.53222275   99.40029907    0.44000000    2.93000007
   16.53833199   99.40029907    0.44000000    2.93000007
   16.54249954  101.64600372    0.44000000    2.93000007
   16.54305458  101.84799957    0.44000000    2.93000007
   16.56277657  104.76499939    0.44000000    2.93000007
   16.56611061  102.51000214    0.44000000    2.93000007
   16.56916809  108.08799744    0.44000000    2.93000007
   16.57250023  110.53199768    0.41999999    2.91000009
   16.57583427  102.68599701    0.41999999    2.93000007
   16.57638931  100.87500000    0.41999999    2.93000007
   16.58139038  100.87500000    0.41999999    2.93000007
   16.58555603   99.17160034    0.41999999    2.91000009
   16.58861160  102.53800201    0.41999999    2.93000007
   16.59194565   89.31390381    0.41999999    2.93000007
   16.59500122   97.53569794    0.41999999    2.93000007
   16.59833336  100.75800323    0.41999999    2.93000007
   16.60166740   97.15899658    0.40000001    2.93000007
   16.60472298   99.22920227    0.41999999    2.91000009
   16.60805511   98.23380280    0.41999999    2.93000007
   16.60972214   97.67790222    0.41999999    2.93000007
   16.61166763   95.13289642    0.41999999    2.93000007
   16.61499977  100.44999695    0.41999999    2.93000007
   16.61833382   99.40419769    0.41999999    2.91000009
   16.62416649   99.40419769    0.41999999    2.93000007
   16.62833405   96.42040253    0.44000000    2.93000007
   16.63166618  100.36699677    0.44000000    2.91000009
   16.63472176   97.18540192    0.46000001    2.93000007
   16.63805580  101.98899841    0.44000000    2.91000009
   16.64111137   98.29550171    0.44000000    2.93000007
   16.64305496   99.90219879    0.44000000    2.93000007
   16.64472198   99.01820374    0.41999999    2.93000007
   16.64805603  100.64600372    0.41999999    2.91000009
   16.65111160   96.58049774    0.41999999    2.91000009
   16.65444374   97.82569885    0.41999999    2.93000007
   16.65777779  102.62500000    0.44000000    2.91000009
   16.66083336  102.11299896    0.46000001    2.93000007
   16.66694450  102.11299896    0.44000000    2.93000007
   16.67111015   94.66560364    0.46000001    2.91000009
   16.67444420  100.35600281    0.46000001    2.91000009
   16.67638779   98.52899933    0.46000001    2.93000007
   16.67805481   97.27909851    0.46000001    2.93000007
   16.68138885   90.87570190    0.46000001    2.93000007
   16.68444443   97.12020111    0.46000001    2.93000007
   16.68777657   93.29530334    0.46000001    2.93000007
   16.69111061  101.93599701    0.46000001    2.93000007
   16.69416618   95.13469696    0.46000001    2.93000007
   16.69749832   96.70359802    0.46000001    2.93000007
   16.70083427   97.67240143    0.46000001    2.93000007
   16.70388985   96.57929993    0.46000001    2.93000007
   16.70972252   96.57929993    0.47999999    2.93000007
   16.71389008   98.23560333    0.47999999    2.93000007
   16.71722221   98.24060059    0.47999999    2.93000007
   16.72055626   97.11840057    0.47999999    2.93000007
   16.72361183   96.40820313    0.47999999    2.91000009
   16.72694588   95.17610168    0.50000000    2.91000009
   16.73027802   99.60399628    0.47999999    2.91000009
   16.73333359   97.63919830    0.47999999    2.93000007
   16.73666763   97.03610229    0.47999999    2.93000007
   16.73972321  100.91100311    0.47999999    2.93000007
   16.74305534   97.97509766    0.47999999    2.93000007
   16.74333382   93.43039703    0.47999999    2.93000007
   16.74666786  101.66100311    0.47999999    2.91000009
   16.75277710  101.66100311    0.46000001    2.93000007
   16.75694466   98.06250000    0.46000001    2.91000009
   16.76000023   96.62590027    0.44000000    2.93000007
   16.76333427   97.50980377    0.44000000    2.93000007
   16.76666641   99.74120331    0.44000000    2.93000007
   16.76972198   98.07409668    0.44000000    2.93000007
   16.77305603  107.08499908    0.41999999    2.93000007
   16.77638817   97.86129761    0.41999999    2.93000007
   16.77666664   97.97799683    0.41999999    2.93000007
   16.78000069  100.32199860    0.40000001    2.93000007
   16.78305435   94.49620056    0.41999999    2.93000007
   16.78638840   96.04239655    0.41999999    2.93000007
   16.78972244   99.13749695    0.41999999    2.93000007
   16.79555511   99.13749695    0.41999999    2.93000007
   16.79972076   94.30799866    0.41999999    2.93000007
   16.80277634   96.89279938    0.41999999    2.93000007
   16.80611038   96.18139648    0.44000000    2.91000009
   16.80944443   97.79689789    0.44000000    2.93000007
   16.80999947  104.90200043    0.44000000    2.93000007
   16.81305504   96.34529877    0.44000000    2.91000009
   16.81638718   96.98439789    0.44000000    2.91000009
   16.81972313   93.77709961    0.44000000    2.93000007
   16.82277870  100.73400116    0.44000000    2.93000007
   16.82611275  111.29599762    0.44000000    2.93000007
   16.82944489   90.22879791    0.41999999    2.93000007
   16.83250046   98.21289825    0.44000000    2.93000007
   16.83833313   98.21289825    0.44000000    2.93000007
   16.84250069   99.84310150    0.44000000    2.93000007
   16.84333420  102.27200317    0.44000000    2.93000007
   16.84611130   97.61039734    0.44000000    2.93000007
   16.84944534   98.18579865    0.41999999    2.93000007
   16.85277748   99.96859741    0.41999999    2.93000007
   16.85583305   91.04039764    0.41999999    2.93000007
   16.85916710   98.09529877    0.41999999    2.93000007
   16.86222267   99.08779907    0.41999999    2.93000007
   16.86555672   94.36190033    0.41999999    2.93000007
   16.86888885   95.06839752    0.41999999    2.93000007
   16.87194443   96.94200134    0.44000000    2.93000007
   16.87527847   99.79190063    0.41999999    2.93000007
   16.87666702   98.51760101    0.41999999    2.93000007
   16.88111115   98.51760101    0.41999999    2.93000007
   16.88527679   90.42810059    0.41999999    2.93000007
   16.88861084   92.72920227    0.44000000    2.91000009
   16.89194489   94.31849670    0.41999999    2.93000007
   16.89500046   95.78829956    0.41999999    2.94000006
   16.89833260  102.01599884    0.41999999    2.94000006
   16.90138817   97.05829620    0.44000000    2.91000009
   16.90472221   96.98819733    0.41999999    2.93000007
   16.90805435   94.33650208    0.44000000    2.93000007
   16.90999985   89.88960266    0.44000000    2.93000007
   16.91138840   99.06809998    0.44000000    2.93000007
   16.91472244   96.06639862    0.44000000    2.93000007
   16.91805458  104.22299957    0.46000001    2.93000007
   16.92416573  104.22299957    0.44000000    2.93000007
   16.92833328  101.66300201    0.46000001    2.93000007
   16.93138885   99.20240021    0.44000000    2.93000007
   16.93472099   99.37059784    0.41999999    2.93000007
   16.93777657   97.33750153    0.41999999    2.93000007
   16.94111061   99.75289917    0.44000000    2.93000007
   16.94333267  101.22200012    0.41999999    2.93000007
   16.94472122   96.51139832    0.41999999    2.93000007
   16.94805527   99.88909912    0.41999999    2.93000007
   16.95138931   96.57450104    0.41999999    2.93000007
   16.95444489   94.06400299    0.40000001    2.93000007
   16.95777893   95.77980042    0.40000001    2.93000007
   16.96083450   94.73320007    0.40000001    2.93000007
   16.96694565   94.73320007    0.40000001    2.93000007
   16.97111130   94.31680298    0.40000001    2.94000006
   16.97416687   97.22519684    0.40000001    2.93000007
   16.97666740   92.02300262    0.40000001    2.93000007
   16.97777748   92.96040344    0.40000001    2.93000007
   16.98111153   91.24250031    0.40000001    2.93000007
   16.98444557   96.23090363    0.40000001    2.91000009
   16.98750114   92.53520203    0.40000001    2.93000007
   16.99083328   93.71769714    0.40000001    2.93000007
   16.99416733  101.75000000    0.40000001    2.93000007
   16.99722290   89.74169922    0.40000001    2.94000006
   17.00055504   95.83149719    0.40000001    2.93000007
   17.00361061  101.53299713    0.40000001    2.93000007
   17.01000023  101.53299713    0.38000000    2.93000007
   17.01416588  101.24500275    0.40000001    2.93000007
   17.01722145   92.62999725    0.40000001    2.93000007
   17.02055550   97.61000061    0.40000001    2.93000007
   17.02388954   99.32869720    0.38000000    2.93000007
   17.02694511  104.97599792    0.38000000    2.93000007
   17.03027725  105.96299744    0.36000001    2.93000007
   17.03361130  104.05500031    0.38000000    2.93000007
   17.03666687   97.98770142    0.38000000    2.93000007
   17.03999901  101.58999634    0.38000000    2.94000006
   17.04305458   94.65180206    0.38000000    2.94000006
   17.04500008  103.80200195    0.38000000    2.94000006
   17.04694366   94.12000275    0.38000000    2.94000006
   17.05249977   94.12000275    0.38000000    2.93000007
   17.05666542   94.17859650    0.38000000    2.93000007
   17.05999947   97.87490082    0.38000000    2.93000007
   17.06333351  100.94699860    0.38000000    2.94000006
   17.06638718  104.49299622    0.40000001    2.93000007
   17.06972313   99.49669647    0.41999999    2.93000007
   17.07305717   94.10900116    0.40000001    2.93000007
   17.07611275  101.52999878    0.40000001    2.94000006
   17.07833481  102.59100342    0.41999999    2.93000007
   17.08000183   94.12740326    0.41999999    2.93000007
   17.08305550   96.87609863    0.41999999    2.93000007
   17.08638954  103.10099792    0.41999999    2.93000007
   17.08972359   97.64630127    0.41999999    2.93000007
   17.09555626   97.64630127    0.41999999    2.93000007
   17.09972191   91.93579865    0.41999999    2.93000007
   17.10277748   91.76589966    0.41999999    2.93000007
   17.10611153   96.13690186    0.41999999    2.93000007
   17.10916710   98.90309906    0.41999999    2.93000007
   17.11166763  101.53500366    0.41999999    2.93000007
   17.11305618   98.54599762    0.41999999    2.94000006
   17.11611176  141.91299438    0.41999999    2.94000006
   17.12000084   96.59670258    0.41999999    2.93000007
   17.12305641   96.62020111    0.41999999    2.93000007
   17.12638855  103.53500366    0.41999999    2.93000007
   17.12972260  102.09300232    0.41999999    2.93000007
   17.13277817   98.04969788    0.41999999    2.93000007
   17.13833237   98.04969788    0.41999999    2.93000007
   17.14249992  103.31500244    0.41999999    2.93000007
   17.14500046  101.83000183    0.41999999    2.94000006
   17.14611053   99.56649780    0.41999999    2.94000006
   17.14916611  103.51499939    0.41999999    2.93000007
   17.15250015   96.42030334    0.41999999    2.93000007
   17.15583229   99.53510284    0.41999999    2.93000007
   17.15888786   99.61710358    0.41999999    2.93000007
   17.16222191   98.49120331    0.41999999    2.93000007
   17.16555595   99.53669739    0.41999999    2.94000006
   17.16860962  102.13700104    0.41999999    2.93000007
   17.17194366  100.94999695    0.41999999    2.93000007
   17.17527771   97.64360046    0.41999999    2.93000007
   17.18111038   97.64360046    0.44000000    2.93000007
   17.18555450   96.49890137    0.41999999    2.94000006
   17.18888855  101.91500092    0.44000000    2.93000007
   17.19194412  100.23600006    0.41999999    2.93000007
   17.19527626   99.38739777    0.46000001    2.93000007
   17.19861031   99.10430145    0.46000001    2.93000007
   17.20166779   97.79280090    0.46000001    2.93000007
   17.20499992  101.93699646    0.46000001    2.93000007
   17.20833397  100.06099701    0.47999999    2.93000007
   17.21138954   95.79669952    0.46000001    2.93000007
   17.21194458  105.63200378    0.46000001    2.93000007
   17.21500015   98.04190063    0.46000001    2.93000007
   17.21833420  101.46900177    0.46000001    2.93000007
   17.22389030  101.46900177    0.46000001    2.93000007
   17.22805595  100.50900269    0.46000001    2.93000007
   17.23139000  103.68800354    0.46000001    2.93000007
   17.23472214   99.38279724    0.46000001    2.93000007
   17.23777771  109.67199707    0.47999999    2.93000007
   17.24111176  107.79900360    0.47999999    2.93000007
   17.24416733  101.78500366    0.46000001    2.93000007
   17.24527740  101.05799866    0.46000001    2.93000007
   17.24805641  103.90499878    0.47999999    2.93000007
   17.25138855  104.54000092    0.46000001    2.93000007
   17.25444412  100.76300049    0.46000001    2.93000007
   17.25777817   98.23770142    0.46000001    2.93000007
   17.26111031  104.86900330    0.46000001    2.93000007
   17.26694489  104.86900330    0.46000001    2.93000007
   17.27083397  100.94300079    0.46000001    2.93000007
   17.27416611   96.77709961    0.47999999    2.93000007
   17.27750015   99.24130249    0.46000001    2.93000007
   17.27888870  102.15799713    0.47999999    2.93000007
   17.28111076   98.30220032    0.46000001    2.93000007
   17.28416634  103.76200104    0.47999999    2.93000007
   17.28750038   99.07440186    0.47999999    2.93000007
   17.29083252  109.62100220    0.47999999    2.93000007
   17.29388809   99.56040192    0.47999999    2.94000006
   17.29722214   98.80889893    0.47999999    2.94000006
   17.30027771   97.70739746    0.47999999    2.93000007
   17.30360985   95.66500092    0.47999999    2.93000007
   17.30972099   95.66500092    0.47999999    2.93000007
   17.31388855  100.98699951    0.47999999    2.91000009
   17.31722260  103.21499634    0.47999999    2.93000007
   17.32027817  100.59600067    0.47999999    2.93000007
   17.32361221  105.87799835    0.47999999    2.93000007
   17.32666779  101.84999847    0.47999999    2.93000007
   17.33000183   96.22989655    0.47999999    2.93000007
   17.33333397   98.02059937    0.47999999    2.93000007
   17.33666801  101.77899933    0.47999999    2.93000007
   17.33972359  100.33599854    0.47999999    2.93000007
   17.34305573   95.68240356    0.47999999    2.93000007
   17.34555626   99.64810181    0.47999999    2.91000009
   17.34666824  102.53600311    0.47999999    2.91000009
   17.35250092  102.53600311    0.47999999    2.93000007
   17.35666656   99.59970093    0.47999999    2.93000007
   17.36000061  100.42099762    0.50000000    2.93000007
   17.36305618  101.50599670    0.50000000    2.93000007
   17.36638832   96.44930267    0.51999998    2.93000007
   17.36944389  101.52200317    0.50000000    2.93000007
   17.37277794  104.00900269    0.50000000    2.93000007
   17.37611198  101.91000366    0.50000000    2.93000007
   17.37888908   98.42970276    0.50000000    2.93000007
   17.37972260  108.28099823    0.50000000    2.93000007
   17.38277817  104.19400024    0.51999998    2.91000009
   17.38611031   99.97250366    0.51999998    2.93000007
   17.38944435   97.62590027    0.55000001    2.93000007
   17.39527702   97.62590027    0.52999997    2.93000007
   17.39944458  101.44400024    0.55000001    2.93000007
   17.40277672  100.30999756    0.52999997    2.93000007
   17.40583229   97.79830170    0.52999997    2.93000007
   17.40916634   95.47899628    0.52999997    2.93000007
   17.41222191   95.16239929    0.55000001    2.91000009
   17.41277695   94.10579681    0.52999997    2.93000007
   17.41583252  100.10900116    0.52999997    2.91000009
   17.41916656   97.37909698    0.52999997    2.91000009
   17.42249870   95.54090118    0.52999997    2.91000009
   17.42555428   98.71569824    0.51999998    2.93000007
   17.42888832   95.96800232    0.51999998    2.93000007
   17.43222237   96.67420197    0.52999997    2.93000007
   17.43833160   96.67420197    0.52999997    2.93000007
   17.44222069  102.21600342    0.52999997    2.93000007
   17.44555473  100.28900146    0.52999997    2.94000006
   17.44610977   99.36360168    0.52999997    2.94000006
   17.44916534  106.70999908    0.52999997    2.91000009
   17.45250130  102.85600281    0.52999997    2.93000007
   17.45583344  102.20500183    0.52999997    2.93000007
   17.45888901   97.97260284    0.52999997    2.91000009
   17.46222305   98.77790070    0.52999997    2.91000009
   17.46555710  100.36199951    0.51999998    2.93000007
   17.46861076   97.33609772    0.51999998    2.93000007
   17.47194481   94.84889984    0.51999998    2.93000007
   17.47527885   95.20469666    0.51999998    2.93000007
   17.48111153   95.20469666    0.52999997    2.93000007
   17.48527718   99.61299896    0.51999998    2.94000006
   17.48833275  100.69899750    0.51999998    2.93000007
   17.49166679  102.64900208    0.51999998    2.93000007
   17.49500084   95.47350311    0.51999998    2.93000007
   17.49805641   99.30390167    0.52999997    2.93000007
   17.50138855   99.20410156    0.51999998    2.93000007
   17.50444412   99.63289642    0.51999998    2.93000007
   17.50777817   95.53540039    0.51999998    2.93000007
   17.51111031   97.51419830    0.52999997    2.93000007
   17.51222229  104.05300140    0.52999997    2.93000007
   17.51472282   98.92330170    0.52999997    2.93000007
   17.51777840   93.68820190    0.51999998    2.93000007
   17.52388954   93.68820190    0.52999997    2.93000007
   17.52805519   93.14099884    0.52999997    2.91000009
   17.53138924   93.58540344    0.51999998    2.93000007
   17.53444481  100.58499908    0.51999998    2.93000007
   17.53777695  104.30000305    0.55000001    2.93000007
   17.54111099  101.76699829    0.52999997    2.91000009
   17.54416656   98.70919800    0.51999998    2.93000007
   17.54555511  100.18900299    0.51999998    2.93000007
   17.54777718   99.00219727    0.51999998    2.94000006
   17.55111122   99.13500214    0.51999998    2.94000006
   17.55444336   96.69509888    0.51999998    2.94000006
   17.55749893   98.00060272    0.47999999    2.91000009
   17.56083298   96.86820221    0.50000000    2.93000007
   17.58250046   96.86820221    0.51999998    2.93000007
   17.58666801  101.94599915    0.52999997    2.93000007
   17.58972359  102.23799896    0.51999998    2.93000007
   17.59305573   98.83750153    0.51999998    2.93000007
   17.59638977   99.29730225    0.51999998    2.93000007
   17.59944534  100.27999878    0.51999998    2.91000009
   17.60277748  104.91899872    0.52999997    2.93000007
   17.60611153   99.30419922    0.52999997    2.93000007
   17.60916710   94.54560089    0.52999997    2.93000007
   17.61250114   99.03919983    0.52999997    2.93000007
   17.61333466  107.29900360    0.52999997    2.93000007
   17.61611176  103.10700226    0.52999997    2.93000007
   17.61944389  100.42099762    0.52999997    2.91000009
   17.62527847  100.42099762    0.52999997    2.93000007
   17.62944412   95.83219910    0.55000001    2.93000007
   17.63249969   99.58809662    0.52999997    2.93000007
   17.63583374   98.40509796    0.52999997    2.93000007
   17.63888931   97.87030029    0.52999997    2.93000007
   17.64222145   95.10890198    0.52999997    2.93000007
   17.64555550  103.76699829    0.55000001    2.91000009
   17.64666748   96.92680359    0.55000001    2.93000007
   17.64888954   99.46469879    0.55000001    2.93000007
   17.65222168  104.52999878    0.55000001    2.93000007
   17.65555573   95.29019928    0.55000001    2.93000007
   17.65861130  103.31199646    0.55000001    2.93000007
   17.66194344   97.13169861    0.55000001    2.93000007
   17.66805458   97.13169861    0.56999999    2.93000007
   17.67222214  101.08899689    0.56999999    2.93000007
   17.67555428  101.91699982    0.56999999    2.91000009
   17.67860985   99.66570282    0.56999999    2.93000007
   17.68000031   95.48500061    0.56999999    2.93000007
   17.68222237   97.05770111    0.56999999    2.93000007
   17.68555450   99.10209656    0.58999997    2.93000007
   17.68861008   98.01950073    0.58999997    2.93000007
   17.69194412   98.83820343    0.58999997    2.93000007
   17.69527626   94.77059937    0.61000001    2.93000007
   17.69833183   96.66300201    0.63000000    2.93000007
   17.70166779   93.09089661    0.63000000    2.93000007
   17.70499992   94.43150330    0.61000001    2.93000007
   17.71083450   94.43150330    0.58999997    2.93000007
   17.71500015   87.11879730    0.58999997    2.93000007
   17.71833420   94.65019989    0.58999997    2.91000009
   17.72138977   94.17700195    0.58999997    2.93000007
   17.72472191   92.79309845    0.58999997    2.93000007
   17.72805595   93.30999756    0.58999997    2.93000007
   17.73111153   94.35620117    0.58999997    2.93000007
   17.73444557   96.91950226    0.58999997    2.93000007
   17.73777771   91.92389679    0.58999997    2.93000007
   17.74083328   95.54280090    0.58999997    2.93000007
   17.74416733   95.62599945    0.58999997    2.93000007
   17.74666786   93.71549988    0.58999997    2.93000007
   17.74777794   96.11730194    0.58999997    2.93000007
   17.75361061   96.11730194    0.58999997    2.93000007
   17.75777817   99.94229889    0.58999997    2.91000009
   17.76111031   96.37139893    0.58999997    2.91000009
   17.76416588  101.45999908    0.58999997    2.93000007
   17.76749992   94.28079987    0.58999997    2.93000007
   17.77083397   95.22049713    0.58999997    2.93000007
   17.77416611   96.61710358    0.56999999    2.91000009
   17.77722168   97.15660095    0.58999997    2.93000007
   17.78000069   95.18350220    0.61000001    2.93000007
   17.78083229   95.59919739    0.61000001    2.93000007
   17.78416634   95.11049652    0.61000001    2.93000007
   17.78722191   95.49520111    0.61000001    2.93000007
   17.79055595   94.91480255    0.61000001    2.93000007
   17.79666710   94.91480255    0.63000000    2.93000007
   17.80055428   98.67970276    0.69000000    2.91000009
   17.80388832   96.42510223    0.69000000    2.91000009
   17.80722237   93.37950134    0.69000000    2.93000007
   17.81027794   92.72540283    0.64999998    2.91000009
   17.81333351   92.23889923    0.64999998    2.93000007
   17.81388855   90.71859741    0.64999998    2.93000007
   17.81722260   91.02130127    0.67000002    2.93000007
   17.82027817   97.77999878    0.67000002    2.91000009
   17.82361221   93.37640381    0.64999998    2.93000007
   17.82694626   90.65290070    0.64999998    2.91000009
   17.83027840   93.38809967    0.64999998    2.93000007
   17.83333397   92.53579712    0.64999998    2.93000007
   17.83944511   92.53579712    0.64999998    2.91000009
   17.84361267   95.24410248    0.64999998    2.93000007
   17.84694481   93.59980011    0.67000002    2.93000007
   17.84722328   91.38569641    0.67000002    2.93000007
   17.85055542   91.80280304    0.67000002    2.93000007
   17.85361099   89.55799866    0.67000002    2.93000007
   17.85694504   96.07559967    0.67000002    2.94000006
   17.86027908   90.22820282    0.67000002    2.91000009
   17.86333466   94.86070251    0.67000002    2.91000009
   17.86666679   92.45510101    0.67000002    2.93000007
   17.87027740   96.03050232    0.67000002    2.91000009
   17.87361145   93.55609894    0.67000002    2.91000009
   17.87666702   94.18530273    0.67000002    2.93000007
   17.88222313   94.18530273    0.69000000    2.91000009
   17.88638878   89.39029694    0.67000002    2.93000007
   17.88972282   96.26360321    0.67000002    2.93000007
   17.89277840   91.53330231    0.69000000    2.91000009
   17.89611053   94.62689972    0.69000000    2.93000007
   17.89916611   93.01360321    0.67000002    2.93000007
   17.90250015   92.01940155    0.69000000    2.93000007
   17.90583229   94.61219788    0.67000002    2.91000009
   17.90888786   98.33799744    0.67000002    2.91000009
   17.91222191   93.34619904    0.67000002    2.91000009
   17.91361046   92.58910370    0.67000002    2.91000009
   17.91583252   88.34660339    0.67000002    2.93000007
   17.91916656  101.16600037    0.67000002    2.93000007
   17.92499924  101.16600037    0.67000002    2.93000007
   17.92916679   93.35530090    0.67000002    2.93000007
   17.93249893   91.20549774    0.67000002    2.93000007
   17.93583298   99.55699921    0.67000002    2.93000007
   17.93888855   88.21379852    0.67000002    2.93000007
   17.94222069   91.96900177    0.64999998    2.91000009
   17.94527626   94.38680267    0.64999998    2.91000009
   17.94694328   99.13970184    0.67000002    2.91000009
   17.94888878   97.19570160    0.67000002    2.91000009
   17.95222282   95.29380035    0.64999998    2.91000009
   17.95555687   92.68740082    0.63000000    2.93000007
   17.95861244   89.49800110    0.64999998    2.93000007
   17.96194458   97.68450165    0.63000000    2.91000009
   17.96805573   97.68450165    0.63000000    2.93000007
   17.97222328   92.25070190    0.63000000    2.93000007
   17.97527885   97.49120331    0.63000000    2.93000007
   17.97861099   89.90609741    0.63000000    2.93000007
   17.98027802   93.92230225    0.63000000    2.93000007
   17.98222351   92.41560364    0.63000000    2.93000007
   17.98555565   90.91880035    0.63000000    2.91000009
   17.98861122   92.50900269    0.63000000    2.91000009
   17.99194527   93.92510223    0.63000000    2.91000009
   17.99527740   92.20770264    0.63000000    2.93000007
   17.99833298   92.90239716    0.63000000    2.93000007
   18.00166702   93.13089752    0.63000000    2.91000009
   18.00472260   93.56089783    0.63000000    2.93000007
   18.01083374   93.56089783    0.63000000    2.91000009
   18.01499939  100.23899841    0.63000000    2.91000009
   18.01805496   97.84089661    0.63000000    2.91000009
   18.02138901   94.62300110    0.63000000    2.93000007
   18.02472115   94.85590363    0.64999998    2.93000007
   18.02777672   90.24099731    0.64999998    2.93000007
   18.03111076  102.96900177    0.64999998    2.93000007
   18.03444481   92.13610077    0.64999998    2.91000009
   18.03750038  101.38800049    0.67000002    2.93000007
   18.04083252   94.25720215    0.67000002    2.91000009
   18.04388809   92.63780212    0.67000002    2.93000007
   18.04694366   99.01149750    0.67000002    2.89000010
   18.04777718   96.58550262    0.67000002    2.89000010
   18.05360985   96.58550262    0.69000000    2.91000009
   18.05777740   95.64869690    0.67000002    2.91000009
   18.06110954   97.75299835    0.67000002    2.93000007
   18.06416512   95.74440002    0.67000002    2.93000007
   18.06750107   91.75779724    0.67000002    2.91000009
   18.07083511   97.40429688    0.67000002    2.91000009
   18.07389069  100.12899780    0.67000002    2.93000007
   18.07722282  102.00099945    0.67000002    2.91000009
   18.08027840   97.24680328    0.67000002    2.91000009
   18.08083344   96.12799835    0.64999998    2.93000007
   18.08416748   97.08439636    0.64999998    2.93000007
   18.08722305   98.34909821    0.64999998    2.91000009
   18.09055710   94.49330139    0.63000000    2.93000007
   18.09638977   94.49330139    0.63000000    2.93000007
   18.10055542   97.77420044    0.63000000    2.91000009
   18.10388947   94.45929718    0.63000000    2.93000007
   18.10722351   96.39630127    0.63000000    2.91000009
   18.11027908   97.54689789    0.63000000    2.91000009
   18.11361122  100.01899719    0.63000000    2.93000007
   18.11416626   95.69879913    0.63000000    2.93000007
   18.12583351  100.91000366    0.00000000    0.00000000
   18.12916756   92.44670105    0.63000000    2.91000009
   18.13222313   97.01629639    0.64999998    2.91000009
   18.13555527  107.30000305    0.63000000    2.93000007
   18.13972282  107.30000305    0.64999998    2.91000009
   18.14388847  100.93299866    0.64999998    2.93000007
   18.14694405   95.88500214    0.63000000    2.93000007
   18.14749908   98.07299805    0.64999998    2.91000009
   18.15055466  102.42600250    0.64999998    2.91000009
   18.15388870  102.95700073    0.64999998    2.91000009
   18.15694427   96.52040100    0.64999998    2.91000009
   18.16027832   95.55020142    0.64999998    2.91000009
   18.16416550   95.60310364    0.64999998    2.93000007
   18.16749954   99.56980133    0.64999998    2.91000009
   18.17083359   95.31620026    0.64999998    2.93000007
   18.17388916   99.06479645    0.64999998    2.93000007
   18.17722130   95.11530304    0.64999998    2.93000007
   18.18249893   95.11530304    0.64999998    2.91000009
   18.18666649   98.08869934    0.67000002    2.93000007
   18.18999863   95.59529877    0.64999998    2.91000009
   18.19305420   91.77799988    0.64999998    2.91000009
   18.19638824   98.57270050    0.67000002    2.93000007
   18.19972038   93.68489838    0.67000002    2.93000007
   18.20277786   96.35759735    0.67000002    2.91000009
   18.20611191   97.09020233    0.69000000    2.91000009
   18.20916748  102.55999756    0.69000000    2.91000009
   18.21250153   96.49379730    0.69000000    2.91000009
   18.21416664   95.56300354    0.69000000    2.91000009
   18.21611214   96.49759674    0.69000000    2.91000009
   18.21944427  101.37200165    0.69000000    2.91000009
   18.22527885  101.37200165    0.73000002    2.91000009
   18.22944450   98.41609955    0.73000002    2.91000009
   18.23277855   97.14669800    0.73000002    2.91000009
   18.23583412   95.85140228    0.73000002    2.91000009
   18.23916626  103.02200317    0.70999998    2.91000009
   18.24250031   98.55809784    0.73000002    2.93000007
   18.24555588   97.64589691    0.75000000    2.91000009
   18.24749947   98.92569733    0.75000000    2.91000009
   18.24916649   91.16169739    0.75000000    2.91000009
   18.25222206  101.98699951    0.75000000    2.91000009
   18.25555611   95.89830017    0.79000002    2.91000009
   18.25888824  100.23500061    0.79000002    2.91000009
   18.26194382   93.23690033    0.79000002    2.93000007
   18.26833344   93.23690033    0.79000002    2.91000009
   18.27222252   93.48179626    0.76999998    2.91000009
   18.27555466   95.10769653    0.76999998    2.91000009
   18.27888870   92.94480133    0.76999998    2.93000007
   18.28083229   97.53089905    0.76999998    2.93000007
   18.28249931   94.81670380    0.76999998    2.93000007
   18.28583336   90.27069855    0.79000002    2.93000007
   18.28888893   94.73359680    0.79000002    2.93000007
   18.29222107   94.38760376    0.79000002    2.91000009
   18.29527664   98.51979828    0.79000002    2.91000009
   18.29861069   91.90190125    0.79000002    2.93000007
   18.30194283   90.89749908    0.80000001    2.91000009
   18.30499840   93.94979858    0.80000001    2.91000009
   18.31110954   93.94979858    0.80000001    2.89000010
   18.31527710  105.07499695    0.81999999    2.91000009
   18.31833458   93.95909882    0.81999999    2.91000009
   18.32166672   98.90299988    0.81999999    2.91000009
   18.32500076   94.84639740    0.81999999    2.91000009
   18.32805634   91.35859680    0.81999999    2.91000009
   18.33139038   92.23570251    0.81999999    2.91000009
   18.33472252  101.93900299    0.83999997    2.91000009
   18.33777809   95.56199646    0.83999997    2.91000009
   18.34111214   98.70140076    0.83999997    2.91000009
   18.34416771   98.35330200    0.83999997    2.93000007
   18.34749985   97.86470032    0.86000001    2.91000009
   18.34805679   97.07610321    0.86000001    2.91000009
   18.35388947   97.07610321    0.89999998    2.89000010
   18.35805511   98.66690063    0.89999998    2.91000009
   18.36111069   97.74079895    0.89999998    2.91000009
   18.36444473   97.58000183    0.89999998    2.91000009
   18.36777878   92.66429901    0.86000001    2.91000009
   18.37083435   90.25109863    0.86000001    2.91000009
   18.37416649   94.70300293    0.86000001    2.91000009
   18.37750053   94.93150330    0.86000001    2.91000009
   18.38055611   97.00430298    0.83999997    2.91000009
   18.38111115   94.04119873    0.83999997    2.91000009
   18.38444519   95.91909790    0.81999999    2.89000010
   18.38750076   91.91249847    0.83999997    2.91000009
   18.39083290   96.30729675    0.81999999    2.91000009
   18.39666748   96.30729675    0.81999999    2.91000009
   18.40083313   92.88279724    0.83999997    2.89000010
   18.40416718   94.27709961    0.81999999    2.91000009
   18.40722275   93.81770325    0.81999999    2.89000010
   18.41055489  101.28199768    0.81999999    2.91000009
   18.41388893  102.84200287    0.81999999    2.91000009
   18.41444397   94.27870178    0.81999999    2.91000009
   18.41749954   93.37719727    0.81999999    2.91000009
   18.42055511  103.21399689    0.83999997    2.91000009
   18.42388916   92.04180145    0.83999997    2.91000009
   18.42722130   99.61119843    0.81999999    2.91000009
   18.43027687   92.83640289    0.81999999    2.91000009
   18.43361092   95.61399841    0.81999999    2.91000009
   18.43972206   95.61399841    0.83999997    2.91000009
   18.44388771   98.52169800    0.86000001    2.91000009
   18.44694328   95.25550079    0.83999997    2.91000009
   18.44777679   93.77809906    0.83999997    2.91000009
   18.45055580   93.18329620    0.83999997    2.89000010
   18.45361137  100.83000183    0.83999997    2.89000010
   18.45694542   93.37270355    0.83999997    2.91000009
   18.46027946   99.37210083    0.83999997    2.89000010
   18.46333504   98.33750153    0.86000001    2.91000009
   18.46666718   99.28330231    0.83999997    2.89000010
   18.47000122   99.22949982    0.92000002    2.91000009
   18.47305679   97.52780151    0.94000000    2.91000009
   18.47638893   93.63999939    0.95999998    2.91000009
   18.48250008   93.63999939    1.00000000    2.91000009
   18.48666763   98.63330078    0.98000002    2.91000009
   18.48972321   98.29669952    0.94000000    2.91000009
   18.49305534   92.94869995    0.92000002    2.91000009
   18.49638939  105.04699707    0.89999998    2.91000009
   18.49944496   95.62870026    0.88000000    2.91000009
   18.50277710   98.95870209    0.88000000    2.91000009
   18.50583267   94.99240112    0.88000000    2.89000010
   18.50916672   97.32180023    0.86000001    2.89000010
   18.51250076  101.06700134    0.86000001    2.91000009
   18.51444435   96.66790009    0.86000001    2.91000009
   18.51611137   95.96939850    0.86000001    2.91000009
   18.51944351   94.23220062    0.86000001    2.91000009
   18.52527809   94.23220062    0.86000001    2.91000009
   18.52944374   95.37280273    0.88000000    2.89000010
   18.53249931   96.71450043    0.88000000    2.91000009
   18.53583336   98.35549927    0.88000000    2.89000010
   18.53916550   97.73419952    0.88000000    2.89000010
   18.54222107  100.20500183    0.88000000    2.89000010
   18.54555511   94.00460052    0.88000000    2.91000009
   18.54777718   89.31230164    0.88000000    2.91000009
   18.54916573   94.80210114    0.88000000    2.91000009
   18.55249977   92.18430328    0.88000000    2.91000009
   18.55555534   92.79840088    0.88000000    2.89000010
   18.55888748   97.03990173    0.88000000    2.91000009
   18.56194305   93.40740204    0.88000000    2.91000009
   18.56805611   93.40740204    0.88000000    2.91000009
   18.57222366   92.20839691    0.88000000    2.91000009
   18.57555580   98.49050140    0.88000000    2.91000009
   18.57861137   94.79889679    0.88000000    2.91000009
   18.59722328   94.11699677    0.88000000    2.89000010
   18.59861183   93.46459961    0.88000000    2.89000010
   18.60166740   95.06099701    0.88000000    2.89000010
   18.60499954  100.33000183    0.88000000    2.89000010
   18.61111069  100.33000183    0.88000000    2.89000010
   18.61527824   94.75859833    0.88000000    2.89000010
   18.61861038   92.97850037    0.88000000    2.89000010
   18.62194443   91.89170074    0.88000000    2.89000010
   18.62500000   95.41089630    0.88000000    2.89000010
   18.62833405   92.16269684    0.88000000    2.89000010
   18.63055611   92.81079865    0.88000000    2.89000010
   18.63194466   97.50820160    0.88000000    2.89000010
   18.63527679   89.81900024    0.88000000    2.89000010
   18.63861084   92.79460144    0.88000000    2.89000010
   18.64166641   93.35279846    0.88000000    2.89000010
   18.64500046   92.07630157    0.88000000    2.89000010
   18.64833260   91.67109680    0.88000000    2.91000009
   18.65416718   91.67109680    0.86000001    2.89000010
   18.65833282   95.58910370    0.86000001    2.89000010
   18.66138840   97.88150024    0.86000001    2.89000010
   18.66388893   91.34850311    0.86000001    2.89000010
   18.66499901   95.84929657    0.86000001    2.89000010
   18.66833305   92.44229889    0.86000001    2.89000010
   18.67166519   93.29859924    0.86000001    2.89000010
   18.67472076   94.34249878    0.86000001    2.89000010
   18.67805481   91.12770081    0.86000001    2.91000009
   18.68138885   95.88249969    0.86000001    2.91000009
   18.68444443   92.79409790    0.86000001    2.91000009
   18.68777657   92.90630341    0.86000001    2.89000010
   18.69083214   94.61100006    0.88000000    2.89000010
   18.69694328   94.61100006    0.86000001    2.89000010
   18.70111275   93.85050201    0.86000001    2.89000010
   18.70444489   93.19709778    0.86000001    2.89000010
   18.70777893   93.69159698    0.86000001    2.89000010
   18.71083450   90.83480072    0.86000001    2.89000010
   18.71416664   98.14129639    0.86000001    2.89000010
   18.72722244   90.77429962    0.00000000    0.00000000
   18.73027802   94.55290222    0.88000000    2.89000010
   18.73194504   93.58630371    0.88000000    2.89000010
   18.73416710   94.74330139    0.88000000    2.89000010
   18.73972321   94.74330139    0.89999998    2.91000009
   18.74388885   90.98889923    0.89999998    2.91000009
   18.74722290   95.42939758    0.88000000    2.89000010
   18.75027847   96.39170074    0.88000000    2.89000010
   18.75361061   95.42890167    0.89999998    2.89000010
   18.75694466   96.74400330    0.88000000    2.89000010
   18.76000023   94.21240234    0.88000000    2.89000010
   18.76333427   91.78130341    0.88000000    2.91000009
   18.76527786   96.05539703    0.86000001    2.91000009
   18.76694489   94.13200378    0.86000001    2.91000009
   18.77027702   93.74400330    0.86000001    2.89000010
   18.77333260   98.85379791    0.88000000    2.89000010
   18.77666664   91.41349792    0.88000000    2.89000010
   18.78249931   91.41349792    0.88000000    2.91000009
   18.78694344   94.09639740    0.86000001    2.89000010
   18.79027748   94.03649902    0.86000001    2.89000010
   18.79333305   90.86209869    0.86000001    2.89000010
   18.79666710   94.59269714    0.88000000    2.89000010
   18.79888916   97.87709808    0.88000000    2.89000010
   18.80027771   93.11160278    0.88000000    2.89000010
   18.80333328   94.13459778    0.88000000    2.91000009
   18.80666542   91.15329742    0.88000000    2.91000009
   18.80972099   93.43209839    0.88000000    2.89000010
   18.81305504   93.70639801    0.88000000    2.89000010
   18.81638718   95.02030182    0.88000000    2.91000009
   18.81944466   90.61730194    0.88000000    2.91000009
   18.82555580   90.61730194    0.88000000    2.89000010
   18.82972336   96.52559662    0.88000000    2.89000010
   18.83222389  101.79900360    0.88000000    2.89000010
   18.83333397   92.78340149    0.88000000    2.89000010
   18.83638954   95.34120178    0.88000000    2.89000010
   18.83972359   94.32409668    0.88000000    2.89000010
   18.84305573   94.73670197    0.88000000    2.91000009
   18.84611130   94.18949890    0.88000000    2.89000010
   18.84944534   90.50070190    0.88000000    2.89000010
   18.85250092   90.69000244    0.89999998    2.89000010
   18.85583305   89.52880096    0.89999998    2.89000010
   18.85916710   89.54599762    0.88000000    2.91000009
   18.86222267   93.61620331    0.88000000    2.89000010
   18.86833382   93.61620331    0.89999998    2.89000010
   18.87249947   93.09850311    0.89999998    2.89000010
   18.87555504   92.84629822    0.89999998    2.89000010
   18.87888908   93.81900024    0.92000002    2.89000010
   18.88222313   97.16750336    0.89999998    2.89000010
   18.88527679   97.29239655    0.92000002    2.89000010
   18.88861084   96.21379852    0.92000002    2.89000010
   18.89194489  101.67400360    0.92000002    2.89000010
   18.89500046   98.32180023    0.92000002    2.89000010
   18.89833260   92.86859894    0.94000000    2.89000010
   18.89916611   95.25620270    0.94000000    2.89000010
   18.90194321   90.60030365    0.92000002    2.89000010
   18.90499878   87.17900085    0.92000002    2.89000010
   18.91110992   87.17900085    0.92000002    2.89000010
   18.91527748   92.48580170    0.92000002    2.89000010
   18.91860962   94.90550232    0.94000000    2.89000010
   18.93027687   96.43499756    0.00000000    0.00000000
   18.93249893   90.58229828    0.94000000    2.89000010
   18.93388748   93.50389862    0.94000000    2.89000010
   18.93722153   92.96649933    0.94000000    2.89000010
   18.94055557   96.24490356    0.94000000    2.89000010
   18.95250130   93.24649811    0.00000000    0.00000000
   18.95583344   94.54149628    0.95999998    2.89000010
   18.96194458   94.54149628    0.95999998    2.89000010
   18.96611214   96.33860016    0.95999998    2.89000010
   18.96833420   92.42289734    0.95999998    2.86999989
   18.97000122   96.98259735    0.95999998    2.89000010
   18.97305679   92.74479675    0.95999998    2.89000010
   18.97638893   89.27929688    0.98000002    2.86999989
   18.97944450   86.22889709    0.98000002    2.89000010
   18.98277855   88.86160278    0.98000002    2.86999989
   18.98611069   95.34590149    0.98000002    2.89000010
   18.98916626   90.85870361    0.98000002    2.89000010
   18.99250031   92.87819672    0.98000002    2.89000010
   18.99583435   91.58670044    0.98000002    2.86999989
   18.99888992   91.24800110    0.98000002    2.89000010
   19.00499916   91.24800110    0.98000002    2.89000010
   19.00888824   94.49099731    0.98000002    2.89000010
   19.01222229   94.63390350    0.98000002    2.89000010
   19.01555634   96.27079773    1.00000000    2.89000010
   19.01861000   96.86990356    0.98000002    2.86999989
   19.02194405   92.25769806    1.00000000    2.86999989
   19.02527809   97.87870026    1.00000000    2.86999989
   19.02833366   98.13500214    1.01999998    2.86999989
   19.03166580   99.45570374    1.01999998    2.89000010
   19.03472137   96.87249756    1.01999998    2.89000010
   19.03583336   96.78869629    1.01999998    2.89000010
   19.03833199   96.21630096    1.01999998    2.89000010
   19.04166603   95.56009674    1.01999998    2.86999989
   19.04777718   95.56009674    1.03999996    2.86999989
   19.05194283   99.57969666    1.07000005    2.86999989
   19.05499840   99.77339935    1.05999994    2.86999989
   19.05833244   96.74870300    1.07000005    2.86999989
   19.06166649   96.84200287    1.05999994    2.89000010
   19.06472206   94.13150024    1.05999994    2.86999989
   19.06805611   96.24459839    1.07000005    2.86999989
   19.06916809   93.88899994    1.07000005    2.86999989
   19.07166672   97.07879639    1.07000005    2.86999989
   19.07472229   95.28579712    1.07000005    2.86999989
   19.07805634  101.13899994    1.13000000    2.86999989
   19.08111191   97.35559845    1.13000000    2.86999989
   19.08444595   95.36550140    1.13000000    2.86999989
   19.09055710   95.36550140    1.13000000    2.86999989
   19.09472275   99.42610168    1.14999998    2.86999989
   19.09805679   98.50340271    1.14999998    2.86999989
   19.10111237   97.10590363    1.14999998    2.86999989
   19.10277748   98.44029999    1.14999998    2.86999989
   19.10472298   92.91709900    1.14999998    2.86999989
   19.10805511   93.50450134    1.14999998    2.86999989
   19.11111069   99.12059784    1.13000000    2.86999989
   19.11444473   97.06960297    1.11000001    2.86999989
   19.11777878   94.08249664    1.11000001    2.86999989
   19.12083435   96.56659698    1.11000001    2.86999989
   19.12416649   96.51010132    1.11000001    2.86999989
   19.12750053  101.46800232    1.11000001    2.86999989
   19.13333321  101.46800232    1.09000003    2.86999989
   19.13833237   92.34359741    1.09000003    2.86999989
   19.14138794   91.72899628    1.09000003    2.86999989
   19.14472198   94.51760101    1.09000003    2.86999989
   19.14805603   93.60959625    1.07000005    2.86999989
   19.15111160   98.41249847    1.07000005    2.86999989
   19.15444374   96.58740234    1.07000005    2.86999989
   19.15777779   96.77950287    1.07000005    2.86999989
   19.17027664   91.18070221    0.00000000    0.00000000
   19.17083359   94.26010132    1.03999996    2.89000010
   19.17388916   98.42700195    1.05999994    2.86999989
   19.17972183   98.42700195    1.05999994    2.86999989
   19.18388748   95.39929962    1.05999994    2.86999989
   19.18694305   96.69419861    1.05999994    2.86999989
   19.19027710   92.70950317    1.05999994    2.86999989
   19.19361115  100.90899658    1.07000005    2.86999989
   19.19694328   98.35040283    1.07000005    2.86999989
   19.20027924   93.60230255    1.07000005    2.86999989
   19.20333481   89.84359741    1.07000005    2.86999989
   19.20416832   90.71810150    1.03999996    2.86999989
   19.20722389   98.86160278    1.03999996    2.86999989
   19.21027946   93.88150024    1.05999994    2.89000010
   19.21361160   95.67729950    1.05999994    2.86999989
   19.21666718   89.42340088    1.05999994    2.86999989
   19.22249985   89.42340088    1.07000005    2.86999989
   19.22666740   94.57250214    1.07000005    2.86999989
   19.23000145  105.36199951    1.07000005    2.86999989
   19.23305511   91.98930359    1.07000005    2.86999989
   19.23638916   94.25990295    1.09000003    2.86999989
   19.23750114   99.07790375    1.09000003    2.86999989
   19.23999977   97.03829956    1.09000003    2.86999989
   19.24305534   98.25250244    1.09000003    2.86999989
   19.24638939   96.83209991    1.09000003    2.86999989
   19.24944496   97.39710236    1.09000003    2.86999989
   19.25277710   99.87930298    1.09000003    2.86999989
   19.25611115   98.08779907    1.09000003    2.86999989
   19.25916672   95.21219635    1.07000005    2.86999989
   19.26527786   95.21219635    1.07000005    2.86999989
   19.26944351   94.13379669    1.07000005    2.86999989
   19.27083397   91.60160065    1.07000005    2.86999989
   19.27333260   98.48459625    1.07000005    2.86999989
   19.27638817   93.62480164    1.07000005    2.84999990
   19.27972221   90.53029633    1.07000005    2.84999990
   19.28277779   94.42939758    1.05999994    2.86999989
   19.28610992   93.56060028    1.03999996    2.86999989
   19.28944397   93.83580017    1.03999996    2.86999989
   19.29249954   95.48380280    1.03999996    2.86999989
   19.29583359   92.98650360    1.03999996    2.86999989
   19.29916573   96.53170013    1.03999996    2.86999989
   19.30222130   94.16040039    1.03999996    2.86999989
   19.30416679   95.16010284    1.03999996    2.86999989
   19.30833244   95.16010284    1.05999994    2.84999990
   19.31250000   95.07279968    1.03999996    2.86999989
   19.31555557   93.38490295    1.01999998    2.86999989
   19.31888962   91.91210175    1.01999998    2.86999989
   19.32222366   91.21630096    1.01999998    2.86999989
   19.32527924   97.13539886    1.01999998    2.84999990
   19.32888985   96.92990112    1.01999998    2.86999989
   19.33222389   96.55829620    1.01999998    2.86999989
   19.33527756   98.14399719    1.01999998    2.86999989
   19.33750153   93.12689972    1.01999998    2.86999989
   19.33916664   99.67710114    1.03999996    2.86999989
   19.34222221   92.94819641    1.03999996    2.86999989
   19.34555626   92.16040039    1.05999994    2.86999989
   19.35194397   92.16040039    1.07000005    2.86999989
   19.35611153   94.25749969    1.09000003    2.86999989
   19.35944557   96.95539856    1.09000003    2.86999989
   19.36250114   95.20379639    1.09000003    2.86999989
   19.36583328   91.96289825    1.09000003    2.86999989
   19.36888885   96.28579712    1.09000003    2.86999989
   19.37083435   94.57879639    1.09000003    2.84999990
   19.37277794  100.21099854    1.09000003    2.86999989
   19.38472176   95.20469666    0.00000000    0.00000000
   19.38805580   92.95539856    1.09000003    2.84999990
   19.39416695   92.95539856    1.09000003    2.84999990
   19.39833260   91.06839752    1.11000001    2.86999989
   19.40138817   90.73339844    1.11000001    2.84999990
   19.40416718   94.30539703    1.11000001    2.84999990
   19.40527725   93.31089783    1.11000001    2.84999990
   19.40833282   92.45839691    1.11000001    2.86999989
   19.41305542   93.93779755    1.11000001    2.84999990
   19.41638756   93.31259918    1.11000001    2.86999989
   19.41944313   91.77200317    1.11000001    2.86999989
   19.42277718   92.76200104    1.13000000    2.84999990
   19.42611122   88.27529907    1.13000000    2.84999990
   19.42916679   92.47899628    1.13000000    2.84999990
   19.43249893   91.61530304    1.13000000    2.84999990
   19.43694305   91.61530304    1.13000000    2.84999990
   19.44111061   94.61599731    1.13000000    2.84999990
   19.44444275   87.96340179    1.14999998    2.86999989
   19.44749832   89.56130219    1.13000000    2.86999989
   19.45083427   92.83760071    1.14999998    2.86999989
   19.45388985   91.13809967    1.13000000    2.84999990
   19.45722389   94.15750122    1.14999998    2.82999992
   19.46055603   98.97540283    1.13000000    2.84999990
   19.46361160   95.72910309    1.13000000    2.84999990
   19.46694565   92.05349731    1.13000000    2.84999990
   19.47027779   93.93679810    1.13000000    2.86999989
   19.47194481   94.85900116    1.14999998    2.84999990
   19.47389030  100.85399628    1.13000000    2.84999990
   19.47972298  100.85399628    1.14999998    2.86999989
   19.48388863   93.03350067    1.16999996    2.84999990
   19.48722267   90.30740356    1.19000006    2.84999990
   19.49027824   92.74359894    1.19000006    2.84999990
   19.49361229   92.28749847    1.21000004    2.84999990
   19.49694443   90.96980286    1.21000004    2.84999990
   19.50000000   93.09809875    1.23000002    2.86999989
   19.50333405   87.20839691    1.23000002    2.84999990
   19.50527763   91.27290344    1.21000004    2.84999990
   19.50694466   91.00499725    1.21000004    2.84999990
   19.51027870   90.48390198    1.21000004    2.84999990
   19.51333427   89.82039642    1.21000004    2.84999990
   19.51666641   90.90799713    1.21000004    2.84999990
   19.52277756   90.90799713    1.19000006    2.84999990
   19.52666664   96.17430115    1.16999996    2.84999990
   19.53000069   89.31400299    1.16999996    2.86999989
   19.53333282   91.69059753    1.16999996    2.84999990
   19.53638840   93.17829895    1.16999996    2.84999990
   19.53888893   91.36479950    1.16999996    2.84999990
   19.54027748   90.54979706    1.16999996    2.84999990
   19.54333305   94.24549866    1.16999996    2.84999990
   19.54722214   92.67060089    1.16999996    2.84999990
   19.55055428  144.89599609    1.16999996    2.84999990
   19.55360985   96.20649719    1.16999996    2.84999990
   19.55694389   91.47100067    1.16999996    2.84999990
   19.55999947   92.43910217    1.16999996    2.84999990
   19.56555557   92.43910217    1.16999996    2.84999990
   19.56972313   94.12049866    1.14999998    2.84999990
   19.57222366   86.48049927    1.14999998    2.84999990
   19.57333374   95.24659729    1.14999998    2.84999990
   19.57638931   86.16269684    1.14999998    2.84999990
   19.57972336   87.92819977    1.14999998    2.84999990
   19.58305550   89.87570190    1.13000000    2.82999992
   19.58611107   89.66709900    1.13000000    2.82999992
   19.58944511   90.08910370    1.13000000    2.84999990
   19.59250069   90.70020294    1.11000001    2.84999990
   19.59583473   90.71880341    1.11000001    2.84999990
   19.59944534   90.84909821    1.11000001    2.84999990
   19.60250092   90.42220306    1.11000001    2.84999990
   19.62444496   91.54940033    1.07000005    2.84999990
   19.62500000   91.83439636    1.07000005    2.84999990
   19.62805557   93.43489838    1.07000005    2.84999990
   19.63138962   93.25740051    1.07000005    2.82999992
   19.64361191   93.65740204    0.00000000    0.00000000
   19.64416695   89.69039917    1.07000005    2.84999990
   19.64722252   89.85839844    1.07000005    2.82999992
   19.65305519   89.85839844    1.07000005    2.82999992
   19.65722275   89.30599976    1.07000005    2.84999990
   19.66027832   94.43910217    1.09000003    2.84999990
   19.66361046   89.11930084    1.09000003    2.84999990
   19.66694450   88.08750153    1.09000003    2.82999992
   19.67000008   89.49130249    1.09000003    2.82999992
   19.67333221   89.12149811    1.11000001    2.84999990
   19.67638779   88.72180176    1.13000000    2.84999990
   19.67749977   91.74420166    1.13000000    2.82999992
   19.68916512   89.77749634    0.00000000    0.00000000
   19.69249916   88.95790100    1.16999996    2.82999992
   19.69861031   88.95790100    1.16999996    2.82999992
   19.70277786   89.52020264    1.21000004    2.84999990
   19.70611191   90.60520172    1.26999998    2.82999992
   19.70916748   89.97830200    1.26999998    2.82999992
   19.71111107   93.84279633    1.26999998    2.82999992
   19.71305656   87.83670044    1.28999996    2.82999992
   19.71611214   87.43979645    1.28999996    2.82999992
   19.71944427   86.85970306    1.30999994    2.82999992
   19.72249985   92.11940002    1.28999996    2.82999992
   19.72583389   89.48500061    1.19000006    2.82999992
   19.72916794   88.83090210    1.19000006    2.82999992
   19.73222351   88.32800293    1.19000006    2.82999992
   19.73555565   84.67829895    1.14999998    2.82999992
   19.74138832   84.67829895    1.14999998    2.82999992
   19.74555588   90.40180206    1.14999998    2.82999992
   19.74888992   90.05449677    1.11000001    2.82999992
   19.75194359   92.87539673    1.09000003    2.84999990
   19.75527763   96.42819977    1.09000003    2.82999992
   19.75861168   91.53880310    1.09000003    2.84999990
   19.76166725   88.97619629    1.09000003    2.82999992
   19.76499939   93.55680084    1.09000003    2.82999992
   19.76805496   89.87989807    1.09000003    2.82999992
   19.77138901   93.78160095    1.09000003    2.82999992
   19.77472115   94.09909821    1.09000003    2.82999992
   19.77777672   89.30380249    1.07000005    2.82999992
   19.77833366   92.56500244    1.07000005    2.82999992
   19.78416634   92.56500244    1.07000005    2.82999992
   19.78833199   85.81050110    1.07000005    2.82999992
   19.79166603   89.99929810    1.07000005    2.82999992
   19.79500008   99.81340027    1.09000003    2.82999992
   19.79805565  112.51200104    1.11000001    2.82999992
   19.80138779  100.90399933    1.25000000    2.82999992
   19.80472183  117.04499817    1.25000000    2.80999994
   19.80777740  124.32800293    1.25000000    2.80999994
   19.81110954  135.18699646    1.25000000    2.80999994
   19.81138802  114.88099670    1.25000000    2.80999994
   19.81472206  118.40499878    1.25000000    2.82999992
   19.81805611  126.64499664    1.28999996    2.82999992
   19.82111168  125.55899811    1.30999994    2.82999992
   19.82722282  125.55899811    1.28999996    2.82999992
   19.83139038  111.39600372    1.28999996    2.82999992
   19.83444595  104.45999908    1.28999996    2.82999992
   19.83777809  107.89199829    1.28999996    2.80999994
   19.85027885  115.16100311    0.00000000    0.00000000
   19.85083389  114.00800323    1.25000000    2.80999994
   19.85388947  122.59200287    1.25000000    2.80999994
   19.85694504  103.71700287    1.26999998    2.80999994
   19.86027908  100.06900024    1.26999998    2.84999990
   19.86333466  106.11900330    1.26999998    2.82999992
   19.86666679  113.40699768    1.28999996    2.82999992
   19.87000084  111.43599701    1.28999996    2.82999992
   19.87305641  116.13999939    1.28999996    2.82999992
   19.87777710  116.13999939    1.28999996    2.82999992
   19.88194466  107.69999695    1.30999994    2.80999994
   19.88416672   93.64479828    1.33000004    2.82999992
   19.88583374   93.87629700    1.33000004    2.82999992
   19.88888931  100.78099823    1.33000004    2.80999994
   19.89222145  102.09200287    1.34000003    2.80999994
   19.89583397   96.67859650    1.34000003    2.80999994
   19.89888954   90.41660309    1.36000001    2.82999992
   19.90222168   87.94439697    1.39999998    2.82999992
   19.90527725   87.00370026    1.44000006    2.82999992
   19.90861130   91.20839691    1.36000001    2.82999992
   19.91194344   88.62349701    1.33000004    2.80999994
   19.91499901   87.64189911    1.33000004    2.82999992
   19.92083359   87.64189911    1.33000004    2.80999994
   19.92472076   93.55840302    1.33000004    2.80999994
   19.92805481   87.46610260    1.33000004    2.80999994
   19.93138885   89.46499634    1.33000004    2.80999994
   19.93444443   87.42230225    1.36000001    2.80999994
   19.93777657   85.81860352    1.36000001    2.80999994
   19.94111061   86.48629761    1.36000001    2.82999992
   19.94416618   87.12359619    1.36000001    2.80999994
   19.94749832   85.33650208    1.33000004    2.82999992
   19.95055580   89.46060181    1.33000004    2.82999992
   19.95166779   88.95659637    1.28999996    2.82999992
   19.95499992   88.53040314    1.28999996    2.82999992
   19.95833397   87.59999847    1.34000003    2.80999994
   19.96500015   87.59999847    1.28999996    2.80999994
   19.96916771   94.75669861    1.28999996    2.82999992
   19.97222328   89.36180115    1.28999996    2.82999992
   19.97555542   92.21410370    1.26999998    2.80999994
   19.97888947  102.04799652    1.25000000    2.82999992
   19.98194504   99.48760223    1.33000004    2.82999992
   19.98500061   94.16519928    1.34000003    2.80999994
   19.98555565   94.18800354    1.36000001    2.80999994
   19.98888969  101.70400238    1.36000001    2.80999994
   19.99222183  108.08499908    1.34000003    2.80999994
   19.99527740   96.33850098    1.33000004    2.80999994
   19.99861145  104.06600189    1.33000004    2.80999994
   20.00194359  104.93900299    1.34000003    2.80999994
   20.00638962  104.93900299    1.34000003    2.80999994
   20.01055527  118.38899994    1.34000003    2.80999994
   20.01388931   93.02539825    1.34000003    2.80999994
   20.01694489  107.37500000    1.33000004    2.80999994
   20.01861000   95.50689697    1.33000004    2.80999994
   20.02055550  114.01399994    1.34000003    2.80999994
   20.02388954  109.75599670    1.33000004    2.80999994
   20.02722168   99.99700165    1.33000004    2.80999994
   20.03027725  101.75499725    1.33000004    2.80999994
   20.03361130  102.12400055    1.30999994    2.80999994
   20.03694344   90.93409729    1.33000004    2.80999994
   20.03999901   93.42530060    1.33000004    2.80999994
   20.04333305   96.19799805    1.34000003    2.78999996
   20.04916573   96.19799805    1.36000001    2.80999994
   20.05333328   93.67410278    1.34000003    2.80999994
   20.05666542   95.08270264    1.34000003    2.80999994
   20.05999947   99.32820129    1.34000003    2.80999994
   20.06305504   97.64810181    1.34000003    2.78999996
   20.06638718   90.63089752    1.33000004    2.80999994
   20.06972313   93.39489746    1.28999996    2.80999994
   20.07277870  110.50099945    1.28999996    2.78999996
   20.07611275   83.91940308    1.26999998    2.80999994
   20.07916832   96.06710052    1.26999998    2.80999994
   20.08250046   92.14559937    1.26999998    2.80999994
   20.08527756   88.05049896    1.25000000    2.80999994
   20.08611107   85.73290253    1.25000000    2.80999994
   20.09222221   85.73290253    1.19000006    2.80999994
   20.09638977   87.59529877    1.19000006    2.80999994
   20.09944534   84.57299805    1.19000006    2.80999994
   20.10277748   85.16410065    1.19000006    2.80999994
   20.10611153   82.21990204    1.21000004    2.80999994
   20.10916710   85.73549652    1.25000000    2.80999994
   20.11250114   83.83580017    1.26999998    2.80999994
   20.11555672   87.16339874    1.28999996    2.80999994
   20.11861038   86.73639679    1.28999996    2.80999994
   20.11916733   85.11239624    1.28999996    2.80999994
   20.12249947   90.48549652    1.33000004    2.78999996
   20.12583351   83.20639801    1.34000003    2.78999996
   20.12888908   84.07399750    1.34000003    2.78999996
   20.13500023   84.07399750    1.33000004    2.78999996
   20.13916588   83.79640198    1.33000004    2.80999994
   20.14222145   82.96260071    1.33000004    2.80999994
   20.14555550   82.71219635    1.33000004    2.80999994
   20.14888954   82.03890228    1.33000004    2.78999996
   20.15194321   81.72820282    1.33000004    2.78999996
   20.15222168   82.76550293    1.33000004    2.78999996
   20.15555573   84.08080292    1.33000004    2.80999994
   20.15888786   82.56130219    1.33000004    2.78999996
   20.16194344   84.70030212    1.34000003    2.78999996
   20.16527748   83.82790375    1.34000003    2.78999996
   20.16860962   81.08470154    1.36000001    2.78999996
   20.17166519   82.87500000    1.36000001    2.78999996
   20.17777634   82.87500000    1.36000001    2.78999996
   20.18194389   82.34320068    1.36000001    2.78999996
   20.18527603   83.53769684    1.36000001    2.78999996
   20.18555450   81.00710297    1.36000001    2.78999996
   20.18888855   85.78240204    1.36000001    2.78999996
   20.19222069   81.43979645    1.34000003    2.78999996
   20.19527626   81.14309692    1.33000004    2.78999996
   20.19861031   83.76809692    1.33000004    2.78999996
   20.20194435   85.24600220    1.33000004    2.78999996
   20.20499992   85.35579681    1.33000004    2.78999996
   20.20833397   83.79920197    1.34000003    2.78999996
   20.21166801   93.00689697    1.36000001    2.78999996
   20.21472359   83.75080109    1.36000001    2.78999996
   20.22194481   83.75080109    1.48000002    2.78999996
   20.22611237   89.56569672    1.50000000    2.78999996
   20.22916794   86.36779785    1.50000000    2.78999996
   20.23250008   84.77690125    1.55999994    2.78999996
   20.23555565   86.55300140    1.58000004    2.76999998
   20.23888969   89.53880310    1.58000004    2.78999996
   20.24222183   85.43879700    1.60000002    2.76999998
   20.24527740   86.21600342    1.61000001    2.76999998
   20.24861145   85.33139801    1.61000001    2.78999996
   20.25194359   84.81569672    1.63000000    2.78999996
   20.25250053   84.52010345    1.63000000    2.78999996
   20.25555611   83.30069733    1.63000000    2.76999998
   20.25888824   83.23999786    1.66999996    2.76999998
   20.26388931   83.23999786    1.66999996    2.76999998
   20.26805496   85.94170380    1.66999996    2.78999996
   20.27138901   88.14089966    1.66999996    2.78999996
   20.27444458   88.46679688    1.64999998    2.78999996
   20.27777672   86.15119934    1.64999998    2.76999998
   20.28111076   93.79650116    1.64999998    2.76999998
   20.28416634   89.26509857    1.63000000    2.78999996
   20.28527641   88.34290314    1.63000000    2.78999996
   20.28805542   84.64700317    1.63000000    2.78999996
   20.29111099   82.73729706    1.63000000    2.78999996
   20.30360985   86.12920380    0.00000000    0.00000000
   20.30694389   81.88230133    1.51999998    2.76999998
   20.31305504   81.88230133    1.48000002    2.78999996
   20.31722260   84.94670105    1.48000002    2.76999998
   20.32027817   80.16680145    1.46000004    2.78999996
   20.32194519   78.54470062    1.46000004    2.78999996
   20.32527924   83.39350128    1.46000004    2.76999998
   20.32833481   84.55979919    1.46000004    2.76999998
   20.33166695   86.90889740    1.50000000    2.76999998
   20.33500099   81.27539825    1.51999998    2.76999998
   20.33805656   84.23359680    1.51999998    2.76999998
   20.34138870   83.98629761    1.58000004    2.76999998
   20.34444427   83.10769653    1.58000004    2.76999998
   20.34777832   84.68109894    1.61000001    2.76999998
   20.35111237   83.01599884    4.90999985    2.86999989
   20.35611153   83.01599884    0.11000000    0.51999998
   20.36027908   86.02719879    0.11000000    0.51999998
   20.36333466   86.14170074    0.11000000    0.51999998
   20.36666679   81.08809662    0.11000000    0.51999998
   20.36972237   82.91400146    0.11000000    0.51999998
   20.37305641   86.23229980    0.11000000    0.51999998
   20.37638855   84.44619751    0.11000000    0.51999998
   20.37944412   83.17539978    0.11000000    0.51999998
   20.38277817   84.27089691    0.11000000    0.51999998
   20.38611031   82.61360168    0.11000000    0.51999998
   20.38694382   83.12129974    0.11000000    0.51999998
   20.38972282   84.37729645    0.11000000    0.51999998
   20.39277840   82.33630371    0.11000000    0.51999998
   20.39888954   82.33630371    0.11000000    0.51999998
   20.40305519   83.14140320    0.11000000    0.51999998
   20.40638924   86.10800171    0.11000000    0.51999998
   20.40944481  148.14199829    0.11000000    0.51999998
   20.41277695   80.61830139    0.11000000    0.51999998
   20.41611099   80.81529999    0.11000000    0.51999998
   20.41916656   86.00170135    0.11000000    0.51999998
   20.42027664   83.97019958    0.11000000    0.51999998
   20.42305565   81.22899628    0.11000000    0.51999998
   20.42611122   82.82460022    0.11000000    0.51999998
   20.42944336   81.81199646    0.11000000    0.51999998
   20.43249893   84.27870178    0.11000000    0.51999998
   20.43583298   82.48880005    0.11000000    0.51999998
   20.44166565   82.48880005    0.11000000    0.51999998
   20.44583321   83.21829987    0.11000000    0.51999998
   20.44916534   86.73079681    0.11000000    0.51999998
   20.45222282   82.75910187    0.11000000    0.51999998
   20.45388985   86.15820313    0.11000000    0.51999998
   20.45583344   82.59149933    0.11000000    0.51999998
   20.45916748   84.93620300    0.11000000    0.51999998
   20.46250153   90.11859894    0.11000000    0.51999998
   20.46555710   82.66369629    0.11000000    0.51999998
   20.46888924   82.39379883    0.11000000    0.51999998
   20.47194481   87.24269867    0.11000000    0.51999998
   20.47527885   87.81390381    0.11000000    0.51999998
   20.47861099   83.27149963    0.11000000    0.51999998
   20.48444557   83.27149963    0.11000000    0.51999998
   20.48861122   83.94779968    0.11000000    0.51999998
   20.49194527   89.81369781    0.11000000    0.51999998
   20.49527740   84.48580170    0.11000000    0.51999998
   20.49833298   87.80079651    0.11000000    0.51999998
   20.50166702   83.26550293    0.11000000    0.51999998
   20.50472260   84.32679749    0.11000000    0.51999998
   20.50805473   79.46410370    0.11000000    0.51999998
   20.51138878   82.11609650    0.11000000    0.51999998
