    HOUR (UT)   FLARE FACTOR    SKY TESTER    SUN TESTER
   11.61333370   -1.00000000   -1.00000000   -1.00000000
   12.75111103   85.41790009    0.36000001    0.56999999
   12.75444412   -1.00000000    0.36000001    0.56999999
   12.75749969   -1.00000000    0.36000001    0.56999999
   12.76083374   -1.00000000    0.36000001    0.56999999
   12.76416683  157.34399414    4.90999985    2.23000002
   12.77111053  157.34399414    2.26999998    2.19000006
   12.77527714  155.37899780    2.26999998    2.19000006
   12.77833271  154.04100037    2.25000000    2.19000006
   12.78166676  154.17500305    2.25000000    2.17000008
   12.78416729  164.99800110    2.25000000    2.17000008
   12.78555584  154.53999329    2.25000000    2.19000006
   12.78861141  146.82899475    2.26999998    2.19000006
   12.79194450  149.07600403    2.28999996    2.19000006
   12.79500008  155.11900330    2.51999998    2.19000006
   12.79833412  156.65699768    2.53999996    2.19000006
   12.80166721  154.61900330    2.50000000    2.19000006
   12.80472279  155.87300110    2.42000008    2.19000006
   12.80833340  157.10699463    2.40000010    2.19000006
   12.81388950  157.10699463    2.39000010    2.19000006
   12.81805515  156.37100220    2.40000010    2.21000004
   12.82138920  164.49400330    2.46000004    2.21000004
   12.82444477  145.95199585    2.51999998    2.19000006
   12.82777786  158.02600098    2.51999998    2.21000004
   12.83111095  155.55200195    2.48000002    2.19000006
   12.83416653  156.95300293    2.42000008    2.21000004
   12.83749962  155.91600037    2.34999990    2.21000004
   12.84055519  159.75799561    2.32999992    2.21000004
   12.84388828  166.27699280    2.25000000    2.21000004
   12.84722233  163.53399658    2.19000006    2.21000004
   12.85027790  170.83700562    2.17000008    2.21000004
   12.85083389  154.10200500    2.17000008    2.21000004
   12.85666752  154.10200500    2.15000010    2.23000002
   12.86083412  175.84199524    2.15000010    2.21000004
   12.86416721  158.14199829    2.17000008    2.23000002
   12.86750031  168.09800720    2.17000008    2.23000002
   12.87055588  156.37899780    2.17000008    2.23000002
   12.87388897  160.33700562    2.13000011    2.23000002
   12.87694454  160.29400635    2.09999990    2.23000002
   12.88027763  153.56799316    2.03999996    2.23000002
   12.88361073  162.87699890    1.98000002    2.25000000
   12.88416672  150.21899414    1.98000002    2.23000002
   12.88722229  146.80900574    1.96000004    2.25000000
   12.89055538  151.97300720    1.88000000    2.25000000
   12.89361095  147.91600037    1.85000002    2.25000000
   12.89972210  147.91600037    1.78999996    2.25000000
   12.90388870  156.99699402    1.73000002    2.25000000
   12.90694427  157.64199829    1.69000006    2.25000000
   12.91027737  152.04100037    1.66999996    2.25000000
   12.91361046  154.87500000    1.63000000    2.25000000
   12.91666698  160.22399902    1.63000000    2.25000000
   12.91750050  153.72200012    1.63000000    2.25000000
   12.92027855  155.93299866    1.63000000    2.25000000
   12.92361164  144.65499878    1.63000000    2.25000000
   12.92666721  159.54499817    1.63000000    2.25000000
   12.93000031  150.52900696    1.61000001    2.25000000
   12.93333340  146.11599731    1.61000001    2.25000000
   12.93638897  148.18499756    1.60000002    2.25000000
   12.94250011  148.18499756    1.48000002    2.26999998
   12.94666672  150.61399841    1.48000002    2.26999998
   12.94999981  139.65899658    1.48000002    2.26999998
   12.95083332  146.13900757    1.48000002    2.26999998
   12.95361137  145.29200745    1.36000001    2.26999998
   12.95694447  146.63299561    1.34000003    2.26999998
   12.96000004  153.77400208    1.30999994    2.26999998
   12.96333313  138.54899597    1.30999994    2.26999998
   12.96638870  154.91200256    1.28999996    2.26999998
   12.96972179  150.00900269    1.28999996    2.26999998
   12.97305489  150.33799744    1.26999998    2.26999998
   12.97611046  142.32000732    1.23000002    2.28999996
   12.97944355  147.50799561    1.23000002    2.28999996
   12.98527813  147.50799561    1.23000002    2.28999996
   12.98944473  152.19900513    1.23000002    2.28999996
   12.99277782  150.16700745    1.23000002    2.28999996
   12.99583340  149.08399963    1.23000002    2.28999996
   12.99916649  147.75799561    1.23000002    2.28999996
   13.00249958  147.70300293    1.23000002    2.28999996
   13.00555515  156.78999329    1.23000002    2.28999996
   13.00888920  146.88000488    1.23000002    2.28999996
   13.01194477  145.75900269    1.25000000    2.28999996
   13.01527786  143.76400757    1.25000000    2.28999996
   13.01749992  144.96699524    1.25000000    2.28999996
   13.01888847  150.47900391    1.26999998    2.28999996
   13.02222157  154.07299805    1.26999998    2.28999996
   13.02861118  154.07299805    1.33000004    2.28999996
   13.03277779  141.18299866    1.34000003    2.28999996
   13.03611183  159.56900024    1.30999994    2.30999994
   13.03916740  140.88200378    1.30999994    2.30999994
   13.04250050  142.83399963    1.30999994    2.30999994
   13.04583359  150.52999878    1.26999998    2.30999994
   13.04888916  154.23100281    1.25000000    2.30999994
   13.05083370  146.75799561    1.25000000    2.30999994
   13.05249977  136.68099976    1.25000000    2.30999994
   13.05583382  146.27699280    1.23000002    2.30999994
   13.05888939  136.57400513    1.21000004    2.30999994
   13.06222248  142.23800659    1.21000004    2.30999994
   13.06555557  151.17300415    1.14999998    2.30999994
   13.07111073  151.17300415    1.13000000    2.30999994
   13.07527733  137.13499451    1.13000000    2.30999994
   13.07861137  147.43200684    1.11000001    2.32999992
   13.08194447  141.00900269    1.11000001    2.30999994
   13.08416653  137.20300293    1.11000001    2.30999994
   13.08555508  140.37899780    1.11000001    2.30999994
   13.08888817  149.18499756    1.11000001    2.30999994
   13.09194374  140.80799866    1.14999998    2.30999994
   13.09527779  141.33500671    1.14999998    2.30999994
   13.09861088  141.29100037    1.14999998    2.30999994
   13.10166740  141.32200623    1.28999996    2.32999992
   13.10500050  136.10899353    1.46000004    2.30999994
   13.10805607  142.36399841    1.60000002    2.30999994
   13.11388969  142.36399841    1.60000002    2.30999994
   13.11805534  136.89100647    1.55999994    2.30999994
   13.12138939  141.17100525    1.48000002    2.32999992
   13.12444496  145.68899536    1.38000000    2.32999992
   13.12777805  145.17799377    1.33000004    2.32999992
   13.13083363  136.27900696    1.21000004    2.32999992
   13.13416672  142.47500610    1.16999996    2.32999992
   13.13749981  144.27600098    1.14999998    2.32999992
   13.14055538  136.26800537    1.14999998    2.32999992
   13.14388847  141.80299377    1.16999996    2.32999992
   13.14722252  136.07699585    1.13000000    2.32999992
   13.15027714  137.86300659    1.07000005    2.34999990
   13.15083313  144.63600159    1.07000005    2.34999990
   13.15694427  144.63600159    1.11000001    2.32999992
   13.16111088  138.95700073    1.11000001    2.32999992
   13.16444397  134.87800598    1.11000001    2.34999990
   13.16750050  137.35099792    1.05999994    2.34999990
   13.17083359  132.60600281    1.05999994    2.34999990
   13.17416668  147.12800598    1.05999994    2.34999990
   13.17750072  141.70399475    1.05999994    2.34999990
   13.18055630  144.01300049    1.05999994    2.34999990
   13.18388939  140.50799561    1.05999994    2.34999990
   13.18444443  143.52200317    1.05999994    2.34999990
   13.18777752  149.82299805    1.05999994    2.34999990
   13.19083309  137.31700134    1.00000000    2.34999990
   13.19416714  134.83200073    1.00000000    2.36999989
   13.19972229  134.83200073    0.98000002    2.34999990
   13.20361137  143.11500549    0.98000002    2.34999990
   13.20694447  149.65499878    0.94000000    2.36999989
   13.21027756  146.95799255    0.94000000    2.36999989
   13.21333313  141.46400452    0.94000000    2.34999990
   13.21666622  129.72000122    0.83999997    2.34999990
   13.21777725  132.60000610    0.83999997    2.34999990
   13.22027779  143.59500122    0.83999997    2.36999989
   13.22333336  146.75199890    0.83999997    2.36999989
   13.22666645  156.72900391    0.83999997    2.36999989
   13.22999954  153.29699707    0.86000001    2.36999989
   13.23305511  155.89399719    0.86000001    2.36999989
   13.23638916  142.55299377    0.83999997    2.36999989
   13.24250031  142.55299377    0.80000001    2.36999989
   13.24666691  139.84199524    0.79000002    2.36999989
   13.24972248  143.32000732    0.79000002    2.36999989
   13.25111103  151.02400208    0.79000002    2.36999989
   13.25361156  147.35499573    0.79000002    2.36999989
   13.25666714  143.37899780    0.76999998    2.39000010
   13.26000023  138.69200134    0.76999998    2.39000010
   13.26333332  142.54100037    0.79000002    2.39000010
   13.26638889  140.26699829    0.79000002    2.36999989
   13.26972198  142.38499451    0.80000001    2.39000010
   13.27305508  139.77699280    0.80000001    2.39000010
   13.27611065  134.16799927    0.83999997    2.39000010
   13.27944374  139.04699707    0.83999997    2.39000010
   13.28527832  139.04699707    0.81999999    2.39000010
   13.28944492  142.40400696    0.83999997    2.39000010
   13.29250050  141.45399475    0.86000001    2.39000010
   13.29583359  137.99699402    0.88000000    2.39000010
   13.29916668  142.95599365    0.89999998    2.39000010
   13.30249977  144.53300476    0.89999998    2.39000010
   13.30555534  134.28900146    0.92000002    2.39000010
   13.30888939  138.92700195    0.89999998    2.39000010
   13.31222248  138.16299438    0.89999998    2.39000010
   13.31527805  143.57200623    0.89999998    2.39000010
   13.31777763  142.21699524    0.92000002    2.39000010
   13.31916618  133.64199829    0.92000002    2.39000010
   13.32222176  140.48100281    0.94000000    2.39000010
   13.32805538  140.48100281    0.95999998    2.39000010
   13.33222198  147.71000671    0.95999998    2.39000010
   13.33555508  136.47700500    0.95999998    2.40000010
   13.33861065  148.00500488    0.98000002    2.40000010
   13.34194374  142.30900574    1.00000000    2.39000010
   13.34527779  140.69999695    1.00000000    2.40000010
   13.34833336  139.41400146    1.00000000    2.40000010
   13.35111141  136.11300659    1.01999998    2.39000010
   13.35222244  140.91900635    1.01999998    2.39000010
   13.35527802  149.08099365    1.05999994    2.40000010
   13.35861111  140.99899292    1.05999994    2.39000010
   13.36194515  140.71299744    1.09000003    2.40000010
   13.36500072  147.14599609    1.11000001    2.39000010
   13.37083340  147.14599609    1.23000002    2.39000010
   13.37500000  136.21099854    1.25000000    2.40000010
   13.37833309  137.32899475    1.26999998    2.40000010
   13.38166714  143.05599976    1.30999994    2.40000010
   13.38444424  138.68299866    1.25000000    2.40000010
   13.38527775  142.99400330    1.25000000    2.40000010
   13.38833332  138.52999878    1.33000004    2.40000010
   13.39166641  142.12500000    1.33000004    2.40000010
   13.39499950  141.11700439    1.44000006    2.39000010
   13.39805508  139.79600525    1.48000002    2.40000010
   13.40138817  138.85099792    1.48000002    2.40000010
   13.40472221  139.69700623    1.53999996    2.40000010
   13.40777779  138.24699402    1.46000004    2.40000010
   13.41388893  138.24699402    1.50000000    2.40000010
   13.41805553  137.73699951    1.55999994    2.40000010
   13.42111111  130.56599426    1.58000004    2.40000010
   13.42444515  136.75799561    1.58000004    2.40000010
   13.42777824  130.91600037    1.58000004    2.40000010
   13.43083382  137.11799622    1.58000004    2.40000010
   13.43416691  135.65199280    1.51999998    2.40000010
   13.43722248  136.06100464    1.48000002    2.40000010
   13.44055557  140.39399719    1.46000004    2.42000008
   13.44388866  136.44000244    1.46000004    2.42000008
   13.44694424  133.76499939    1.48000002    2.42000008
   13.45027733  138.16000366    1.50000000    2.40000010
   13.45111084  136.90499878    1.50000000    2.40000010
   13.45666695  136.90499878    1.39999998    2.42000008
   13.46083355  135.24499512    1.25000000    2.42000008
   13.46472168  130.82499695    1.14999998    2.42000008
   13.46777725  134.17399597    1.05999994    2.42000008
   13.47111034  131.38999939    0.94000000    2.42000008
   13.47444439  129.45899963    0.94000000    2.42000008
   13.47749996  135.40699768    0.88000000    2.42000008
   13.48083305  135.65800476    0.86000001    2.42000008
   13.48416710  133.48300171    0.89999998    2.42000008
   13.48472214  132.00500488    0.89999998    2.42000008
   13.48777771  131.95799255    0.95999998    2.42000008
   13.49083328  128.45100403    0.98000002    2.42000008
   13.49416733  128.33299255    0.98000002    2.42000008
   13.49944496  128.33299255    0.89999998    2.42000008
   13.50361156  135.44299316    0.88000000    2.44000006
   13.50694466  136.10400391    0.89999998    2.44000006
   13.51000023  132.78300476    0.89999998    2.44000006
   13.51333332  133.47999573    0.88000000    2.44000006
   13.51666641  133.68800354    0.86000001    2.44000006
   13.51805496  139.26600647    0.86000001    2.44000006
   13.51999950  130.10400391    0.75000000    2.44000006
   13.52333355  134.74000549    0.73000002    2.44000006
   13.52666664  134.63099670    0.73000002    2.44000006
   13.52972221  142.89199829    0.73000002    2.44000006
   13.53305531  136.51600647    0.70999998    2.44000006
   13.53638935  142.32600403    0.70999998    2.44000006
   13.54222298  142.32600403    0.64999998    2.44000006
   13.54638958  135.32099915    0.63000000    2.46000004
   13.54972267  136.18299866    0.63000000    2.46000004
   13.55138874  135.01300049    0.63000000    2.44000006
   13.55333328  139.17700195    0.63000000    2.44000006
   13.55666733  134.89599609    0.61000001    2.44000006
   13.56000042  139.69000244    0.64999998    2.44000006
   13.56305599  125.39800262    0.67000002    2.46000004
   13.56638908  142.50500488    0.67000002    2.46000004
   13.56944466  134.14799500    0.67000002    2.46000004
   13.57277775  143.29100037    0.67000002    2.46000004
   13.57611084  139.02299500    0.64999998    2.46000004
   13.57916641  139.99299622    0.67000002    2.44000006
   13.58527756  139.99299622    0.64999998    2.46000004
   13.58944416  139.16000366    0.69000000    2.46000004
   13.59249973  142.50500488    0.70999998    2.46000004
   13.59583282  131.46800232    0.70999998    2.46000004
   13.59888840  137.00799561    0.69000000    2.46000004
   13.60222244  142.92500305    0.64999998    2.46000004
   13.60555553  137.62899780    0.69000000    2.46000004
   13.60861111  142.27499390    0.69000000    2.46000004
   13.61194515  142.80599976    0.75000000    2.46000004
   13.61500072  134.02600098    0.83999997    2.46000004
   13.61805534  137.77400208    0.86000001    2.46000004
   13.61861134  143.76400757    0.86000001    2.46000004
   13.62194443  127.15200043    0.79000002    2.46000004
   13.62805557  127.15200043    0.79000002    2.46000004
   13.63222218  136.36099243    0.75000000    2.46000004
   13.63527775  132.36500549    0.75000000    2.46000004
   13.63861084  130.88499451    0.75000000    2.46000004
   13.64194393  133.04100037    0.73000002    2.46000004
   13.64499950  130.65199280    0.70999998    2.46000004
   13.64833355  131.69000244    0.70999998    2.46000004
   13.65138817  127.23600006    0.67000002    2.46000004
   13.65222168  136.38999939    0.67000002    2.46000004
   13.65527725  134.35899353    0.67000002    2.46000004
   13.65861034  140.22900391    0.70999998    2.46000004
   13.66166592  133.69900513    0.70999998    2.46000004
   13.66499996  133.93699646    0.70999998    2.46000004
   13.67083359  133.93699646    0.70999998    2.48000002
   13.67500019  135.56300354    0.70999998    2.46000004
   13.67833328  137.33999634    0.69000000    2.48000002
   13.68138885  132.49800110    0.67000002    2.46000004
   13.68472195  133.36999512    0.64999998    2.48000002
   13.68527794  135.61700439    0.64999998    2.48000002
   13.68833351  136.93899536    0.64999998    2.46000004
   13.69166660  127.04599762    0.64999998    2.46000004
   13.69499969  131.24000549    0.64999998    2.46000004
   13.69805527  129.44599915    0.67000002    2.48000002
   13.70138836  127.50399780    0.70999998    2.48000002
   13.70444393  130.73199463    0.70999998    2.48000002
   13.70777798  130.51400757    0.70999998    2.48000002
   13.71388912  130.51400757    0.73000002    2.48000002
   13.71777725  125.41899872    0.70999998    2.48000002
   13.71833324  130.06100464    0.70999998    2.48000002
   13.72166634  129.89100647    0.80000001    2.48000002
   13.72499943  130.18699646    0.80000001    2.48000002
   13.72805500  129.08500671    0.80000001    2.48000002
   13.73138809  129.83099365    0.83999997    2.48000002
   13.73472214  130.70899963    0.76999998    2.46000004
   13.73777771  135.60400391    0.70999998    2.48000002
   13.74111176  136.67799377    0.69000000    2.48000002
   13.74416733  143.18800354    0.69000000    2.48000002
   13.74750042  136.03199768    0.69000000    2.48000002
   13.75083351  130.75000000    0.70999998    2.48000002
   13.76805496  136.40600586    0.69000000    2.48000002
   13.77222157  136.40600586    0.63000000    2.48000002
   13.77638817  128.19799805    0.56999999    2.48000002
   13.77944374  129.87600708    0.55000001    2.48000002
   13.78277779  133.46000671    0.52999997    2.48000002
   13.78611183  126.42199707    0.52999997    2.48000002
   13.78916740  131.00900269    0.52999997    2.48000002
   13.79250050  133.53399658    0.52999997    2.48000002
   13.79583359  134.44700623    0.52999997    2.50000000
   13.79888916  134.85099792    0.51999998    2.48000002
   13.80111122  137.12399292    0.51999998    2.48000002
   13.80249977  136.52000427    0.51999998    2.48000002
   13.80583382  137.44599915    0.51999998    2.48000002
   13.80916691  131.04899597    0.55000001    2.50000000
   13.81500053  131.04899597    0.63000000    2.48000002
   13.81916618  142.95399475    0.50000000    2.48000002
   13.82250023  136.86599731    0.50000000    2.48000002
   13.82555580  132.94599915    0.47999999    2.50000000
   13.82888889  131.53700256    0.55000001    2.50000000
   13.83222198  136.07099915    0.56999999    2.48000002
   13.83472157  136.25900269    0.55000001    2.50000000
   13.83611107  134.07499695    0.55000001    2.50000000
   13.83916664  132.63000488    0.55000001    2.50000000
   13.84249973  135.15899658    0.50000000    2.50000000
   13.84583282  142.11500549    0.50000000    2.50000000
   13.84888840  137.63900757    0.51999998    2.50000000
   13.85222244  136.28199768    0.47999999    2.50000000
   13.85777855  136.28199768    0.46000001    2.50000000
   13.86194515  136.79899597    0.75000000    2.48000002
   13.86527824  128.64599609    0.55000001    2.50000000
   13.86777782  136.03999329    0.40000001    2.50000000
   13.86888885  139.00000000    0.40000001    2.50000000
   13.87222195  130.94700623    0.40000001    2.50000000
   13.87527752  130.29800415    0.47999999    2.50000000
   13.87861156  138.12100220    0.55000001    2.50000000
   13.88194466  128.38999939    0.69000000    2.50000000
   13.88500023  133.71600342    0.50000000    2.50000000
   13.88833332  137.06700134    0.47999999    2.50000000
   13.89166641  137.19799805    0.55000001    2.48000002
   13.89472198  128.96899414    0.55000001    2.48000002
   13.90083313  128.96899414    0.36000001    2.50000000
   13.90472221  137.44599915    0.36000001    2.50000000
   13.90805531  133.17900085    0.36000001    2.50000000
   13.91138840  128.17100525    0.36000001    2.50000000
   13.91444397  130.70199585    0.36000001    2.50000000
   13.91777802  131.63499451    0.36000001    2.50000000
   13.92111111  121.74400330    0.36000001    2.50000000
   13.92444515  138.74000549    0.40000001    2.50000000
   13.92750072  128.93099976    0.40000001    2.50000000
   13.93083382  130.07400513    0.40000001    2.50000000
   13.93416691  126.29199982    0.41999999    2.51999998
   13.93583298  131.06599426    0.44000000    2.50000000
   13.93750000  125.66799927    0.44000000    2.50000000
   13.94361115  125.66799927    0.52999997    2.50000000
   13.94777775  131.64100647    0.51999998    2.51999998
   13.95083332  121.65799713    0.51999998    2.50000000
   13.95416641  127.75800323    0.51999998    2.50000000
   13.95749950  125.39399719    0.95999998    2.51999998
   13.96055508  123.68599701    1.14999998    2.50000000
   13.96388912  126.91400146    1.14999998    2.51999998
   13.96722221  126.63899994    1.14999998    2.51999998
   13.96916580  119.19799805    1.14999998    2.51999998
   13.97083282  123.54100037    1.38000000    2.51999998
   13.97388840  128.40699768    1.38000000    2.51999998
   13.97722149  126.54399872    1.85000002    2.50000000
   13.98027706  122.20600128    1.88000000    2.50000000
   13.98638916  122.20600128    1.21000004    2.51999998
   13.99055576  127.92700195    1.21000004    2.51999998
   13.99388885  133.07800293    1.01999998    2.51999998
   13.99694443  128.23199463    0.92000002    2.51999998
   14.00027752  117.50399780    1.03999996    2.51999998
   14.00277805  122.94100189    1.03999996    2.51999998
   14.00388908  130.18099976    1.03999996    2.51999998
   14.00722218  119.96900177    1.64999998    2.51999998
   14.01055527  129.05599976    2.00000000    2.50000000
   14.01361084  133.36900330    1.98000002    2.50000000
   14.01694393  133.18699646    1.89999998    2.50000000
   14.02027798  121.76100159    1.80999994    2.50000000
   14.02333355  128.93600464    1.83000004    2.50000000
   14.02916622  128.93600464    1.55999994    2.50000000
   14.03333378  128.40699768    1.19000006    2.51999998
   14.03611183  128.48500061    1.00000000    2.51999998
   14.03722286  122.34300232    1.00000000    2.51999998
   14.04027843  137.11799622    0.86000001    2.51999998
   14.04361153  134.53500366    0.50000000    2.51999998
   14.04666710  132.20899963    0.47999999    2.51999998
   14.05000019  132.13000488    0.47999999    2.51999998
   14.05333328  133.83200073    0.47999999    2.51999998
   14.05638885  124.09500122    0.41999999    2.51999998
   14.05972195  129.43099976    0.38000000    2.51999998
   14.06305599  134.87899780    0.38000000    2.53999996
   14.06611156  126.80500031    0.40000001    2.51999998
   14.07222176  126.80500031    0.40000001    2.51999998
   14.07638836  137.05599976    0.40000001    2.51999998
   14.07944393  135.00300598    0.41999999    2.51999998
   14.08277798  137.40600586    0.41999999    2.51999998
   14.08583260  131.19400024    0.44000000    2.51999998
   14.08916664  142.02499390    0.44000000    2.51999998
   14.09249973  133.75300598    0.44000000    2.51999998
   14.09555531  143.47799683    0.46000001    2.51999998
   14.09888840  139.72900391    0.47999999    2.51999998
   14.10222244  138.71400452    0.51999998    2.51999998
   14.10305595  143.04699707    0.51999998    2.51999998
   14.10583401  127.56900024    0.51999998    2.51999998
   14.10888958  133.73699951    0.51999998    2.53999996
   14.11500072  133.73699951    0.56999999    2.53999996
   14.11916637  137.72200012    0.61000001    2.51999998
   14.12222195  138.07400513    0.56999999    2.51999998
   14.12555599  139.50999451    0.58999997    2.53999996
   14.12888908  132.47300720    0.61000001    2.53999996
   14.13194466  140.76499939    0.61000001    2.53999996
   14.13527775  138.42100525    0.61000001    2.53999996
   14.13638878  144.42999268    0.61000001    2.53999996
   14.13888836  143.53100586    0.63000000    2.51999998
   14.14194393  156.51699829    0.63000000    2.51999998
   14.14527798  154.99099731    0.64999998    2.53999996
   14.14833355  138.27400208    0.64999998    2.53999996
   14.15166664  144.89799500    0.61000001    2.53999996
   14.15777779  144.89799500    0.55000001    2.53999996
   14.16194439  157.80599976    0.50000000    2.53999996
   14.16527748  149.69500732    0.50000000    2.53999996
   14.16833401  164.42100525    0.44000000    2.53999996
   14.17000008  164.18899536    0.44000000    2.53999996
   14.17194462  154.70300293    0.41999999    2.53999996
   14.17527771  164.83200073    0.41999999    2.53999996
   14.17861176  162.77999878    0.40000001    2.53999996
   14.18166733  159.96600342    0.41999999    2.53999996
   14.18500042  147.75999451    0.44000000    2.53999996
   14.18805599  159.78799438    0.46000001    2.53999996
   14.19138908  155.73899841    0.46000001    2.53999996
   14.19472218  142.86399841    0.46000001    2.53999996
   14.20055580  142.86399841    0.47999999    2.53999996
   14.20472240  156.08900452    0.51999998    2.55999994
   14.20805550  148.65199280    0.55000001    2.55999994
   14.21111107  148.13900757    0.51999998    2.53999996
   14.21444416  141.95799255    0.51999998    2.53999996
   14.21777725  142.35000610    0.50000000    2.53999996
   14.22083282  154.56399536    0.52999997    2.53999996
   14.22416592  140.16400146    0.56999999    2.55999994
   14.22749996  148.36199951    0.52999997    2.53999996
   14.23083305  138.91400146    0.55000001    2.53999996
   14.23388958  152.92500305    0.58999997    2.53999996
   14.23666668  135.28900146    0.58999997    2.53999996
   14.23750019  151.09300232    0.58999997    2.53999996
   14.24361134  151.09300232    0.50000000    2.55999994
   14.24750042  144.81300354    0.41999999    2.55999994
   14.25083351  153.81700134    0.44000000    2.53999996
   14.25416660  139.00599670    0.44000000    2.55999994
   14.25722218  147.27099609    0.46000001    2.53999996
   14.26055527  144.97500610    0.46000001    2.53999996
   14.26361084  130.53900146    0.47999999    2.55999994
   14.26694393  137.13200378    0.41999999    2.53999996
   14.26999950  134.73899841    0.41999999    2.53999996
   14.27055550  141.79299927    0.41999999    2.53999996
   14.27388859  137.48699951    0.41999999    2.53999996
   14.27694416  148.13900757    0.40000001    2.53999996
   14.28027725  145.25700378    0.40000001    2.55999994
   14.28638935  145.25700378    0.40000001    2.55999994
   14.29055595  142.42399597    0.40000001    2.55999994
   14.29361153  145.42799377    0.40000001    2.55999994
   14.29694462  146.66099548    0.41999999    2.53999996
   14.30000019  144.56900024    0.44000000    2.55999994
   14.30333328  147.34100342    0.46000001    2.55999994
   14.30361176  148.10899353    0.46000001    2.55999994
   14.30694485  135.58799744    0.47999999    2.55999994
   14.31000042  133.67900085    0.47999999    2.55999994
   14.31333351  132.44299316    0.47999999    2.55999994
   14.31666660  137.32099915    0.47999999    2.55999994
   14.31972218  142.26300049    0.44000000    2.55999994
   14.32305527  134.61000061    0.46000001    2.55999994
   14.32916641  134.61000061    0.46000001    2.55999994
   14.33333302  136.06300354    0.47999999    2.55999994
   14.33666611  128.66700745    0.47999999    2.53999996
   14.33694458  129.98199463    0.47999999    2.53999996
   14.34027767  134.68099976    0.50000000    2.55999994
   14.34333324  121.10299683    0.51999998    2.55999994
   14.34666634  134.90699768    0.51999998    2.55999994
   14.35000038  137.21899414    0.51999998    2.55999994
   14.35305595  141.94799805    0.50000000    2.55999994
   14.35638905  139.92700195    0.47999999    2.55999994
   14.35972214  139.75000000    0.46000001    2.55999994
   14.36277771  136.21299744    0.44000000    2.55999994
   14.36611176  135.27900696    0.41999999    2.55999994
   14.37194443  135.27900696    0.40000001    2.55999994
   14.37611103  132.31500244    0.41999999    2.57999992
   14.37944412  133.25500488    0.40000001    2.57999992
   14.38249969  135.40499878    0.38000000    2.55999994
   14.38583279  133.97300720    0.38000000    2.57999992
   14.38916683  138.67900085    0.38000000    2.55999994
   14.39249992  129.49299622    0.38000000    2.55999994
   14.39555550  138.18400574    0.38000000    2.55999994
   14.39888859  134.93800354    0.40000001    2.55999994
   14.40194416  128.81500244    0.40000001    2.55999994
   14.40333271  134.35400391    0.40000001    2.55999994
   14.40555477  126.63600159    0.40000001    2.55999994
   14.40888882  128.38699341    0.38000000    2.55999994
   14.41499996  128.38699341    0.38000000    2.55999994
   14.41916656  133.23100281    0.38000000    2.55999994
   14.42222214  134.83700562    0.40000001    2.57999992
   14.42555618  129.69900513    0.40000001    2.55999994
   14.42861176  129.85800171    0.40000001    2.55999994
   14.43194485  132.99600220    0.40000001    2.57999992
   14.43527794  131.62100220    0.38000000    2.55999994
   14.43666649  132.37899780    0.38000000    2.55999994
   14.43861103  129.33000183    0.38000000    2.55999994
   14.44222260  136.09199524    0.38000000    2.55999994
   14.44527817  137.49200439    0.40000001    2.55999994
   14.44861126  139.51499939    0.40000001    2.55999994
   14.45194435  126.10299683    0.40000001    2.55999994
   14.45777798  126.10299683    0.40000001    2.57999992
   14.46194458  130.34800720    0.36000001    2.55999994
   14.46500015  131.94099426    0.38000000    2.55999994
   14.46833324  131.64100647    0.38000000    2.57999992
   14.46999931  129.80700684    0.38000000    2.57999992
   14.47194386  133.47599792    0.38000000    2.55999994
   14.47527695  127.66500092    0.38000000    2.55999994
   14.47833252  135.30900574    0.40000001    2.55999994
   14.48166656  138.27699280    0.40000001    2.57999992
   14.48500061  131.03399658    0.38000000    2.57999992
   14.48805618  129.52299500    0.40000001    2.57999992
   14.49138927  135.20300293    0.38000000    2.55999994
   14.49444485  133.57699585    0.34000000    2.57999992
   14.50055599  133.57699585    0.34000000    2.55999994
   14.50472260  131.38299561    0.36000001    2.57999992
   14.50777817  132.66000366    0.36000001    2.57999992
   14.51111126  137.41499329    0.38000000    2.57999992
   14.51444435  130.79400635    0.36000001    2.57999992
   14.51749992  130.09399414    0.38000000    2.55999994
   14.52083302  133.01100159    0.38000000    2.55999994
   14.52416611  129.07899475    0.38000000    2.57999992
   14.52722168  126.13500214    0.40000001    2.57999992
   14.53055573  124.17900085    0.38000000    2.57999992
   14.53361130  129.50300598    0.40000001    2.57999992
   14.53666687  124.74299622    0.40000001    2.57999992
   14.53722286  128.74000549    0.40000001    2.57999992
   14.54333401  128.74000549    0.41999999    2.57999992
   14.54750061  131.42900085    0.40000001    2.57999992
   14.55083370  129.24600220    0.40000001    2.57999992
   14.55388927  129.50100708    0.41999999    2.57999992
   14.55722237  122.84799957    0.40000001    2.59999990
   14.56055546  135.06700134    0.41999999    2.57999992
   14.56361103  127.35800171    0.41999999    2.57999992
   14.56694412  126.52999878    0.40000001    2.57999992
   14.57027817  130.45599365    0.40000001    2.57999992
   14.57055569  132.01499939    0.40000001    2.57999992
   14.57388878  127.84400177    0.41999999    2.57999992
   14.57694435  127.62599945    0.40000001    2.57999992
   14.58027744  127.27999878    0.40000001    2.57999992
   14.58638859  127.27999878    0.38000000    2.57999992
   14.59027767  127.41200256    0.38000000    2.57999992
   14.59361076  127.75599670    0.38000000    2.59999990
   14.59694386  126.25700378    0.38000000    2.59999990
   14.60000038  127.19000244    0.40000001    2.59999990
   14.60333347  125.68599701    0.40000001    2.59999990
   14.60388947  120.07499695    0.40000001    2.59999990
   14.60722256  129.56300354    0.40000001    2.59999990
   14.61027813  127.85500336    0.40000001    2.57999992
   14.61361122  126.01300049    0.44000000    2.59999990
   14.61666679  127.71800232    0.46000001    2.57999992
   14.61999989  128.45199585    0.46000001    2.57999992
   14.62333393  131.98300171    0.47999999    2.57999992
   14.62916660  131.98300171    0.50000000    2.57999992
   14.63333321  121.92600250    0.47999999    2.59999990
   14.63638878  126.99700165    0.50000000    2.59999990
   14.63722229  129.22500610    0.50000000    2.59999990
   14.64027786  132.40800476    0.50000000    2.57999992
   14.64333344  130.59899902    0.51999998    2.57999992
   14.64666653  131.23199463    0.52999997    2.57999992
   14.64999962  130.85600281    0.56999999    2.57999992
   14.65305519  131.26600647    0.58999997    2.57999992
   14.65638828  128.48599243    0.58999997    2.57999992
   14.65944386  128.90199280    0.58999997    2.57999992
   14.66277695  132.64300537    0.61000001    2.59999990
   14.66611099  127.98200226    0.61000001    2.59999990
   14.67194462  127.98200226    0.61000001    2.59999990
   14.67611122  121.67600250    0.63000000    2.59999990
   14.67944431  120.38999939    0.64999998    2.57999992
   14.68249989  127.16899872    0.64999998    2.59999990
   14.68583298  123.87100220    0.63000000    2.57999992
   14.68888855  118.78099823    0.63000000    2.57999992
   14.69222260  124.31099701    0.61000001    2.59999990
   14.69555569  127.40699768    0.61000001    2.59999990
   14.69861126  123.76100159    0.61000001    2.59999990
   14.70194435  123.83100128    0.58999997    2.59999990
   14.70388889  121.25399780    0.58999997    2.59999990
   14.70555496  122.65000153    0.58999997    2.59999990
   14.70861053  124.35800171    0.58999997    2.59999990
   14.71472168  124.35800171    0.56999999    2.59999990
   14.71888828  126.72200012    0.56999999    2.59999990
   14.72222137  119.75599670    0.56999999    2.57999992
   14.72527695  123.06199646    0.61000001    2.59999990
   14.72861099  123.27200317    0.61000001    2.59999990
   14.73194408  127.09500122    0.61000001    2.59999990
   14.73500061  118.51799774    0.63000000    2.59999990
   14.73722267  128.64399719    0.63000000    2.59999990
   14.73888874  121.78500366    0.61000001    2.59999990
   14.74194431  128.45599365    0.64999998    2.59999990
   14.74527836  122.60299683    0.64999998    2.59999990
   14.74833393  125.45200348    0.64999998    2.59999990
   14.75166702  127.63800049    0.67000002    2.59999990
   14.75777817  127.63800049    0.67000002    2.59999990
   14.76166630  128.70700073    0.64999998    2.59999990
   14.76500034  124.32499695    0.63000000    2.59999990
   14.76833344  122.41200256    0.58999997    2.59999990
   14.78527832  125.13899994    0.56999999    2.59999990
   14.78833389  123.39800262    0.56999999    2.59999990
   14.79138947  122.64399719    0.56999999    2.59999990
   14.79472256  126.64800262    0.56999999    2.59999990
   14.80083370  126.64800262    0.58999997    2.59999990
   14.80472279  120.46199799    0.61000001    2.59999990
   14.80805588  123.06600189    0.63000000    2.59999990
   14.81138897  120.86699677    0.63000000    2.59999990
   14.81444454  130.74699402    0.64999998    2.59999990
   14.81777763  117.66100311    0.64999998    2.59999990
   14.81861115  122.12500000    0.64999998    2.61999989
   14.82166672  124.47000122    0.64999998    2.59999990
   14.82499981  127.81999969    0.64999998    2.59999990
   14.82805538  129.12399292    0.67000002    2.59999990
   14.83138847  118.77899933    0.67000002    2.59999990
   14.83472157  123.75199890    0.67000002    2.61999989
   14.83777714  122.14600372    0.67000002    2.59999990
   14.84361076  122.14600372    0.69000000    2.61999989
   14.84777737  120.94799805    0.69000000    2.61999989
   14.85083389  123.55400085    0.67000002    2.59999990
   14.85194492  118.58399963    0.67000002    2.59999990
   14.85444450  122.19799805    0.67000002    2.59999990
   14.85777855  124.43599701    0.64999998    2.59999990
   14.86083412  111.26499939    0.63000000    2.59999990
   14.86416721  119.55899811    0.63000000    2.59999990
   14.86750031  119.70999908    0.63000000    2.59999990
   14.87055588  124.17600250    0.63000000    2.59999990
   14.87388897  121.33799744    0.63000000    2.59999990
   14.87722206  119.52700043    0.63000000    2.61999989
   14.88027763  117.59700012    0.64999998    2.61999989
   14.88638878  117.59700012    0.67000002    2.59999990
   14.89055538  126.11900330    0.64999998    2.61999989
   14.89388847  129.55000305    0.64999998    2.61999989
   14.89694405  124.66600037    0.64999998    2.61999989
   14.90027714  123.14700317    0.63000000    2.59999990
   14.90361118  119.63099670    0.63000000    2.59999990
   14.90666676  118.09600067    0.58999997    2.59999990
   14.90999985  114.22100067    0.55000001    2.61999989
   14.91305542  119.81300354    0.52999997    2.61999989
   14.91638851  117.79799652    0.51999998    2.61999989
   14.91861153  120.68900299    0.51999998    2.61999989
   14.92000008  122.45700073    0.51999998    2.61999989
   14.92333412  117.66799927    0.55000001    2.59999990
   14.92916679  117.66799927    0.55000001    2.61999989
   14.93333340  118.67400360    0.55000001    2.59999990
   14.93666649  123.90699768    0.55000001    2.61999989
   14.93972206  123.50599670    0.55000001    2.61999989
   14.94305515  123.89700317    0.56999999    2.61999989
   14.94638920  119.93699646    0.56999999    2.61999989
   14.94944477  120.28399658    0.56999999    2.61999989
   14.95194435  118.45800018    0.58999997    2.59999990
   14.95305538  115.63200378    0.58999997    2.59999990
   14.95638847  123.72000122    0.58999997    2.61999989
   14.95972157  116.66600037    0.61000001    2.61999989
   14.96277714  122.62000275    0.61000001    2.59999990
   14.96611118  116.35500336    0.63000000    2.61999989
   14.97222137  116.35500336    0.63000000    2.61999989
   14.97638798  114.44000244    0.63000000    2.61999989
   14.97944355  120.05000305    0.64999998    2.64000010
   14.98277760  119.60399628    0.64999998    2.61999989
   14.98527813  117.27700043    0.64999998    2.61999989
   14.98638916  118.14700317    0.64999998    2.61999989
   14.98972225  113.88200378    0.64999998    2.61999989
   14.99305534  122.84899902    0.64999998    2.61999989
   14.99611092  118.91200256    0.64999998    2.61999989
   14.99944496  114.18599701    0.64999998    2.61999989
   15.00277805  118.15000153    0.64999998    2.61999989
   15.00611115  122.15499878    0.64999998    2.61999989
   15.00916672  124.26200104    0.64999998    2.61999989
   15.01500034  124.26200104    0.64999998    2.61999989
   15.01916599  117.75399780    0.63000000    2.61999989
   15.02222157  116.62899780    0.64999998    2.61999989
   15.02555561  114.18199921    0.64999998    2.61999989
   15.02888870  115.30699921    0.64999998    2.61999989
   15.03194427  118.25299835    0.67000002    2.61999989
   15.03527832  123.26100159    0.67000002    2.61999989
   15.03833389  117.17199707    0.67000002    2.61999989
   15.04166698  107.77999878    0.69000000    2.61999989
   15.04500008  123.68599701    0.69000000    2.61999989
   15.04805565  119.92600250    0.69000000    2.61999989
   15.05138874  122.76300049    0.69000000    2.61999989
   15.05194473  117.89099884    0.67000002    2.61999989
   15.05777836  117.89099884    0.69000000    2.61999989
   15.06194496  124.48300171    0.70999998    2.61999989
   15.06500053  121.51799774    0.70999998    2.61999989
   15.06833363  118.01100159    0.73000002    2.61999989
   15.07166672  122.05000305    0.73000002    2.61999989
   15.07472229  126.24900055    0.73000002    2.61999989
   15.07805538  121.88200378    0.73000002    2.61999989
   15.08138847  119.71499634    0.73000002    2.61999989
   15.08444405  122.33499908    0.75000000    2.61999989
   15.08527756  117.61699677    0.75000000    2.61999989
   15.08805561  124.49700165    0.75000000    2.61999989
   15.09138870  126.08499908    0.75000000    2.64000010
   15.09472179  130.40499878    0.75000000    2.61999989
   15.10055637  130.40499878    0.75000000    2.61999989
   15.10472298  126.56300354    0.75000000    2.61999989
   15.10805607  130.20899963    0.75000000    2.61999989
   15.11111164  125.12500000    0.75000000    2.61999989
   15.11444473  128.83599854    0.75000000    2.61999989
   15.11777782  123.71099854    0.75000000    2.61999989
   15.11861134  125.39099884    0.75000000    2.61999989
   15.12111092  129.48300171    0.75000000    2.61999989
   15.12444496  124.45999908    0.75000000    2.61999989
   15.12777805  126.55000305    0.75000000    2.61999989
   15.13083363  128.17199707    0.75000000    2.61999989
   15.13416672  133.88900757    0.79000002    2.61999989
   15.13749981  140.25900269    0.79000002    2.64000010
   15.14361095  140.25900269    0.79000002    2.61999989
   15.14750004  139.10099792    0.79000002    2.61999989
   15.15083313  133.51100159    0.76999998    2.64000010
   15.15194416  142.63200378    0.76999998    2.64000010
   15.15472221  138.27699280    0.76999998    2.61999989
   15.15777779  135.98899841    0.75000000    2.64000010
   15.16111088  133.26800537    0.75000000    2.64000010
   15.16444397  125.19599915    0.75000000    2.61999989
   15.16750050  127.92199707    0.75000000    2.61999989
   15.17083359  128.77099609    0.75000000    2.61999989
   15.17388916  132.30499268    0.76999998    2.61999989
   15.17722225  129.57400513    0.76999998    2.61999989
   15.18055630  127.16899872    0.76999998    2.61999989
   15.18638897  127.16899872    0.79000002    2.61999989
   15.19055557  121.17700195    0.79000002    2.64000010
   15.19361115  121.80999756    0.80000001    2.61999989
   15.19694424  122.54499817    0.80000001    2.64000010
   15.20027733  125.36799622    0.80000001    2.61999989
   15.20333290  123.06099701    0.80000001    2.61999989
   15.20666695  119.44499969    0.81999999    2.61999989
   15.20972157  121.25499725    0.81999999    2.61999989
   15.21305561  125.79699707    0.81999999    2.61999989
   15.21638870  113.94899750    0.83999997    2.61999989
   15.21861076  116.44300079    0.83999997    2.64000010
   15.21999931  123.37799835    0.83999997    2.64000010
   15.22305489  119.20800018    0.86000001    2.61999989
   15.22916603  119.20800018    0.88000000    2.61999989
   15.23333359  119.76000214    0.89999998    2.64000010
   15.23666668  115.53700256    0.92000002    2.64000010
   15.23972225  121.12000275    0.92000002    2.64000010
   15.24305534  127.49400330    0.92000002    2.61999989
   15.24611092  122.73400116    0.94000000    2.64000010
   15.24944496  119.78199768    0.94000000    2.61999989
   15.25194454  120.41000366    0.92000002    2.61999989
   15.25333309  119.28900146    0.92000002    2.61999989
   15.25638866  120.08599854    0.92000002    2.64000010
   15.25972176  119.75299835    0.92000002    2.61999989
   15.26277733  119.38300323    0.92000002    2.61999989
   15.26611137  123.88200378    0.92000002    2.64000010
   15.27194405  123.88200378    0.92000002    2.61999989
   15.27611065  125.28500366    0.94000000    2.61999989
   15.37222195   -1.00000000   -1.00000000   -1.00000000
   15.59111118   -1.00000000   -1.00000000   -1.00000000
   15.77499962   -1.00000000   -1.00000000   -1.00000000
   15.82944393   85.35679626    4.90999985    2.57999992
   15.83277798  131.87899780    4.90999985    2.57999992
   15.83583260  132.74299622    4.90999985    2.57999992
   15.83916664  131.85699463    4.90999985    2.55999994
   15.84249973  132.41299438    4.90999985    2.55999994
   15.84555531  130.30099487    4.90999985    2.55999994
   15.84972191  130.30099487    4.90999985    2.59999990
   15.85388947  133.67500305    4.90999985    2.59999990
   15.85722256  129.91400146    4.90999985    2.57999992
   15.86027813  126.45300293    4.90999985    2.57999992
   15.86277771  135.70199585    4.90999985    2.55999994
   15.86416721  135.31199646    4.90999985    2.53999996
   15.86722279  132.73699951    4.90999985    2.55999994
   15.87055588  128.47799683    4.90999985    2.55999994
   15.87388897  131.29600525    4.90999985    2.57999992
   15.87694454  131.69700623    4.90999985    2.57999992
   15.88027763  131.01699829    4.90999985    2.55999994
   15.88361073  125.19300079    4.90999985    2.55999994
   15.88666630  126.29900360    4.90999985    2.57999992
   15.89277744  126.29900360    4.90999985    2.57999992
   15.89666653  123.97399902    4.90999985    2.57999992
   15.89999962  120.61799622    4.90999985    2.57999992
   15.90333271  118.68299866    4.90999985    2.57999992
   15.90638828  115.43800354    4.90999985    2.57999992
   15.90972137  128.12399292    4.90999985    2.59999990
   15.91305542  122.56500244    4.90999985    2.59999990
   15.91611099  127.93299866    4.90999985    2.59999990
   15.91944504  126.82099915    4.90999985    2.59999990
   15.92250061  122.66100311    4.90999985    2.59999990
   15.92583370  124.50099945    4.90999985    2.57999992
   15.92916679  126.23200226    4.90999985    2.59999990
   15.92972279  117.04799652    4.90999985    2.59999990
   15.93555546  117.04799652    4.90999985    2.57999992
   15.93972206  125.80699921    4.82999992    2.59999990
   15.94277763  118.95999908    4.71999979    2.59999990
   15.94611073  125.38600159    4.48999977    2.59999990
   15.94944477  125.54100037    4.05999994    2.61999989
   15.95249939  130.98199463    3.80999994    2.61999989
   15.95583344  134.31199646    3.70000005    2.64000010
   15.95888901  120.84500122    3.46000004    2.61999989
   15.96222210  123.80599976    3.43000007    2.64000010
   15.96305561  119.96399689    3.43000007    2.64000010
   15.96583271  122.47399902    3.32999992    2.61999989
   15.96916580  121.85700226    3.45000005    2.61999989
   15.97222137  126.22299957    3.68000007    2.61999989
   15.97833252  126.22299957    4.11999989    2.59999990
   15.98249912  122.18699646    4.34999990    2.61999989
   15.98555565  124.42600250    4.38999987    2.61999989
   15.98888874  121.11799622    4.53999996    2.59999990
   15.99222279  119.63800049    4.42999983    2.59999990
   15.99527836  124.13899994    4.67999983    2.59999990
   15.99638939  126.03500366    4.80000019    2.59999990
   15.99888897  123.72200012    4.90999985    2.59999990
   16.00222206  121.81900024    4.90999985    2.57999992
   16.00527763  127.26399994    4.90999985    2.57999992
   16.00861168  126.17900085    4.90999985    2.57999992
   16.01194382  127.55000305    4.90999985    2.57999992
   16.01499939  126.14600372    4.90999985    2.57999992
   16.02111053  126.14600372    4.90999985    2.55999994
   16.02527809  132.80999756    4.90999985    2.53999996
   16.02861023  130.82600403    4.90999985    2.51999998
   16.02972221  132.98899841    4.90999985    2.50000000
   16.03222275  128.57699585    4.90999985    2.50000000
   16.03555489  129.29499817    4.90999985    2.50000000
   16.03861046  130.17199707    4.90999985    2.50000000
   16.04194450  131.20300293    4.90999985    2.51999998
   16.04527664  127.43199921    4.90999985    2.53999996
   16.04833221  137.53799438    4.90999985    2.53999996
   16.05166626  130.46299744    4.90999985    2.53999996
   16.05499840  124.13899994    4.90999985    2.53999996
   16.05805397  123.37000275    4.90999985    2.55999994
   16.06388855  123.37000275    4.90999985    2.55999994
   16.06805611  132.71800232    4.90999985    2.53999996
   16.07139015  123.71900177    4.90999985    2.51999998
   16.07472229  127.78199768    4.90999985    2.51999998
   16.07777786  130.37300110    4.90999985    2.50000000
   16.08111191  126.28299713    4.90999985    2.46000004
   16.08444595  127.86499786    4.90999985    2.50000000
   16.08750153  124.72699738    4.90999985    2.51999998
   16.09083366  126.30100250    4.90999985    2.50000000
   16.09388924  124.04599762    4.90999985    2.50000000
   16.09638977  122.52100372    4.90999985    2.50000000
   16.09749985  118.75299835    4.90999985    2.51999998
   16.10083389  119.25700378    4.90999985    2.48000002
   16.10694504  119.25700378    4.90999985    2.50000000
   16.11111069  125.30000305    4.90999985    2.48000002
   16.11416626  124.78600311    4.90999985    2.48000002
   16.11750031  120.91100311    4.90999985    2.50000000
   16.12055588  127.35700226    4.90999985    2.51999998
   16.12388992  125.55999756    4.90999985    2.50000000
   16.12722206  127.40599823    4.90999985    2.48000002
   16.12972260  126.98799896    4.90999985    2.46000004
   16.13083267  124.27200317    4.90999985    2.48000002
   16.13416672  121.52700043    4.90999985    2.51999998
   16.13722229  119.70400238    4.90999985    2.57999992
   16.14055634  125.79599762    4.90999985    2.57999992
   16.14388847  121.32399750    4.90999985    2.57999992
   16.14972115  121.32399750    4.90999985    2.53999996
   16.15388870  129.28599548    4.90999985    2.51999998
   16.15694427  123.44599915    4.90999985    2.48000002
   16.16027832  136.31599426    4.90999985    2.46000004
   16.16305542  129.67999268    4.90999985    2.44000006
   16.16388893  127.49700165    4.90999985    2.44000006
   16.16722107  127.25599670    4.90999985    2.44000006
   16.17027664  131.55000305    4.90999985    2.50000000
   16.17361069  127.69300079    4.90999985    2.50000000
   16.17694473  125.97000122    4.90999985    2.48000002
   16.18000031  121.08999634    4.90999985    2.48000002
   16.18333244  118.97699738    4.90999985    2.48000002
   16.18666649  118.14299774    4.90999985    2.53999996
   16.19249916  118.14299774    4.90999985    2.59999990
   16.19666672  121.08100128    4.90999985    2.59999990
   16.20000076  120.68299866    4.90999985    2.57999992
   16.20305634  114.86299896    4.90999985    2.55999994
   16.20639038  127.52400208    4.90999985    2.59999990
   16.20972252  118.65499878    4.90999985    2.57999992
   16.21277809  119.78600311    4.90999985    2.59999990
   16.21611214  123.44899750    4.90999985    2.59999990
   16.21916771  120.64199829    4.90999985    2.57999992
   16.22249985  121.95300293    4.90999985    2.57999992
   16.22583389  128.43400574    4.90999985    2.55999994
   16.22888947  122.93599701    4.90999985    2.55999994
   16.22972298  119.30899811    4.90999985    2.53999996
   16.23527718  119.30899811    4.90999985    2.55999994
   16.23944473  124.40299988    4.90999985    2.55999994
   16.24277878  120.86599731    4.90999985    2.55999994
   16.24611092  123.08499908    4.90999985    2.53999996
   16.24916649  117.14099884    4.90999985    2.51999998
   16.25250053  117.77100372    4.90999985    2.55999994
   16.25583267  129.15499878    4.90999985    2.55999994
   16.25888824  126.21700287    4.90999985    2.53999996
   16.26222229  120.51200104    4.90999985    2.53999996
   16.26305580  127.04100037    4.90999985    2.53999996
   16.26583290  134.32000732    4.90999985    2.55999994
   16.26916695  123.19300079    4.90999985    2.50000000
   16.27249908  123.73500061    4.90999985    2.51999998
   16.27833366  123.73500061    4.90999985    2.48000002
   16.28249931  128.31300354    4.90999985    2.51999998
   16.28555489  122.34999847    4.90999985    2.53999996
   16.28888893  120.76999664    4.90999985    2.53999996
   16.29194450  123.86599731    4.90999985    2.57999992
   16.29527664  124.13899994    4.90999985    2.57999992
   16.29638863  121.22799683    4.90999985    2.59999990
   16.29888916  118.98300171    4.90999985    2.57999992
   16.30222130  119.02899933    4.90999985    2.57999992
   16.30555534  129.30599976    4.90999985    2.55999994
   16.30861092  118.56800079    4.90999985    2.57999992
   16.31194305  124.37699890    4.90999985    2.57999992
   16.31499863  130.25599670    4.90999985    2.55999994
   16.32111168  130.25599670    4.90999985    2.48000002
   16.32527924  132.17300415    4.90999985    2.39000010
   16.32833481  122.14800262    4.90999985    2.42000008
   16.32972336  130.94900513    4.90999985    2.46000004
   16.33194542  125.63800049    4.90999985    2.53999996
   16.33527756  136.70500183    4.90999985    2.48000002
   16.33861160  135.43800354    4.90999985    2.44000006
   16.34166718  137.05299377    4.90999985    2.40000010
   16.34500122  140.07299805    4.90999985    2.44000006
   16.34805679  137.82499695    4.90999985    2.46000004
   16.35138893  140.84599304    4.90999985    2.39000010
   16.35472298  142.72700500    4.90999985    2.39000010
   16.35777855  136.64500427    4.90999985    2.32999992
   16.36388969  136.64500427    4.90999985    2.42000008
   16.36805534  129.35400391    4.90999985    2.40000010
   16.37138939  127.95600128    4.90999985    2.44000006
   16.37444496  125.36100006    4.90999985    2.40000010
   16.37777710  129.28599548    4.90999985    2.53999996
   16.38111115  125.68399811    4.90999985    2.53999996
   16.38416672  127.77200317    4.90999985    2.57999992
   16.38750076  119.95300293    4.90999985    2.55999994
   16.39055634  122.38999939    4.90999985    2.57999992
   16.39388847  134.25399780    4.90999985    2.57999992
   16.39638901  125.89499664    4.90999985    2.55999994
   16.39749908  127.97299957    4.90999985    2.55999994
   16.40083313  115.91200256    4.90999985    2.55999994
   16.40666580  115.91200256    4.90999985    2.51999998
   16.41083336  129.57200623    4.90999985    2.53999996
   16.41416550  126.46399689    4.90999985    2.53999996
   16.41749954  123.69400024    4.90999985    2.51999998
   16.42055511  131.19900513    4.90999985    2.48000002
   16.42388916  131.81900024    4.90999985    2.44000006
   16.42722130  131.49899292    4.90999985    2.42000008
   16.42972183  132.14300537    4.90999985    2.44000006
   16.43055534  128.41299438    4.90999985    2.42000008
   16.43388748  137.20399475    4.90999985    2.44000006
   16.43722153  136.30599976    4.90999985    2.42000008
   16.44027710  129.05999756    4.90999985    2.46000004
   16.44361115  130.79699707    4.90999985    2.50000000
   16.44972038  130.79699707    4.90999985    2.46000004
   16.45361137  127.84799957    4.90999985    2.42000008
   16.45694542  130.69500732    4.90999985    2.42000008
   16.46027946  132.75000000    4.90999985    2.42000008
   16.46305656  136.58099365    4.90999985    2.40000010
   16.46361160  138.43899536    4.90999985    2.39000010
   16.46694565  145.21400452    4.90999985    2.36999989
   16.47027779  132.19400024    4.90999985    2.36999989
   16.47333336  132.92900085    4.90999985    2.44000006
   16.47666740  128.92500305    4.90999985    2.44000006
   16.47972298  131.21499634    4.90999985    2.51999998
   16.48305511  126.94200134    4.90999985    2.48000002
   16.48638916  136.71000671    4.90999985    2.46000004
   16.49250031  136.71000671    4.90999985    2.40000010
   16.49666786  135.04299927    4.90999985    2.44000006
   16.49972153  147.32000732    4.90999985    2.40000010
   16.50305557  133.40299988    4.90999985    2.32999992
   16.50638962  136.06900024    4.90999985    2.34999990
   16.50944519  142.27099609    4.90999985    2.36999989
   16.51277733  136.86500549    4.90999985    2.40000010
   16.51611137  128.22000122    4.90999985    2.46000004
   16.51916695  137.39199829    4.90999985    2.50000000
   16.52249908  130.12699890    4.90999985    2.50000000
   16.52555466  127.77100372    4.90999985    2.50000000
   16.52888870  129.24000549    4.90999985    2.50000000
   16.52972221  130.27699280    4.90999985    2.50000000
   16.53527641  130.27699280    4.90999985    2.48000002
   16.53944397  129.87199402    4.90999985    2.46000004
   16.54277802  122.24900055    4.90999985    2.46000004
   16.54583359  127.11900330    4.90999985    2.48000002
   16.54916573  133.99099731    4.90999985    2.44000006
   16.55249977  131.80400085    4.90999985    2.44000006
   16.55555534  144.80200195    4.90999985    2.46000004
   16.55888748  128.24000549    4.90999985    2.40000010
   16.56194305  133.51899719    4.90999985    2.42000008
   16.56305504  129.36199951    4.90999985    2.46000004
   16.56555557  130.97900391    4.90999985    2.46000004
   16.56888962  128.88299561    4.90999985    2.46000004
   16.57222366  128.92399597    4.90999985    2.48000002
   16.57805634  128.92399597    4.90999985    2.44000006
   16.58222389  137.41499329    4.90999985    2.44000006
   16.58555603  142.95500183    4.90999985    2.40000010
   16.58889008  140.46499634    4.90999985    2.42000008
   16.59194565  134.58200073    4.90999985    2.42000008
   16.59527779  134.80499268    4.90999985    2.44000006
   16.59638977  139.17799377    4.90999985    2.44000006
   16.59861183  127.30300140    4.90999985    2.46000004
   16.60194397  121.21299744    4.90999985    2.48000002
   16.60527802  125.00199890    4.90999985    2.48000002
   16.60833359  127.48500061    4.90999985    2.51999998
   16.61166763  122.20899963    4.90999985    2.51999998
   16.61499977  131.27699280    4.90999985    2.50000000
   16.62111092  131.27699280    4.90999985    2.53999996
   16.62500000  126.54599762    4.90999985    2.51999998
   16.62833405  139.21099854    4.90999985    2.51999998
   16.62972260  132.28900146    4.90999985    2.51999998
   16.63194466  139.85600281    4.90999985    2.50000000
   16.63527679  137.58599854    4.90999985    2.46000004
   16.63861084  129.41700745    4.90999985    2.51999998
   16.64166641  124.47100067    4.90999985    2.53999996
   16.64500046  129.05200195    4.90999985    2.61999989
   16.64833260  123.24900055    4.90999985    2.59999990
   16.65138817  124.51100159    4.90999985    2.57999992
   16.65472221  113.72499847    4.90999985    2.59999990
   16.65777779  119.91999817    4.90999985    2.57999992
   16.66388893  119.91999817    4.90999985    2.61999989
   16.66805458  123.85800171    4.90999985    2.59999990
   16.67111015  125.81099701    4.90999985    2.61999989
   16.67444420  127.83100128    4.90999985    2.59999990
   16.67777634  127.43099976    4.90999985    2.57999992
   16.68083191  118.11699677    4.90999985    2.57999992
   16.68416595  121.54900360    4.90999985    2.57999992
   16.68750000  114.02500153    4.90999985    2.55999994
   16.69055557  120.75000000    4.90999985    2.53999996
   16.69388771  129.57200623    4.90999985    2.51999998
   16.69638824  115.59500122    4.90999985    2.50000000
   16.69749832  122.72699738    4.90999985    2.51999998
   16.70055580  129.23500061    4.90999985    2.53999996
   16.70666695  129.23500061    4.90999985    2.48000002
   16.71083450  119.69899750    4.90999985    2.46000004
   16.71416664  129.97300720    4.90999985    2.50000000
   16.71722221  130.29699707    4.90999985    2.53999996
   16.72055626  125.69100189    4.90999985    2.53999996
   16.72361183  117.07199860    4.90999985    2.53999996
   16.72694588  127.71199799    4.90999985    2.51999998
   16.72972298  116.07099915    4.90999985    2.53999996
   16.73083305  116.68599701    4.90999985    2.51999998
   16.73388863  122.48600006    4.90999985    2.50000000
   16.73722267  116.55599976    4.90999985    2.50000000
   16.74027824  118.40100098    4.90999985    2.53999996
   16.74361229  120.30999756    4.90999985    2.50000000
   16.74944496  120.30999756    4.90999985    2.51999998
   16.75361061  126.32099915    4.90999985    2.55999994
   16.75694466  121.11499786    4.90999985    2.55999994
   16.76000023  129.82299805    4.90999985    2.51999998
   16.76305580  128.28999329    4.90999985    2.48000002
   16.76388931  129.67100525    4.90999985    2.50000000
   16.76694489  131.03300476    4.90999985    2.48000002
   16.77027702  140.82800293    4.90999985    2.48000002
   16.77333260  128.92199707    4.90999985    2.50000000
   16.77666664  134.43200684    4.90999985    2.53999996
   16.78000069  128.15699768    4.90999985    2.51999998
   16.78305435  125.99500275    4.90999985    2.51999998
   16.78638840  130.05499268    4.90999985    2.50000000
   16.79249954  130.05499268    4.90999985    2.51999998
   16.79638863  129.63099670    4.90999985    2.50000000
   16.79972076  128.94200134    4.90999985    2.48000002
   16.80305481  131.30900574    4.90999985    2.46000004
   16.80611038  125.82700348    4.90999985    2.46000004
   16.80944443  119.08000183    4.90999985    2.51999998
   16.81277657  120.08200073    4.90999985    2.51999998
   16.81583214  128.02400208    4.90999985    2.55999994
   16.81916809  119.61399841    4.90999985    2.50000000
   16.82222366  125.31800079    4.90999985    2.53999996
   16.82555580  116.73999786    4.90999985    2.53999996
   16.82888985  116.62599945    4.90999985    2.51999998
   16.82972336  122.37999725    4.90999985    2.51999998
   16.85055542  122.37999725    4.90999985    2.53999996
   16.85444450  125.14900208    4.90999985    2.48000002
   16.85777855  127.99700165    4.90999985    2.48000002
   16.86111069  130.23300171    4.90999985    2.51999998
   16.86305618  119.31099701    4.90999985    2.55999994
   16.86472321  124.42299652    4.90999985    2.55999994
   16.86777878  123.59500122    4.90999985    2.57999992
   16.87111092  121.08300018    4.90999985    2.57999992
   16.87444496  124.26399994    4.90999985    2.57999992
   16.87750053  120.68299866    4.90999985    2.57999992
   16.88083267  127.46900177    4.90999985    2.51999998
   16.88416672  128.02999878    4.90999985    2.51999998
   16.88722229  128.27000427    4.90999985    2.51999998
   16.89333344  128.27000427    4.90999985    2.53999996
   16.89722252  121.59600067    4.90999985    2.51999998
   16.90055466  123.67199707    4.90999985    2.53999996
   16.90388870  112.23799896    4.90999985    2.55999994
   16.90694427  119.31800079    4.90999985    2.51999998
   16.91027832  116.86900330    4.90999985    2.51999998
   16.91361046  124.29699707    4.90999985    2.53999996
   16.91666603  112.44699860    4.90999985    2.55999994
   16.92000008  122.70899963    4.90999985    2.53999996
   16.92305565  116.37899780    4.90999985    2.51999998
   16.92638779  121.98500061    4.90999985    2.53999996
   16.92972183  121.33499908    4.90999985    2.55999994
   16.93027687  122.46399689    4.90999985    2.55999994
   16.93610954  122.46399689    4.90999985    2.51999998
   16.94027710  119.50399780    4.90999985    2.53999996
   16.94333267  132.32699585    4.90999985    2.53999996
   16.94666672  127.77600098    4.90999985    2.53999996
   16.95000076  135.44000244    4.90999985    2.50000000
   16.95305634  132.14700317    4.90999985    2.50000000
   16.95639038  121.05500031    4.90999985    2.51999998
   16.95944595  126.47799683    4.90999985    2.53999996
   16.96277809  124.94599915    4.90999985    2.50000000
   16.96361160  122.17500305    4.90999985    2.50000000
   16.96638870  129.14399719    4.90999985    2.50000000
   16.96972275  131.02200317    4.90999985    2.48000002
   16.97277832  130.38900757    4.90999985    2.46000004
   16.97888947  130.38900757    4.90999985    2.46000004
   16.98305511  121.97399902    4.90999985    2.46000004
   16.98611069  121.45500183    4.90999985    2.50000000
   16.98944473  112.32499695    4.90999985    2.50000000
   16.99277878  121.73000336    4.90999985    2.51999998
   16.99583435  119.82399750    4.90999985    2.50000000
   16.99694443  116.93299866    4.90999985    2.50000000
   16.99944496  125.99500275    4.90999985    2.51999998
   17.00277710  126.22499847    4.90999985    2.51999998
   17.00583267  121.07099915    4.90999985    2.50000000
   17.00916672  124.00599670    4.90999985    2.50000000
   17.01250076  120.76899719    4.90999985    2.51999998
   17.01555634  128.56500244    4.90999985    2.50000000
   17.02166557  128.56500244    4.90999985    2.46000004
   17.02583313  130.28799438    4.90999985    2.48000002
   17.02916718  125.51699829    4.90999985    2.53999996
   17.03027725  108.80999756    4.90999985    2.53999996
   17.03277779  119.37500000    4.90999985    2.53999996
   17.03610992  115.37899780    4.90999985    2.53999996
   17.03916550  117.35700226    4.90999985    2.53999996
   17.04249954  115.91899872    4.90999985    2.53999996
   17.04583359  121.62400055    4.90999985    2.55999994
   17.04888916  122.37200165    4.90999985    2.51999998
   17.05222130  120.27500153    4.90999985    2.53999996
   17.05527687  116.52899933    4.90999985    2.53999996
   17.05861092  123.91000366    4.90999985    2.51999998
   17.06444359  123.91000366    4.90999985    2.57999992
   17.06861115  121.25700378    4.90999985    2.59999990
   17.07194519  123.31400299    4.90999985    2.59999990
   17.07500076  114.76100159    4.61999989    2.59999990
   17.07833481  120.99700165    4.59999990    2.59999990
   17.08166695  129.36599731    4.32999992    2.59999990
   17.08472252  123.09999847    4.90999985    2.57999992
   17.08805656  123.21800232    4.90999985    2.59999990
   17.09138870  125.62400055    4.90999985    2.57999992
   17.09444427  125.74500275    4.07999992    2.59999990
   17.09694481  128.73100281    4.90999985    2.57999992
   17.09805679  115.94599915    4.90999985    2.57999992
   17.10138893  119.33000183    4.90999985    2.55999994
   17.10750008  119.33000183    4.90999985    2.59999990
   17.11138916  121.40699768    4.69999981    2.59999990
   17.11472321  118.38899994    4.15999985    2.59999990
   17.11805534  112.58899689    4.90999985    2.57999992
   17.12111092  127.94100189    4.90999985    2.53999996
   17.12444496  124.33699799    4.90999985    2.57999992
   17.12777710  120.83300018    4.90999985    2.59999990
   17.13027763  117.86799622    3.59999990    2.61999989
   17.13138962  113.08399963    4.17999983    2.59999990
   17.13472176  110.40000153    4.90999985    2.59999990
   17.13777733  119.54699707    4.90999985    2.59999990
   17.14111137  108.76899719    4.90999985    2.57999992
   17.14444351  115.00700378    4.90999985    2.59999990
   17.15027809  115.00700378    4.90999985    2.59999990
   17.15444374  120.88200378    4.80999994    2.59999990
   17.15749931  118.78500366    4.90999985    2.59999990
   17.16083336  120.82499695    4.90999985    2.59999990
   17.16361046  119.17199707    4.90999985    2.55999994
   17.16444397  124.09799957    4.90999985    2.55999994
   17.16777802  124.26899719    4.90999985    2.55999994
   17.17083359  119.79599762    4.90999985    2.57999992
   17.17416573  117.07499695    4.90999985    2.57999992
   17.17749977  121.83799744    4.90999985    2.57999992
   17.18055534  125.73899841    4.90999985    2.59999990
   17.18388748  115.75199890    4.90999985    2.57999992
   17.18722153  122.02200317    4.90999985    2.55999994
   17.19305420  122.02200317    4.90999985    2.51999998
   17.19722176  121.67900085    4.90999985    2.46000004
   17.20055580  130.98599243    4.90999985    2.42000008
   17.20361137  124.63800049    4.90999985    2.40000010
   17.20694542  120.79599762    4.90999985    2.48000002
   17.21000099  115.48999786    4.90999985    2.51999998
   17.21333504  126.72699738    4.90999985    2.48000002
   17.21666718  116.61499786    4.90999985    2.51999998
   17.21972275  125.16999817    4.90999985    2.53999996
   17.22305679  129.49899292    4.90999985    2.53999996
   17.22638893  124.00000000    4.90999985    2.50000000
   17.22944450  121.15599823    4.90999985    2.50000000
   17.23027802  119.44999695    4.90999985    2.50000000
   17.23583412  119.44999695    4.90999985    2.40000010
   17.23999977  118.04699707    4.90999985    2.50000000
   17.24333382  124.62200165    4.90999985    2.48000002
   17.24638939  108.54499817    4.90999985    2.48000002
   17.24972153  110.88899994    4.90999985    2.57999992
   17.25305557  115.37200165    4.90999985    2.57999992
   17.25611115  111.81700134    4.90999985    2.57999992
   17.25944519  117.02799988    4.90999985    2.57999992
   17.26277733  129.63800049    4.90999985    2.50000000
   17.26361084  125.14499664    4.90999985    2.50000000
   17.26611137  125.43800354    4.90999985    2.48000002
   17.26944351  123.00499725    4.90999985    2.48000002
   17.27277756  117.28099823    4.90999985    2.50000000
   17.27888870  117.28099823    4.90999985    2.55999994
   17.28277779  121.54900360    4.90999985    2.57999992
   17.28610992  116.28700256    4.90999985    2.57999992
   17.28944397  116.61699677    4.90999985    2.59999990
   17.29249954  119.38099670    4.90999985    2.57999992
   17.29583359  120.15399933    4.90999985    2.59999990
   17.29694366  117.67600250    4.90999985    2.57999992
   17.29944420  125.10099792    4.90999985    2.53999996
   17.30277634  116.93800354    4.90999985    2.51999998
   17.30611038  121.49199677    4.90999985    2.51999998
   17.30916595  119.49400330    4.90999985    2.51999998
   17.31250000  113.50700378    4.90999985    2.51999998
   17.31583214  115.91500092    4.90999985    2.53999996
   17.32166672  115.91500092    4.90999985    2.55999994
   17.32583427  114.11499786    4.90999985    2.55999994
   17.32888985  113.79499817    4.90999985    2.55999994
   17.33027840  107.51399994    4.90999985    2.55999994
   17.33250046  114.02899933    4.90999985    2.57999992
   17.33583450  120.92900085    4.90999985    2.57999992
   17.33916664  116.90000153    4.90999985    2.55999994
   17.34222221  120.28500366    4.90999985    2.55999994
   17.34555626  119.20400238    4.90999985    2.57999992
   17.34889030  117.61699677    4.90999985    2.51999998
   17.35194397  114.94200134    4.90999985    2.50000000
   17.35527802  111.75800323    4.90999985    2.55999994
   17.35861206  117.63200378    4.90999985    2.53999996
   17.36444473  117.63200378    4.90999985    2.53999996
   17.36861038  124.16300201    4.90999985    2.53999996
   17.37194443  115.33799744    4.90999985    2.53999996
   17.37500000  121.87899780    4.90999985    2.55999994
   17.37833405  114.96600342    4.90999985    2.53999996
   17.38166618  121.61499786    4.90999985    2.53999996
   17.38472176  118.01499939    4.90999985    2.57999992
   17.38805580  114.04100037    4.90999985    2.55999994
   17.39111137  116.00000000    4.90999985    2.59999990
   17.39444351  123.39099884    4.90999985    2.59999990
   17.39694405  112.90899658    4.90999985    2.57999992
   17.39805603  118.88300323    4.90999985    2.57999992
   17.40138817  123.22599792    4.90999985    2.57999992
   17.40722275  123.22599792    4.90999985    2.55999994
   17.41138840  118.23200226    4.90999985    2.53999996
   17.41472244  115.68599701    4.90999985    2.59999990
   17.41777802  112.30000305    4.90999985    2.57999992
   17.42111015  126.18299866    4.90999985    2.55999994
   17.42444420  118.02899933    4.90999985    2.53999996
   17.42749977  120.52700043    4.90999985    2.55999994
   17.43027687  117.87200165    4.90999985    2.55999994
   17.43111038  124.11000061    4.90999985    2.57999992
   17.43444443  121.70200348    4.90999985    2.57999992
   17.43777657  111.76799774    4.90999985    2.57999992
   17.44083214  123.27500153    4.90999985    2.57999992
   17.44416618  129.49600220    4.90999985    2.53999996
   17.45027924  129.49600220    4.90999985    2.50000000
   17.45416832  124.30899811    4.90999985    2.50000000
   17.45750046  124.41100311    4.90999985    2.51999998
   17.46083450  116.65599823    4.90999985    2.50000000
   17.46361160  107.34500122    4.90999985    2.57999992
   17.46416664  110.83699799    4.90999985    2.57999992
   17.46750069  121.93800354    4.32999992    2.59999990
   17.47055626  114.02300262    4.90999985    2.57999992
   17.47389030  122.87400055    4.90999985    2.57999992
   17.47722244  112.74600220    4.90999985    2.57999992
   17.48027802  119.83000183    4.90999985    2.59999990
   17.48361206  118.79100037    4.53000021    2.59999990
   17.48694420  112.82700348    4.90999985    2.59999990
   17.49305534  112.82700348    4.90999985    2.57999992
   17.49722290  120.53099823    4.90999985    2.53999996
   17.50027847  127.31900024    4.90999985    2.57999992
   17.50361061  119.61199951    4.46999979    2.59999990
   17.50666618  117.80899811    4.36999989    2.59999990
   17.51000023  114.45500183    4.07999992    2.61999989
   17.51333427  115.56600189    3.84999990    2.61999989
   17.51638794  116.11799622    4.26999998    2.59999990
   17.51972198  114.03900146    3.39000010    2.61999989
   17.52305603  118.83499908    3.45000005    2.61999989
   17.52611160  118.47599792    3.73000002    2.61999989
   17.52944374  115.21099854    4.17999983    2.61999989
   17.53027725  115.52200317    4.13999987    2.61999989
   17.53583336  115.52200317    4.13999987    2.61999989
   17.53999901  112.31400299    3.41000009    2.61999989
   17.54305458  121.36299896    2.75000000    2.61999989
   17.54638863  119.83000183    2.36999989    2.61999989
   17.54972076  115.02100372    2.71000004    2.61999989
   17.55277634  117.03900146    2.75000000    2.61999989
   17.55611038  113.36499786    1.46000004    2.64000010
   17.55944443  114.93299866    4.42999983    2.64000010
   17.56250000  114.16799927    3.23000002    2.61999989
   17.56361008  115.20600128    2.39000010    2.61999989
   17.56611061  112.89499664    2.30999994    2.64000010
   17.56944466  122.02300262    3.43000007    2.59999990
   17.57277870  116.46499634    3.50000000    2.59999990
   17.57861137  116.46499634    4.01999998    2.59999990
   17.58277893  123.30200195    4.73999977    2.57999992
   17.58611107  123.84300232    4.90999985    2.57999992
   17.58916664  119.15399933    4.90999985    2.55999994
   17.59250069  123.33499908    4.86999989    2.59999990
   17.59583473  113.56600189    4.90999985    2.57999992
   17.59694481  115.48400116    4.90999985    2.57999992
   17.59916687  122.47599792    4.19999981    2.59999990
   17.60250092  114.26599884    4.23999977    2.59999990
   17.60583305  119.40399933    4.90999985    2.57999992
   17.60888863  110.33899689    4.36999989    2.57999992
   17.61222267  117.91400146    3.48000002    2.59999990
   17.61527824  121.38500214    3.82999992    2.57999992
   17.62166595  121.38500214    4.67999983    2.57999992
   17.62555504  117.25199890    4.28999996    2.59999990
   17.62888908  115.30599976    4.26999998    2.57999992
   17.63027763  118.22000122    4.34999990    2.57999992
   17.63249969  110.18499756    4.15999985    2.57999992
   17.63583374  123.45999908    4.36999989    2.59999990
   17.63916588  123.44400024    3.91000009    2.57999992
   17.64222145  116.76000214    3.57999992    2.59999990
   17.64555550  111.19599915    4.53999996    2.57999992
   17.64861107  119.47399902    4.53000021    2.55999994
   17.65194321  117.35900116    3.20000005    2.59999990
   17.65527725  115.15499878    2.98000002    2.59999990
   17.65833282  112.86199951    4.36999989    2.57999992
   17.66444397  112.86199951    4.21999979    2.57999992
   17.66860962  117.68800354    4.88999987    2.55999994
   17.67166519  115.26000214    4.44999981    2.57999992
   17.67499924  110.79100037    4.71999979    2.57999992
   17.67805481  112.74500275    4.90999985    2.55999994
   17.68138885  117.45200348    4.90999985    2.57999992
   17.68472099  110.25000000    4.76000023    2.57999992
   17.68833160  110.25000000    3.07999992    2.59999990
   17.69138718  111.32099915    3.25000000    2.57999992
   17.69499969  115.54000092    3.28999996    2.59999990
   17.69694328  113.33799744    4.59999990    2.57999992
   17.69861031  112.61399841    4.90999985    2.53999996
   17.70194435  114.33200073    4.90999985    2.57999992
   17.70722389  114.33200073    3.95000005    2.57999992
   17.71138954  122.22200012    3.01999998    2.59999990
   17.71444511  119.55999756    3.43000007    2.59999990
   17.71777916  119.11199951    2.36999989    2.59999990
   17.72111130  117.03900146    3.09999990    2.59999990
   17.72416687  115.77500153    3.18000007    2.59999990
   17.72750092  116.41400146    2.32999992    2.59999990
   17.73027802  112.78399658    2.13000011    2.59999990
   17.73111153  112.81700134    2.32999992    2.59999990
   17.73444557  114.70600128    2.40000010    2.61999989
   17.73777771  108.23899841    2.30999994    2.61999989
   17.74083328  115.62100220    3.25000000    2.59999990
   17.74416733  115.74700165    3.20000005    2.57999992
   17.75749969  115.74700165    0.00000000    0.00000000
   17.76222229   72.84950256    0.00000000    0.00000000
