    HOUR (UT)   FLARE FACTOR    SKY TESTER    SUN TESTER
   10.81944466   -1.00000000   -1.00000000   -1.00000000
   10.84000015  266.51501465    4.90999985    1.53999996
   10.84361076  301.62600708    4.90999985    1.53999996
   10.84916592  280.94000244    4.90999985    1.55999994
   10.85249996  288.04501343    4.90999985    1.55999994
   10.85555553  287.12200928    4.90999985    1.55999994
   10.85888958  294.88900757    4.90999985    1.55999994
   10.86194515  274.56298828    4.90999985    1.58000004
   10.86527824  268.62500000    4.90999985    1.58000004
   10.86861134  265.10198975    4.90999985    1.60000002
   10.87166691  266.22000122    4.90999985    1.60000002
   10.87333393  261.57000732    4.90999985    1.60000002
   10.87527752  277.21301270    4.90999985    1.61000001
   10.87861156  260.76098633    4.90999985    1.61000001
   10.88166714  250.73899841    4.90999985    1.61000001
   10.88500023  232.62199402    4.90999985    1.61000001
   10.88833332  228.26800537    4.90999985    1.61000001
   10.89138889  238.09899902    4.90999985    1.63000000
   10.89472198  235.20500183    4.90999985    1.63000000
   10.89805508  220.10499573    4.90999985    1.64999998
   10.90111065  236.01300049    4.90999985    1.64999998
   10.90444374  236.37100220    4.90999985    1.64999998
   10.90666676  236.44799805    4.90999985    1.64999998
   10.90805531  228.49699402    4.90999985    1.66999996
   10.91138840  229.34700012    4.90999985    1.66999996
   10.91444397  216.59300232    4.90999985    1.66999996
   10.91777802  213.05099487    4.90999985    1.69000006
   10.92111111  217.13600159    4.90999985    1.69000006
   10.92416668  189.81500244    4.90999985    1.69000006
   10.92750072  212.85200500    4.90999985    1.69000006
   10.93083382  199.52200317    4.90999985    1.71000004
   10.93388939  206.95899963    4.90999985    1.71000004
   10.93722248  205.17900085    4.90999985    1.71000004
   10.94000053  201.50300598    4.90999985    1.71000004
   10.94083309  193.19500732    4.90999985    1.71000004
   10.94416714  194.54400635    4.90999985    1.71000004
   10.94722271  177.82899475    4.90999985    1.71000004
   10.95055580  184.89700317    4.90999985    1.73000002
   10.95388889  188.38299561    4.90999985    1.73000002
   10.95694447  177.61300659    4.90999985    1.75000000
   10.96027756  189.83900452    4.90999985    1.75000000
   10.96361065  184.51199341    4.90999985    1.75000000
   10.96666622  177.84300232    4.90999985    1.75000000
   10.96999931  172.94400024    4.90999985    1.76999998
   10.97333336  176.46699524    4.90999985    1.76999998
   10.97361088  179.97700500    4.90999985    1.76999998
   10.97694397  174.16700745    4.90999985    1.76999998
   10.97999954  160.27699280    4.90999985    1.78999996
   10.98333359  167.81100464    4.90999985    1.78999996
   10.98666668  170.26300049    4.90999985    1.78999996
   10.98972225  164.76199341    4.90999985    1.78999996
   10.99305534  172.63299561    4.90999985    1.78999996
   10.99638939  165.33399963    4.90999985    1.78999996
   10.99944496  171.71600342    4.90999985    1.78999996
   11.00277805  162.62300110    4.90999985    1.80999994
   11.00611115  160.78799438    4.90999985    1.80999994
   11.00666714  168.02200317    4.90999985    1.80999994
   11.00944424  169.44900513    4.90999985    1.80999994
   11.01277733  156.41499329    4.90999985    1.80999994
   11.01583290  154.75199890    4.90999985    1.80999994
   11.01916599  156.65800476    4.90999985    1.80999994
   11.02250004  162.82800293    4.90999985    1.83000004
   11.02555561  157.37699890    4.90999985    1.83000004
   11.02888870  164.43299866    4.90999985    1.85000002
   11.03222179  156.23500061    4.90999985    1.85000002
   11.03527832  160.80099487    4.90999985    1.85000002
   11.03861141  157.63600159    4.90999985    1.85000002
   11.04000092  158.42300415    4.90999985    1.86000001
   11.04194450  155.70799255    4.90999985    1.85000002
   11.04527855  156.75100708    4.90999985    1.86000001
   11.04861164  153.99800110    4.90999985    1.86000001
   11.05166721  157.34500122    4.90999985    1.86000001
   11.05500031  158.16299438    4.90999985    1.86000001
   11.05805588  155.69099426    4.90999985    1.88000000
   11.06138897  154.62100220    4.90999985    1.88000000
   11.06472206  166.41099548    4.90999985    1.88000000
   11.06777763  160.92199707    4.90999985    1.88000000
   11.07111073  153.62500000    4.90999985    1.88000000
   11.07333374  151.50900269    4.90999985    1.89999998
   11.07472229  154.47900391    4.90999985    1.89999998
   11.07805538  154.76800537    4.90999985    1.89999998
   11.08138847  150.23699951    4.90999985    1.89999998
   11.08444405  150.01800537    4.90999985    1.89999998
   11.08777714  145.47399902    4.90999985    1.91999996
   11.09111118  153.95500183    4.90999985    1.91999996
   11.09416676  144.73899841    4.90999985    1.91999996
   11.09749985  147.98699951    4.90999985    1.91999996
   11.10083389  146.42900085    4.90999985    1.91999996
   11.10388947  154.78500366    4.90999985    1.94000006
   11.10666752  151.34599304    4.90999985    1.94000006
   11.10750008  141.46699524    4.90999985    1.94000006
   11.11083412  151.43299866    4.90999985    1.94000006
   11.11388969  142.89500427    4.90999985    1.94000006
   11.11722279  142.05299377    4.90999985    1.94000006
   11.12055588  148.31100464    4.90999985    1.96000004
   11.12361145  144.75999451    4.90999985    1.96000004
   11.12694454  159.72300720    4.90999985    1.98000002
   11.13027763  150.58299255    4.90999985    1.96000004
   11.13333321  142.79299927    4.90999985    1.98000002
   11.13666630  146.25300598    4.90999985    1.98000002
   11.13972187  145.52499390    4.90999985    1.98000002
   11.14027786  161.37800598    4.90999985    1.98000002
   11.14361095  149.33200073    4.90999985    1.98000002
   11.14666653  141.84500122    4.90999985    1.98000002
   11.14999962  146.42799377    4.90999985    1.98000002
   11.15333271  142.69799805    4.90999985    2.00000000
   11.15638828  140.67399597    4.90999985    2.00000000
   11.15972137  139.77299500    4.90999985    1.98000002
   11.16305542  145.38999939    4.90999985    2.00000000
   11.16611099  143.65600586    4.90999985    2.00000000
   11.16944504  146.66200256    4.90999985    2.00000000
   11.17277813  144.83599854    4.90999985    2.00000000
   11.17361164  148.56199646    4.90999985    2.00000000
   11.17638874  146.07899475    4.90999985    2.00000000
   11.17944431  144.02999878    4.90999985    2.00000000
   11.18277836  144.70199585    4.90999985    2.01999998
   11.18611145  144.07099915    4.90999985    2.01999998
   11.18916702  145.21299744    4.90999985    2.01999998
   11.19250011  145.44000244    4.90999985    2.01999998
   11.19583321  140.83799744    4.90999985    2.01999998
   11.19888878  141.59700012    4.90999985    2.03999996
   11.20222187  146.75799561    4.90999985    2.03999996
   11.20527744  144.07899475    4.90999985    2.03999996
   11.20694447  147.40899658    4.90999985    2.03999996
   11.20916653  143.42500305    4.90999985    2.03999996
   11.21249962  143.34599304    4.90999985    2.03999996
   11.21555519  147.19500732    4.90999985    2.03999996
   11.21888828  147.90100098    4.90999985    2.05999994
   11.22194386  144.07600403    4.90999985    2.05999994
   11.22527695  148.02699280    4.90999985    2.05999994
   11.22861099  154.85899353    4.90999985    2.05999994
   11.23166656  149.08399963    4.90999985    2.07999992
   11.23500061  141.03199768    4.90999985    2.05999994
   11.23833370  143.22000122    4.90999985    2.05999994
   11.24027824  155.69200134    4.90999985    2.05999994
   11.24194431  142.22300720    4.90999985    2.07999992
   11.24527836  139.24899292    4.90999985    2.05999994
   11.24833393  153.44000244    4.90999985    2.07999992
   11.25166702  167.41099548    4.90999985    2.07999992
   11.25472260  154.34800720    4.90999985    2.09999990
   11.25805569  166.99400330    4.90999985    2.09999990
   11.26138878  148.74299622    4.90999985    2.09999990
   11.26444435  158.04100037    4.90999985    2.09999990
   11.26777744  156.29800415    4.90999985    2.09999990
   11.27111053  151.97900391    4.90999985    2.09999990
   11.27361107  168.96499634    4.90999985    2.09999990
   11.27472210  151.31199646    4.90999985    2.09999990
   11.27777767  144.46800232    4.90999985    2.09999990
   11.28111076  134.08099365    4.90999985    2.09999990
   11.28444481  144.80799866    4.90999985    2.11999989
   11.28750038  140.98500061    4.90999985    2.09999990
   11.29083347  148.74499512    4.90999985    2.09999990
   11.29416752  157.00799561    4.90999985    2.11999989
   11.29722309  150.25399780    4.90999985    2.11999989
   11.30055618  156.07499695    4.90999985    2.11999989
   11.30361176  150.88000488    4.90999985    2.11999989
   11.30694485  152.66799927    4.90999985    2.11999989
   11.30749989  146.81500244    4.90999985    2.11999989
   11.31055546  162.87399292    4.90999985    2.11999989
   11.31388950  147.26300049    4.90999985    2.13000011
   11.31722260  150.77000427    4.90999985    2.13000011
   11.32027817  144.27999878    4.90999985    2.13000011
   11.32361126  146.83999634    4.90999985    2.13000011
   11.32694435  142.26300049    4.90999985    2.13000011
   11.32999992  139.11300659    4.90999985    2.13000011
   11.33333302  138.84800720    4.90999985    2.15000010
   11.33638859  136.27200317    4.90999985    2.15000010
   11.33972168  137.87199402    4.90999985    2.15000010
   11.34083271  136.92300415    4.90999985    2.15000010
   11.34305477  132.82099915    4.90999985    2.15000010
   11.34638882  139.15699768    4.90999985    2.15000010
   11.34972191  148.84899902    4.90999985    2.15000010
   11.35277843  138.83700562    4.90999985    2.15000010
   11.35611153  140.57099915    4.90999985    2.17000008
   11.35944462  143.56300354    4.90999985    2.17000008
   11.36250019  140.00999451    4.90999985    2.17000008
   11.36583328  133.33099365    4.90999985    2.17000008
   11.36888885  138.95599365    4.90999985    2.15000010
   11.37222195  139.94900513    4.90999985    2.17000008
   11.37416649  136.30799866    4.90999985    2.17000008
   11.37583351  135.73500061    4.90999985    2.17000008
   11.37916660  140.79499817    4.90999985    2.17000008
   11.38249969  140.62800598    4.90999985    2.17000008
   11.38555527  140.59800720    4.90999985    2.17000008
   11.38888836  136.74000549    4.90999985    2.19000006
   11.39222240  137.58299255    4.90999985    2.19000006
   11.39527798  137.50500488    4.90999985    2.19000006
   11.39861107  138.07699585    4.90999985    2.19000006
   11.40166664  139.67999268    4.90999985    2.19000006
   11.40499973  138.95899963    4.90999985    2.19000006
   11.40749931  139.80099487    4.90999985    2.19000006
   11.40861034  140.58700562    4.90999985    2.19000006
   11.41194439  140.07600403    4.90999985    2.21000004
   11.41527748  137.47399902    4.90999985    2.21000004
   11.41833401  139.00700378    4.90999985    2.19000006
   11.42166710  138.91499329    4.90999985    2.21000004
   11.42500019  141.84100342    4.90999985    2.21000004
   11.42805576  136.29299927    4.90999985    2.21000004
   11.43138885  150.48599243    4.90999985    2.23000002
   11.43472195  149.99600220    4.90999985    2.23000002
   11.43777752  149.85400391    4.90999985    2.23000002
   11.44083309  141.96499634    4.90999985    2.23000002
   11.44138908  143.80799866    4.90999985    2.23000002
   11.44472218  149.54699707    4.90999985    2.23000002
   11.44805527  139.32899475    4.90999985    2.23000002
   11.45111084  148.44999695    4.90999985    2.23000002
   11.45444393  155.24299622    4.90999985    2.23000002
   11.45777798  135.58099365    4.90999985    2.23000002
   11.46083355  141.00700378    4.90999985    2.23000002
   11.46416664  142.67500305    4.90999985    2.23000002
   11.46722221  133.29400635    4.90999985    2.25000000
   11.47055531  134.69099426    4.90999985    2.23000002
   11.47388840  134.27099609    4.90999985    2.25000000
   11.47416592  137.77400208    4.90999985    2.25000000
   11.47722149  138.35000610    4.90999985    2.25000000
   11.48055553  137.00199890    4.90999985    2.25000000
   11.48361111  131.02400208    4.90999985    2.25000000
   11.48694515  135.59100342    4.90999985    2.25000000
   11.49027824  141.34500122    4.90999985    2.26999998
   11.49333382  146.11000061    4.90999985    2.25000000
   11.49666691  142.84199524    4.90999985    2.26999998
   11.49972248  136.75700378    4.90999985    2.26999998
   11.50305557  140.85099792    4.90999985    2.26999998
   11.50638866  135.37300110    4.90999985    2.26999998
   11.50749969  139.65499878    4.90999985    2.26999998
   11.50972176  143.66999817    4.90999985    2.26999998
   11.51305580  136.21499634    4.90999985    2.26999998
   11.51611137  138.06900024    4.90999985    2.26999998
   11.51944447  136.01400757    4.90999985    2.26999998
   11.52277756  134.30799866    4.90999985    2.26999998
   11.52583313  135.04600525    4.90999985    2.26999998
   11.52916622  132.74099731    4.90999985    2.26999998
   11.53222179  130.77000427    4.90999985    2.28999996
   11.53555584  135.64500427    4.90999985    2.28999996
   11.53888893  139.12800598    4.90999985    2.26999998
   11.54083347  137.65800476    4.90999985    2.28999996
   11.54250050  137.60400391    4.90999985    2.28999996
   11.54583359  140.30000305    4.90999985    2.28999996
   11.54888916  140.89999390    4.90999985    2.28999996
   11.55222225  142.95899963    4.90999985    2.28999996
   11.55555534  134.09300232    4.90999985    2.28999996
   11.55861092  126.31099701    4.90999985    2.28999996
   11.56194496  132.88200378    4.90999985    2.28999996
   11.56500053  137.12800598    4.90999985    2.28999996
   11.56833363  133.22799683    4.90999985    2.30999994
   11.57166672  134.48300171    4.90999985    2.30999994
   11.57416630  132.60299683    4.90999985    2.30999994
   11.57527733  133.91000366    4.90999985    2.30999994
   11.57861137  131.87899780    4.90999985    2.30999994
   11.58166695  130.82800293    4.90999985    2.32999992
   11.58500004  132.80799866    4.90999985    2.30999994
   11.58833313  137.25100708    4.90999985    2.30999994
   11.59138870  140.67199707    4.90999985    2.30999994
   11.59472179  138.42599487    4.90999985    2.30999994
   11.59777737  138.20899963    4.90999985    2.32999992
   11.60111141  138.97000122    4.90999985    2.32999992
   11.60444450  133.83200073    4.90999985    2.32999992
   11.60750008  134.00100708    4.90999985    2.32999992
   11.60805607  138.63800049    4.90999985    2.32999992
   11.61138916  138.99699402    4.90999985    2.32999992
   11.61444473  134.58799744    4.90999985    2.32999992
   11.61777782  137.10600281    4.90999985    2.32999992
   11.62111092  138.09899902    4.90999985    2.32999992
   11.62416649  133.96099854    4.90999985    2.32999992
   11.62750053  143.81700134    4.90999985    2.32999992
   11.63055611  140.71800232    4.90999985    2.34999990
   11.63388920  133.22999573    4.90999985    2.34999990
   11.63722229  132.51899719    4.90999985    2.34999990
   11.64027786  138.84599304    4.90999985    2.34999990
   11.64138889  134.28500366    4.90999985    2.34999990
   11.64388847  130.66600037    4.90999985    2.34999990
   11.64694405  134.73399353    4.90999985    2.34999990
   11.65027714  131.43299866    4.90999985    2.34999990
   11.65361118  133.05900574    4.90999985    2.34999990
   11.65666676  135.63099670    4.90999985    2.34999990
   11.65999985  135.64100647    4.90999985    2.34999990
   11.66305542  133.34800720    4.90999985    2.34999990
   11.66638851  132.61199951    4.90999985    2.34999990
   11.66972256  134.19200134    4.90999985    2.34999990
   11.67277813  132.86999512    4.90999985    2.36999989
   11.67472267  130.37899780    4.90999985    2.36999989
   11.67666721  133.19200134    4.90999985    2.36999989
   11.67972279  131.56900024    4.90999985    2.36999989
   11.68305588  126.45099640    4.90999985    2.36999989
   11.68638897  128.88800049    4.90999985    2.34999990
   11.68944454  131.10200500    4.90999985    2.36999989
   11.69277763  129.13099670    4.90999985    2.36999989
   11.69583321  133.83599854    4.90999985    2.36999989
   11.69916630  131.17900085    4.90999985    2.36999989
   11.70249939  138.52499390    4.90999985    2.36999989
   11.70555496  131.73899841    4.90999985    2.39000010
   11.70805550  133.59700012    4.90999985    2.36999989
   11.70944405  126.69499969    4.90999985    2.36999989
   11.71249962  130.25100708    4.90999985    2.39000010
   11.71583271  128.66700745    4.90999985    2.36999989
   11.71916580  137.25399780    4.90999985    2.39000010
   11.72222137  142.09599304    4.90999985    2.39000010
   11.72555542  137.43099976    4.90999985    2.36999989
   11.72861099  138.86000061    4.90999985    2.39000010
   11.73194408  136.53900146    4.90999985    2.39000010
   11.73527813  137.80499268    4.90999985    2.39000010
   11.73833370  138.52499390    4.90999985    2.39000010
   11.74138927  135.93499756    4.90999985    2.39000010
   11.74194431  130.20300293    4.90999985    2.39000010
   11.74499989  133.90499878    4.90999985    2.39000010
   11.74833393  134.99400330    4.90999985    2.39000010
   11.75166702  132.22000122    4.90999985    2.40000010
   11.75472260  138.51499939    4.90999985    2.39000010
   11.75805569  136.43499756    4.90999985    2.39000010
   11.76111126  136.60800171    4.90999985    2.40000010
   11.76444435  133.35000610    4.90999985    2.39000010
   11.76777744  129.93200684    4.90999985    2.40000010
   11.77083302  133.39500427    4.90999985    2.40000010
   11.77416611  129.13900757    4.90999985    2.40000010
   11.77472210  119.92500305    4.90999985    2.40000010
   11.77777767  129.68600464    4.90999985    2.40000010
   11.78083324  135.68299866    4.90999985    2.40000010
   11.78416729  133.90299988    4.90999985    2.40000010
   11.78750038  137.73599243    4.90999985    2.40000010
   11.79055595  130.98500061    4.90999985    2.40000010
   11.79388905  129.67700195    4.90999985    2.40000010
   11.79722309  139.77000427    4.90999985    2.42000008
   11.80027771  132.71299744    4.90999985    2.40000010
   11.80361176  127.30599976    4.90999985    2.42000008
   11.80666733  131.24400330    4.90999985    2.42000008
   11.80805588  134.36099243    4.90999985    2.42000008
   11.81055546  128.62300110    4.90999985    2.42000008
   11.81361103  128.08000183    4.90999985    2.42000008
   11.81694412  125.94300079    4.90999985    2.42000008
   11.82027817  130.16999817    4.90999985    2.40000010
   11.82333374  127.50700378    4.90999985    2.42000008
   11.82666683  126.98000336    4.90999985    2.42000008
   11.82999992  130.68800354    4.90999985    2.42000008
   11.83305550  125.36399841    4.90999985    2.42000008
   11.83638859  130.42300415    4.90999985    2.42000008
   11.83944416  127.31700134    4.90999985    2.42000008
   11.85666752  131.12699890    4.90999985    2.44000006
   11.85916710  131.31500244    4.90999985    2.44000006
   11.86250019  131.99800110    4.90999985    2.44000006
   11.86583328  127.31900024    4.90999985    2.44000006
   11.86888885  135.70399475    4.90999985    2.44000006
   11.87222195  126.99199677    4.90999985    2.46000004
   11.87527752  128.40499878    4.90999985    2.46000004
   11.87861156  127.36100006    4.90999985    2.46000004
   11.88194466  127.43599701    4.90999985    2.46000004
   11.88500023  126.27300262    4.90999985    2.46000004
   11.88833332  123.00800323    4.90999985    2.46000004
   11.88972187  121.11599731    4.90999985    2.46000004
   11.89194393  123.14600372    4.90999985    2.46000004
   11.89527798  119.73799896    4.90999985    2.46000004
   11.89833355  119.71199799    4.90999985    2.46000004
   11.90166664  121.49900055    4.90999985    2.46000004
   11.90472221  125.27200317    4.90999985    2.46000004
   11.90805531  124.29599762    4.90999985    2.46000004
   11.91138840  128.85800171    4.90999985    2.46000004
   11.91444397  133.33599854    4.90999985    2.46000004
   11.91777802  132.57499695    4.90999985    2.46000004
   11.92111111  131.40100098    4.90999985    2.46000004
   11.92333412  129.44099426    4.90999985    2.46000004
   11.92472267  127.98699951    4.90999985    2.46000004
   11.92805576  130.24400330    4.90999985    2.46000004
   11.93138885  132.19999695    4.90999985    2.46000004
   11.93444443  120.92500305    4.90999985    2.46000004
   11.93777752  127.12300110    4.90999985    2.48000002
   11.94083309  128.33099365    4.90999985    2.46000004
   11.94416714  130.16700745    4.90999985    2.46000004
   11.94750023  123.97000122    4.90999985    2.48000002
   11.95055580  119.50399780    4.90999985    2.46000004
   11.95388889  122.65499878    4.90999985    2.46000004
   11.95666695  126.72200012    4.90999985    2.46000004
   11.95749950  120.83300018    4.90999985    2.46000004
   11.96083355  129.48800659    4.90999985    2.46000004
   11.96416664  128.43499756    4.90999985    2.48000002
   11.96722221  124.96700287    4.90999985    2.46000004
   11.97055531  119.33899689    4.90999985    2.48000002
   11.97361088  122.96399689    4.90999985    2.48000002
   11.97694397  124.27400208    4.90999985    2.48000002
   11.98027706  125.83399963    4.90999985    2.48000002
   11.98333359  129.86799622    4.90999985    2.48000002
   11.98666668  130.00999451    4.90999985    2.48000002
   11.99000072  116.79799652    4.90999985    2.46000004
   11.99027824  128.69799805    4.90999985    2.46000004
   11.99361134  113.76300049    4.90999985    2.48000002
   11.99666691  122.39299774    4.90999985    2.48000002
   12.00000000  120.40000153    4.90999985    2.48000002
   12.00333309  127.54599762    4.90999985    2.48000002
   12.00638866  121.56900024    4.90999985    2.50000000
   12.00972176  133.17500305    4.90999985    2.50000000
   12.01305580  127.23699951    4.90999985    2.48000002
   12.01611137  119.79399872    4.90999985    2.48000002
   12.01944447  124.52799988    4.90999985    2.50000000
   12.02277756  131.96000671    4.90999985    2.50000000
   12.02333355  128.55400085    4.90999985    2.50000000
   12.02611065  128.22200012    4.90999985    2.48000002
   12.02944374  128.48399353    4.90999985    2.50000000
   12.03277779  127.85500336    4.90999985    2.50000000
   12.03583336  129.78700256    4.90999985    2.50000000
   12.03916740  132.13499451    4.90999985    2.50000000
   12.04222298  139.16299438    4.90999985    2.50000000
   12.04555607  135.34800720    4.90999985    2.50000000
   12.04888916  126.60800171    4.90999985    2.50000000
   12.05194473  125.66200256    4.90999985    2.50000000
   12.05527782  133.29400635    4.90999985    2.50000000
   12.05666733  126.92099762    4.90999985    2.50000000
   12.05888939  128.02799988    4.90999985    2.50000000
   12.06222248  127.75099945    4.90999985    2.50000000
   12.06527805  131.72900391    4.90999985    2.50000000
   12.06861115  128.02999878    4.90999985    2.50000000
   12.07194424  124.87799835    4.90999985    2.51999998
   12.07499981  128.33999634    4.90999985    2.50000000
   12.07833290  127.30000305    4.90999985    2.51999998
   12.08166695  127.33599854    4.90999985    2.51999998
   12.08472157  132.55299377    4.90999985    2.51999998
   12.08805561  128.07499695    4.90999985    2.51999998
   12.09000015  133.93099976    4.90999985    2.50000000
   12.09166622  129.80799866    4.90999985    2.51999998
   12.09499931  128.53799438    4.90999985    2.51999998
   12.09805489  129.31199646    4.90999985    2.51999998
   12.10138893  125.50299835    4.90999985    2.51999998
   12.10472298  133.03599548    4.90999985    2.51999998
   12.10777855  132.98899841    4.90999985    2.51999998
   12.11111164  132.66000366    4.90999985    2.51999998
   12.11444473  130.34800720    4.90999985    2.51999998
   12.11750031  134.01600647    4.90999985    2.51999998
   12.12083340  133.01499939    4.90999985    2.53999996
   12.12333393  129.39199829    4.90999985    2.51999998
   12.12444496  132.66200256    4.90999985    2.53999996
   12.12777805  131.87300110    4.90999985    2.51999998
   12.13111115  124.45300293    4.90999985    2.53999996
   12.13416672  128.04299927    4.90999985    2.53999996
   12.13749981  122.30999756    4.90999985    2.53999996
   12.14055538  130.45100403    4.90999985    2.53999996
   12.14388847  131.13699341    4.90999985    2.53999996
   12.14722252  131.49800110    4.90999985    2.53999996
   12.15027714  130.73300171    4.90999985    2.53999996
   12.15361118  129.26699829    4.90999985    2.53999996
   12.15666676  132.43400574    4.90999985    2.53999996
   12.15722179  126.16200256    4.90999985    2.53999996
   12.16055489  125.47699738    4.90999985    2.53999996
   12.16388893  130.48300171    4.90999985    2.53999996
   12.16694450  127.27200317    4.90999985    2.53999996
   12.17027855  123.34100342    4.90999985    2.53999996
   12.17333412  137.77999878    4.90999985    2.53999996
   12.17666721  129.85499573    4.90999985    2.53999996
   12.18000031  137.44700623    4.90999985    2.53999996
   12.18333340  130.58799744    4.90999985    2.53999996
   12.18638897  133.03799438    4.90999985    2.55999994
   12.18972206  131.85499573    4.90999985    2.55999994
   12.19000053  131.92500305    4.90999985    2.55999994
   12.19333363  129.41299438    4.90999985    2.53999996
   12.19666672  127.28600311    4.90999985    2.55999994
   12.19972229  131.86900330    4.90999985    2.55999994
   12.20305538  129.93299866    4.90999985    2.53999996
   12.20638847  126.23100281    4.90999985    2.53999996
   12.20944405  129.37899780    4.90999985    2.55999994
   12.21277714  126.92299652    4.90999985    2.55999994
   12.21611118  134.15499878    4.90999985    2.55999994
   12.21916580  130.77099609    4.90999985    2.55999994
   12.22249985  130.84100342    4.90999985    2.55999994
   12.22361088  126.43900299    4.90999985    2.55999994
   12.22583294  126.72699738    4.90999985    2.55999994
   12.22916603  131.25700378    4.90999985    2.55999994
   12.23249912  139.86799622    4.90999985    2.55999994
   12.23555565  132.66900635    4.90999985    2.55999994
   12.23888874  138.15699768    4.90999985    2.55999994
   12.24194431  135.91099548    4.90999985    2.55999994
   12.24527836  139.70599365    4.90999985    2.55999994
   12.24861145  135.28599548    4.90999985    2.55999994
   12.25166702  134.62399292    4.90999985    2.55999994
   12.25500011  130.08200073    4.90999985    2.55999994
   12.25694466  131.55799866    4.90999985    2.55999994
   12.25861073  133.96299744    4.90999985    2.55999994
   12.26194477  131.38800049    4.90999985    2.55999994
   12.26527786  134.89799500    4.90999985    2.55999994
   12.26833344  130.84800720    4.90999985    2.57999992
   12.27166653  130.71800232    4.90999985    2.57999992
   12.27472210  127.16699982    4.90999985    2.57999992
   12.27805519  129.39100647    4.90999985    2.57999992
   12.28138828  132.18099976    4.90999985    2.57999992
   12.28444481  128.08299255    4.90999985    2.57999992
   12.28777790  131.12500000    4.90999985    2.57999992
   12.29027843  127.52300262    4.90999985    2.57999992
   12.29138947  128.80799866    4.90999985    2.57999992
   12.29472256  133.18699646    4.90999985    2.57999992
   12.29777813  134.12399292    4.90999985    2.57999992
   12.30111122  134.94900513    4.90999985    2.57999992
   12.30444431  131.26499939    4.90999985    2.57999992
   12.30749989  135.55499268    4.90999985    2.57999992
   12.31083393  133.39399719    4.90999985    2.57999992
   12.31416702  133.25999451    4.90999985    2.57999992
   12.31722260  131.44900513    4.90999985    2.57999992
   12.32055569  137.50399780    4.90999985    2.59999990
   12.32361126  129.66400146    4.90999985    2.59999990
   12.32416630  130.59800720    4.90999985    2.59999990
   12.32750034  136.97900391    4.90999985    2.57999992
   12.33055592  131.30599976    4.90999985    2.59999990
   12.33388901  136.11199951    4.90999985    2.59999990
   12.33722210  128.65499878    4.90999985    2.59999990
   12.34027767  134.27600098    4.90999985    2.57999992
   12.34361076  137.62199402    4.90999985    2.59999990
   12.34694386  124.69799805    4.90999985    2.59999990
   12.35000038  128.36099243    4.90999985    2.59999990
   12.35333347  129.67599487    4.90999985    2.59999990
   12.35666752  140.56599426    4.90999985    2.59999990
   12.35722256  129.96699524    4.90999985    2.59999990
   12.36027813  130.89700317    4.90999985    2.59999990
   12.36361122  136.57099915    4.90999985    2.57999992
   12.36666679  133.72900391    4.90999985    2.59999990
   12.36999989  129.02299500    4.90999985    2.59999990
   12.37333393  136.48300171    4.90999985    2.59999990
   12.37638855  128.84300232    4.90999985    2.61999989
   12.37972260  127.97000122    4.90999985    2.59999990
   12.38277817  140.22200012    4.90999985    2.59999990
   12.38611126  129.84100342    4.90999985    2.59999990
   12.38944435  131.02299500    4.90999985    2.59999990
   12.39055538  133.41900635    4.90999985    2.59999990
   12.39277744  129.44200134    4.90999985    2.61999989
   12.39611053  127.24700165    4.90999985    2.61999989
   12.39916611  129.13400269    4.90999985    2.59999990
   12.40249920  122.80500031    4.90999985    2.59999990
   12.40583324  131.22700500    4.90999985    2.59999990
   12.40888882  128.00599670    4.90999985    2.59999990
   12.41222191  126.93499756    4.90999985    2.59999990
   12.41527748  126.80300140    4.90999985    2.61999989
   12.41861153  125.82499695    4.90999985    2.61999989
   12.42194462  131.71099854    4.90999985    2.59999990
   12.42388916  125.97799683    4.90999985    2.61999989
   12.42527771  121.19000244    4.90999985    2.61999989
   12.42861176  137.77900696    4.90999985    2.59999990
   12.43166733  132.00900269    4.90999985    2.61999989
   12.43500042  129.92199707    4.90999985    2.61999989
   12.43833351  136.02200317    4.90999985    2.61999989
   12.44138908  134.04899597    4.90999985    2.61999989
   12.44472218  133.15100098    4.90999985    2.59999990
   12.44805527  135.93600464    4.90999985    2.61999989
   12.45111084  132.32499695    4.90999985    2.61999989
   12.45444393  129.65699768    4.90999985    2.61999989
   12.45722198  137.59700012    4.90999985    2.61999989
   12.45805550  127.46399689    4.90999985    2.61999989
   12.46138859  124.91300201    4.90999985    2.61999989
   12.46444416  127.03600311    4.90999985    2.61999989
   12.46777725  127.34600067    4.90999985    2.61999989
   12.47111034  138.37800598    4.90999985    2.61999989
   12.47416592  127.17500305    4.90999985    2.61999989
   12.47749996  127.16500092    4.90999985    2.64000010
   12.48055553  131.77400208    4.90999985    2.61999989
   12.48388958  132.13499451    4.90999985    2.61999989
   12.48722267  133.94999695    4.90999985    2.61999989
   12.49027824  124.99299622    4.90999985    2.64000010
   12.49083328  123.57499695    4.90999985    2.64000010
   12.49416733  127.97699738    4.90999985    2.64000010
   12.49722290  130.35200500    4.90999985    2.64000010
   12.50055599  133.63699341    4.90999985    2.61999989
   12.50388908  133.63099670    4.90999985    2.61999989
   12.50694466  135.45599365    4.90999985    2.64000010
   12.51027775  134.41799927    4.90999985    2.61999989
   12.51361084  135.57800293    4.90999985    2.61999989
   12.51666641  130.41400146    4.90999985    2.64000010
   12.51999950  132.61500549    4.90999985    2.61999989
   12.52333355  133.19900513    4.90999985    2.61999989
   12.52416611  126.19799805    4.90999985    2.61999989
   12.52694416  135.60200500    4.90999985    2.64000010
   12.52999973  132.27699280    4.90999985    2.64000010
   12.53333378  130.65899658    4.90999985    2.64000010
   12.53666687  135.30299377    4.90999985    2.64000010
   12.53972244  130.19599915    4.90999985    2.64000010
   12.54305553  120.84400177    4.90999985    2.64000010
   12.54611111  126.43800354    4.90999985    2.64000010
   12.54944515  129.63900757    4.90999985    2.64000010
   12.55277824  126.55300140    4.90999985    2.64000010
   12.55583382  116.31800079    4.90999985    2.64000010
   12.55749989  136.88299561    4.90999985    2.64000010
   12.55972195  133.57000732    4.90999985    2.64000010
   12.56277752  133.55499268    4.90999985    2.64000010
   12.56611156  131.32800293    4.90999985    2.64000010
   12.56944466  129.62399292    4.90999985    2.64000010
   12.57250023  136.85400391    4.90999985    2.64000010
   12.57583332  135.62100220    4.90999985    2.64000010
   12.57888889  133.68200684    4.90999985    2.64000010
   12.58222198  131.74499512    4.90999985    2.64000010
   12.58555508  128.22000122    4.90999985    2.64000010
   12.58861065  128.47799683    4.90999985    2.64000010
   12.59083271  123.44100189    4.90999985    2.64000010
   12.59249973  125.43900299    4.90999985    2.64000010
   12.59555531  126.11699677    4.90999985    2.64000010
   12.59888840  120.97100067    4.90999985    2.64000010
   12.60222244  123.94899750    4.90999985    2.66000009
   12.60527802  128.26400757    4.90999985    2.66000009
   12.60861111  120.51200104    4.90999985    2.66000009
   12.61166668  117.38600159    4.90999985    2.66000009
   12.61500072  128.30999756    4.90999985    2.64000010
   12.61833382  124.12100220    4.90999985    2.64000010
   12.62138939  132.60800171    4.90999985    2.64000010
   12.62416649  129.77400208    4.90999985    2.66000009
   12.62527752  121.34400177    4.90999985    2.66000009
   12.62833309  137.03300476    4.90999985    2.66000009
   12.63166714  128.44400024    4.90999985    2.66000009
   12.63500023  129.96400452    4.90999985    2.66000009
   12.63805580  136.96899414    4.90999985    2.67000008
   12.64138889  126.68499756    4.90999985    2.66000009
   12.64444447  141.29200745    4.90999985    2.66000009
   12.64777756  137.68800354    4.90999985    2.66000009
   12.65111065  135.55000305    4.90999985    2.66000009
   12.65416622  135.82000732    4.90999985    2.66000009
   12.65749931  134.09300232    4.90999985    2.66000009
   12.65805531  125.39299774    4.90999985    2.66000009
   12.66111088  130.69099426    4.90999985    2.66000009
   12.66444397  132.81799316    4.90999985    2.64000010
   12.66777802  131.18400574    4.90999985    2.66000009
   12.67083359  120.55400085    4.90999985    2.67000008
   12.67416668  127.05400085    4.90999985    2.66000009
   12.67750072  135.78500366    4.90999985    2.66000009
   12.68055630  122.93299866    4.90999985    2.66000009
   12.68388939  141.12600708    4.90999985    2.66000009
   12.68722248  146.58500671    4.90999985    2.66000009
   12.69027805  142.76100159    4.90999985    2.66000009
   12.69083309  134.40600586    4.90999985    2.67000008
   12.69388866  132.64599609    4.90999985    2.66000009
   12.69694424  135.38900757    4.90999985    2.67000008
   12.70027733  133.91099548    4.90999985    2.67000008
   12.70361137  129.92100525    4.90999985    2.66000009
   12.70666695  133.42900085    4.90999985    2.67000008
   12.71000004  136.94000244    4.90999985    2.66000009
   12.71333313  128.33299255    4.90999985    2.67000008
   12.71638870  134.61700439    4.90999985    2.66000009
   12.71972179  133.49499512    4.90999985    2.66000009
   12.72277737  132.52999878    4.90999985    2.67000008
   12.72416592  136.39799500    4.90999985    2.66000009
   12.72666645  135.68899536    4.90999985    2.67000008
   12.72972202  133.37399292    4.90999985    2.67000008
   12.73305511  126.75399780    4.90999985    2.66000009
   12.73638916  126.10099792    4.90999985    2.67000008
   12.73944473  122.22100067    4.90999985    2.67000008
   12.74277782  132.87100220    4.90999985    2.67000008
   12.74611092  135.16700745    4.90999985    2.67000008
   12.74916649  136.89199829    4.90999985    2.67000008
   12.75249958  137.42500305    4.90999985    2.67000008
   12.75555515  132.53500366    4.90999985    2.67000008
   12.75749969  136.17999268    4.90999985    2.67000008
   12.75944424  135.44900513    4.90999985    2.67000008
   12.76277733  123.38300323    4.90999985    2.67000008
   12.76583290  128.17199707    4.90999985    2.67000008
   12.76916599  126.67600250    4.90999985    2.67000008
   12.77222157  124.63800049    4.90999985    2.67000008
   12.77555561  125.24700165    4.90999985    2.67000008
   12.77888870  131.53300476    4.90999985    2.67000008
   12.78194427  128.69900513    4.90999985    2.67000008
   12.78527832  132.24200439    4.90999985    2.67000008
   12.78861141  138.03399658    4.90999985    2.67000008
   12.79083347  126.27100372    4.90999985    2.67000008
   12.79222298  128.49600220    4.90999985    2.67000008
   12.79527855  132.35299683    4.90999985    2.67000008
   12.79861164  136.36199951    4.90999985    2.67000008
   12.80194473  130.00799561    4.90999985    2.67000008
   12.80500031  126.38700104    4.90999985    2.67000008
   12.80833340  121.67800140    4.90999985    2.67000008
   12.81166649  129.72000122    4.90999985    2.69000006
   12.81472206  126.56600189    4.90999985    2.67000008
   12.81805515  126.03399658    4.90999985    2.67000008
   12.82111073  129.30299377    4.90999985    2.67000008
   12.82416630  127.18399811    4.90999985    2.69000006
   12.82499981  136.02499390    4.90999985    2.69000006
   12.82805538  131.91299438    4.90999985    2.69000006
   12.93083382   -1.00000000   -1.00000000   -1.00000000
   13.02722168   -1.00000000   -1.00000000   -1.00000000
   13.12944412   -1.00000000   -1.00000000   -1.00000000
   13.15499973   91.96440125    4.90999985    2.73000002
   13.15833282  145.67199707    4.90999985    2.75000000
   13.16138840  149.07499695    4.90999985    2.73000002
   13.16472149  142.04100037    4.90999985    2.73000002
   13.16833401  148.02000427    4.90999985    2.73000002
   13.17138958  145.39300537    4.90999985    2.73000002
   13.17555618  145.39300537    4.90999985    2.73000002
   13.17972279  137.00999451    4.90999985    2.73000002
   13.18277836  142.53399658    4.90999985    2.73000002
   13.18611145  141.50999451    4.90999985    2.73000002
   13.18833351  137.40299988    4.90999985    2.75000000
   13.18972206  136.43099976    4.90999985    2.73000002
   13.19305515  137.50300598    4.90999985    2.73000002
   13.19611073  137.90400696    4.90999985    2.73000002
   13.19944477  141.77499390    4.90999985    2.73000002
   13.20277786  136.50100708    4.90999985    2.73000002
   13.20583344  141.50000000    4.90999985    2.73000002
   13.20916653  136.58900452    4.90999985    2.75000000
   13.21249962  140.44099426    4.90999985    2.73000002
   13.21833324  140.44099426    4.90999985    2.75000000
   13.22249985  138.08099365    4.90999985    2.75000000
   13.22583294  145.78700256    4.90999985    2.73000002
   13.22888851  137.80700684    4.90999985    2.73000002
   13.23222160  138.77200317    4.90999985    2.75000000
   13.23527813  137.65800476    4.90999985    2.73000002
   13.23861122  140.96299744    4.90999985    2.75000000
   13.24194431  137.86500549    4.90999985    2.73000002
   13.24499989  135.60800171    4.90999985    2.73000002
   13.24833393  134.92399597    4.90999985    2.75000000
   13.25166702  137.79200745    4.90999985    2.75000000
   13.25472260  130.17399597    4.90999985    2.75000000
   13.25527763  134.09899902    4.90999985    2.75000000
   13.26111126  134.09899902    4.90999985    2.73000002
   13.26527786  139.05400085    4.90999985    2.75000000
   13.26861095  136.35000610    4.90999985    2.73000002
   13.27166653  137.87100220    4.90999985    2.73000002
   13.27499962  136.53399658    4.90999985    2.75000000
   13.27833271  130.95300293    4.90999985    2.73000002
   13.28138828  135.53300476    4.90999985    2.75000000
   13.28472233  144.11199951    4.90999985    2.75000000
   13.28805637  140.32499695    4.90999985    2.75000000
   13.28861141  139.23500061    4.90999985    2.75000000
   13.29166698  141.02200317    4.90999985    2.73000002
   13.29472256  139.66000366    4.90999985    2.75000000
   13.29805565  140.54699707    4.90999985    2.75000000
   13.30416679  140.54699707    4.90999985    2.73000002
   13.30805588  136.58700562    4.90999985    2.75000000
   13.31138897  130.78399658    4.90999985    2.75000000
   13.31472206  132.47099304    4.90999985    2.75000000
   13.31777763  131.68200684    4.90999985    2.73000002
   13.32111073  133.42999268    4.90999985    2.75000000
   13.32194424  123.07299805    4.90999985    2.75000000
   13.32472229  139.94500732    4.90999985    2.73000002
   13.32777786  143.74499512    4.90999985    2.75000000
   13.33111095  140.30700684    4.90999985    2.75000000
   13.33444405  139.92100525    4.90999985    2.75000000
   13.33777714  129.81100464    4.90999985    2.75000000
   13.34083271  131.29600525    4.90999985    2.75000000
   13.34694386  131.29600525    4.90999985    2.75000000
   13.35111141  132.32200623    4.90999985    2.75000000
   13.35416698  130.40699768    4.90999985    2.75000000
   13.35527802  133.91000366    4.90999985    2.75000000
   13.35777855  136.53700256    4.90999985    2.76999998
   13.36083412  132.16200256    4.90999985    2.75000000
   13.36416721  137.40199280    4.90999985    2.76999998
   13.36750031  131.89700317    4.90999985    2.75000000
   13.37055588  127.00299835    4.90999985    2.75000000
   13.37388897  124.38800049    4.90999985    2.75000000
   13.37722206  128.05599976    4.90999985    2.75000000
   13.38027763  126.41200256    4.90999985    2.75000000
   13.38361073  136.40100098    4.90999985    2.75000000
   13.38972187  136.40100098    4.90999985    2.75000000
   13.39388847  138.53100586    4.90999985    2.75000000
   13.39722252  143.00300598    4.90999985    2.75000000
   13.40027714  139.50799561    4.90999985    2.75000000
   13.40361118  138.16099548    4.90999985    2.75000000
   13.40666676  140.03199768    4.90999985    2.75000000
   13.40999985  135.76899719    4.90999985    2.76999998
   13.41333294  136.26499939    4.90999985    2.75000000
   13.41638851  131.79600525    4.90999985    2.75000000
   13.41972256  138.00399780    4.90999985    2.75000000
   13.42194462  132.72099304    4.90999985    2.76999998
   13.42333412  136.65699768    4.90999985    2.75000000
   13.42638874  131.67900085    4.90999985    2.75000000
   13.43249989  131.67900085    4.90999985    2.75000000
   13.43666649  134.65699768    4.90999985    2.76999998
   13.44000053  132.75100708    4.90999985    2.75000000
   13.44305515  132.97799683    4.90999985    2.76999998
   13.44638920  135.57800293    4.90999985    2.75000000
   13.44972229  127.32099915    4.90999985    2.75000000
   13.45277786  140.06900024    4.90999985    2.76999998
   13.45527744  141.84899902    4.90999985    2.76999998
   13.45638847  139.52400208    4.90999985    2.76999998
   13.45944405  139.30400085    4.90999985    2.76999998
   13.46277714  149.47599792    4.90999985    2.75000000
   13.46611118  151.65600586    4.90999985    2.76999998
   13.46916580  141.88499451    4.90999985    2.75000000
   13.47555542  141.88499451    4.90999985    2.76999998
   13.47944355  134.07499695    4.90999985    2.76999998
   13.48277760  142.03599548    4.90999985    2.76999998
   13.48611164  137.06399536    4.90999985    2.76999998
   13.48861122  134.45599365    4.90999985    2.76999998
   13.48972225  136.06500244    4.90999985    2.76999998
   13.49277782  134.11099243    4.90999985    2.76999998
   13.49611092  138.80000305    4.90999985    2.76999998
   13.49944496  132.83299255    4.90999985    2.76999998
   13.50249958  127.23999786    4.90999985    2.76999998
   13.50583363  134.55999756    4.90999985    2.76999998
   13.50916672  135.00500488    4.90999985    2.76999998
   13.51222229  128.52099609    4.90999985    2.76999998
   13.51833344  128.52099609    4.90999985    2.76999998
   13.52250004  131.38999939    4.90999985    2.78999996
   13.52555561  139.67300415    4.90999985    2.76999998
   13.52888870  135.75300598    4.90999985    2.76999998
   13.53222179  136.76899719    4.90999985    2.76999998
   13.53527832  133.40100098    4.90999985    2.76999998
   13.53861141  142.64500427    4.90999985    2.76999998
   13.54166698  145.42799377    4.90999985    2.75000000
   13.54500008  144.70100403    4.90999985    2.76999998
   13.54833412  137.97900391    4.90999985    2.76999998
   13.55138874  136.58399963    4.90999985    2.76999998
   13.55472279  140.45300293    4.90999985    2.76999998
   13.55527782  138.88299561    4.90999985    2.76999998
   13.56111145  138.88299561    4.90999985    2.76999998
   13.56527805  136.71099854    4.90999985    2.76999998
   13.56833363  137.79299927    4.90999985    2.76999998
   13.57166672  132.11799622    4.90999985    2.76999998
   13.57499981  140.85200500    4.90999985    2.76999998
   13.57805538  137.28900146    4.90999985    2.76999998
   13.58138847  131.39199829    4.90999985    2.76999998
   13.58472157  135.19299316    4.90999985    2.76999998
   13.58777714  129.37899780    4.90999985    2.76999998
   13.58861065  130.24899292    4.90999985    2.76999998
   13.59138870  137.70599365    4.90999985    2.76999998
   13.59472179  137.90699768    4.90999985    2.76999998
   13.59777737  135.80999756    4.90999985    2.78999996
   13.60388947  135.80999756    4.90999985    2.78999996
   13.60805607  133.78500366    4.90999985    2.76999998
   13.61138916  137.95899963    4.90999985    2.78999996
   13.61444473  134.81500244    4.90999985    2.76999998
   13.61777782  137.00000000    4.90999985    2.76999998
   13.62111092  135.53700256    4.90999985    2.78999996
   13.62194443  134.91000366    4.90999985    2.76999998
   13.62472248  138.39399719    4.90999985    2.78999996
   13.62805557  136.13999939    4.90999985    2.78999996
   13.63111115  132.28799438    4.90999985    2.78999996
   13.63444424  129.80299377    4.90999985    2.76999998
   13.63749981  133.38600159    4.90999985    2.76999998
   13.64083290  131.74899292    4.90999985    2.78999996
   13.64694405  131.74899292    4.90999985    2.76999998
   13.65083313  127.96800232    4.90999985    2.78999996
   13.65416622  126.87200165    4.90999985    2.78999996
   13.65527725  125.08599854    4.90999985    2.76999998
   13.65777779  124.65399933    4.90999985    2.76999998
   13.66111088  135.36300659    4.90999985    2.76999998
   13.66416645  133.27499390    4.90999985    2.76999998
   13.66750050  134.40299988    4.90999985    2.78999996
   13.67055607  131.11900330    4.90999985    2.78999996
   13.67388916  131.64599609    4.90999985    2.76999998
   13.67722225  130.03399658    4.90999985    2.78999996
   13.68055630  128.22300720    4.90999985    2.78999996
   13.68361092  134.67199707    4.90999985    2.78999996
   13.68972206  134.67199707    4.90999985    2.78999996
   13.69388866  130.32200623    4.90999985    2.76999998
   13.69694424  131.15800476    4.90999985    2.78999996
   13.70027733  127.04599762    4.90999985    2.78999996
   13.70333290  128.62600708    4.90999985    2.78999996
   13.70666695  126.30000305    4.90999985    2.76999998
   13.71000004  129.07099915    4.90999985    2.78999996
   13.71305561  133.61999512    4.90999985    2.78999996
   13.71638870  127.96199799    4.90999985    2.78999996
   13.71972179  126.83200073    4.90999985    2.76999998
   13.72194386  126.90899658    4.90999985    2.78999996
   13.72333336  123.95600128    4.90999985    2.78999996
   13.72666645  124.44999695    4.90999985    2.76999998
   13.73249912  124.44999695    4.90999985    2.78999996
   13.73666668  131.60200500    4.90999985    2.78999996
   13.73972225  129.90499878    4.90999985    2.78999996
   13.74305534  126.07499695    4.90999985    2.78999996
   13.74638939  124.37899780    4.90999985    2.76999998
   13.74944496  125.14399719    4.90999985    2.78999996
   13.75277805  125.55400085    4.90999985    2.78999996
   13.75527763  131.86300659    4.90999985    2.78999996
   13.75638866  131.48599243    4.90999985    2.78999996
   13.75972176  131.71699524    4.90999985    2.78999996
   13.76277733  129.55799866    4.90999985    2.78999996
   13.76611137  128.39799500    4.90999985    2.78999996
   13.76916599  129.40600586    4.90999985    2.78999996
   13.77527714  129.40600586    4.90999985    2.78999996
   13.77944374  127.53299713    4.90999985    2.78999996
   13.78277779  127.30799866    4.90999985    2.78999996
   13.78583336  132.59800720    4.90999985    2.78999996
   13.78861141  131.69999695    4.90999985    2.78999996
   13.78944492  130.27600098    4.90999985    2.78999996
   13.79277802  130.91900635    4.90999985    2.78999996
   13.79583359  128.95599365    4.90999985    2.78999996
   13.79916668  128.85200500    4.90999985    2.78999996
   13.80222225  131.27600098    4.90999985    2.78999996
   13.80555534  131.10600281    4.90999985    2.78999996
   13.80888939  128.88999939    4.90999985    2.78999996
   13.81194496  128.76499939    4.90999985    2.78999996
   13.81805515  128.76499939    4.90999985    2.78999996
   13.82222176  125.41300201    4.90999985    2.78999996
   13.82555580  129.84300232    4.90999985    2.78999996
   13.82888889  141.07600403    4.90999985    2.78999996
   13.83194447  129.44599915    4.90999985    2.78999996
   13.83527756  137.16299438    4.90999985    2.78999996
   13.83833313  136.12199402    4.90999985    2.78999996
   13.84166622  137.69500732    4.90999985    2.78999996
   13.84499931  144.69999695    4.90999985    2.78999996
   13.84805489  139.03399658    4.90999985    2.78999996
   13.85138893  146.85400391    4.90999985    2.78999996
   13.85472298  144.15100098    4.90999985    2.78999996
   13.85527802  148.01300049    4.90999985    2.78999996
   13.86111164  148.01300049    4.90999985    2.80999994
   13.86527824  156.33700562    4.90999985    2.78999996
   13.86833382  146.21800232    4.90999985    2.80999994
   13.87166691  144.07899475    4.90999985    2.78999996
   13.87472248  133.07499695    4.90999985    2.78999996
   13.87805557  142.20100403    4.90999985    2.78999996
   13.88138866  147.94999695    4.90999985    2.78999996
   13.88444424  138.32899475    4.90999985    2.78999996
   13.88777733  141.24000549    4.90999985    2.78999996
   13.88861084  137.94700623    4.90999985    2.78999996
   13.89138889  134.16299438    4.90999985    2.78999996
   13.89472198  140.08799744    4.90999985    2.78999996
   13.89777756  132.56300354    4.90999985    2.78999996
   13.90388870  132.56300354    4.90999985    2.78999996
   13.90805531  141.53500366    4.90999985    2.78999996
   13.91111088  130.01199341    4.90999985    2.78999996
   13.91444397  129.46000671    4.90999985    2.78999996
   13.91777802  130.98199463    4.90999985    2.78999996
   13.92083359  134.55200195    4.90999985    2.78999996
   13.92194462  134.14100647    4.90999985    2.80999994
   13.92444515  135.70599365    4.90999985    2.78999996
   13.92777824  134.98300171    4.90999985    2.80999994
   13.93111134  134.01300049    4.90999985    2.78999996
   13.93416691  135.58200073    4.90999985    2.80999994
   13.93750000  133.26800537    4.90999985    2.80999994
   13.94055557  133.91600037    4.90999985    2.78999996
   13.94666672  133.91600037    4.90999985    2.78999996
   13.95083332  131.53300476    4.90999985    2.78999996
   13.95416641  125.70999908    4.90999985    2.78999996
   13.95527744  134.90800476    4.90999985    2.80999994
   13.95777798  130.62800598    4.90999985    2.78999996
   13.96111107  124.69699860    4.90999985    2.78999996
   13.96416664  135.80000305    4.90999985    2.78999996
   13.96749973  139.74299622    4.90999985    2.78999996
   13.97083282  128.72399902    4.90999985    2.80999994
   13.97388840  133.09500122    4.90999985    2.78999996
   13.97722149  136.64100647    4.90999985    2.80999994
   13.98027706  137.19500732    4.90999985    2.78999996
   13.98361111  133.40899658    4.90999985    2.78999996
   13.98944473  133.40899658    4.90999985    2.78999996
   13.99361134  130.99400330    4.90999985    2.78999996
   13.99694443  135.67199707    4.90999985    2.78999996
   14.00000000  130.35899353    4.90999985    2.78999996
   14.00333309  131.66499329    4.90999985    2.80999994
   14.00666714  131.41600037    4.90999985    2.78999996
   14.01000023  131.65199280    4.90999985    2.78999996
   14.01305580  133.20100403    4.90999985    2.80999994
   14.01638889  129.74200439    4.90999985    2.80999994
   14.01944447  131.06100464    4.90999985    2.78999996
   14.02194405  128.99299622    4.90999985    2.80999994
   14.02305508  132.82200623    4.90999985    2.78999996
   14.02638817  131.63499451    4.90999985    2.80999994
   14.03249931  131.63499451    4.90999985    2.80999994
   14.03666687  131.21200562    4.90999985    2.80999994
   14.03972244  128.41499329    4.90999985    2.80999994
   14.04305553  138.10600281    4.90999985    2.80999994
   14.04611111  134.99000549    4.90999985    2.80999994
   14.04944515  139.63800049    4.90999985    2.80999994
   14.05277824  139.03799438    4.90999985    2.78999996
   14.05555534  141.25799561    4.90999985    2.80999994
   14.05638885  129.95199585    4.90999985    2.80999994
   14.05972195  136.71499634    4.90999985    2.80999994
   14.06277752  130.59899902    4.90999985    2.80999994
   14.06611156  138.23100281    4.90999985    2.78999996
   14.06944466  139.81599426    4.90999985    2.80999994
   14.07527733  139.81599426    4.90999985    2.78999996
   14.07944393  133.13999939    4.90999985    2.80999994
   14.08249950  129.61399841    4.90999985    2.80999994
   14.08583260  132.09599304    4.90999985    2.80999994
   14.08861065  131.22399902    4.90999985    2.80999994
   14.08944416  132.72200012    4.90999985    2.80999994
   14.09277725  141.62300110    4.90999985    2.80999994
   14.09583282  126.76999664    4.90999985    2.80999994
   14.09916592  141.44599915    4.90999985    2.80999994
   14.10249996  140.17199707    4.90999985    2.80999994
   14.10555553  133.02900696    4.90999985    2.80999994
   14.10888958  129.34199524    4.90999985    2.80999994
   14.11222267  129.65400696    4.90999985    2.80999994
   14.11805534  129.65400696    4.90999985    2.80999994
   14.12222195  133.75300598    4.90999985    2.80999994
   14.12555599  128.47500610    4.90999985    2.80999994
   14.12861156  136.70399475    4.90999985    2.80999994
   14.13194466  128.52999878    4.90999985    2.80999994
   14.13527775  132.29499817    4.90999985    2.80999994
   14.13833332  127.07499695    4.90999985    2.80999994
   14.14166641  145.00000000    4.90999985    2.80999994
   14.14472198  133.53300476    4.90999985    2.80999994
   14.14805508  132.88200378    4.90999985    2.82999992
   14.15138817  127.99400330    4.90999985    2.80999994
   14.15444374  131.13299561    4.90999985    2.80999994
   14.15527725  132.70500183    4.90999985    2.80999994
   14.17611122  132.70500183    4.90999985    2.82999992
   14.18000031  137.36199951    4.90999985    2.80999994
   14.18333340  139.74699402    4.90999985    2.80999994
   14.18666649  131.27999878    4.90999985    2.82999992
   14.18888855  139.28199768    4.90999985    2.84999990
   14.19000053  136.87300110    0.13000000    0.88000000
   14.19333363  144.78599548    0.07000000    0.47999999
   14.19666672  153.51899719    0.05000000    0.23000000
   14.19972229  145.28999329    0.05000000    0.07000000
   14.20305538  154.19999695    0.05000000    0.07000000
   14.20638847  143.70300293    0.05000000    0.07000000
   14.20944405  152.86399841    0.05000000    0.07000000
   14.21277714  151.44500732    0.05000000    0.07000000
   14.21888828  151.44500732    0.05000000    0.07000000
   14.22277737  142.79200745    0.05000000    0.07000000
   14.22611046  145.80000305    0.05000000    0.07000000
   14.22944355  139.61500549    0.05000000    0.07000000
   14.23249912  147.83999634    0.05000000    0.07000000
   14.23583317  149.11999512    0.05000000    0.07000000
   14.23916721  147.52499390    0.05000000    0.07000000
   14.24222279  147.42199707    0.05000000    0.07000000
   14.24555588  144.72999573    0.05000000    0.07000000
   14.24861145  151.14900208    0.05000000    0.07000000
   14.25194454  146.29200745    0.05000000    0.07000000
   14.25527763  143.19799805    0.05000000    0.07000000
   14.25555515  143.01800537    0.05000000    0.07000000
   14.26166630  143.01800537    0.05000000    0.07000000
   14.26583290  139.33999634    0.05000000    0.07000000
   14.26888847  148.01199341    0.05000000    0.07000000
   14.27222157  145.30499268    0.05000000    0.07000000
   14.27555561  132.94700623    0.05000000    0.07000000
   14.27861118  141.00999451    0.05000000    0.07000000
   14.28194427  138.64900208    0.05000000    0.07000000
   14.28500080  134.97599792    0.05000000    0.07000000
   14.28833389  133.58099365    0.05000000    0.07000000
   14.28888893  138.29200745    0.05000000    0.07000000
   14.29194450  147.41000366    0.05000000    0.07000000
   14.29527855  139.13600159    0.05000000    0.07000000
   14.29833412  136.06599426    0.05000000    0.07000000
   14.30444431  136.06599426    0.05000000    0.07000000
   14.30861092  140.57699585    0.05000000    0.07000000
   14.31166649  151.68600464    0.05000000    0.07000000
   14.31500053  147.86500549    0.05000000    0.07000000
   14.31833363  145.82899475    0.05000000    0.07000000
   14.32138920  147.48699951    0.05000000    0.07000000
   14.32222176  138.78900146    0.05000000    0.07000000
   14.32499981  151.07499695    0.05000000    0.07000000
   14.32833290  146.74299622    0.05000000    0.07000000
   14.33138847  139.32899475    0.05000000    0.07000000
   14.33472157  139.41999817    0.05000000    0.07000000
   14.33805561  140.80999756    0.05000000    0.07000000
   14.34111118  143.38699341    0.05000000    0.07000000
   14.34722233  143.38699341    0.05000000    0.07000000
   14.35138893  137.81300354    0.05000000    0.07000000
   14.35472298  141.63999939    0.05000000    0.07000000
   14.35555553  137.61099243    0.05000000    0.07000000
   14.35805607  141.25599670    0.05000000    0.07000000
   14.36138916  141.27799988    0.05000000    0.07000000
   14.36444473  140.14900208    0.05000000    0.07000000
   14.36777782  132.79800415    0.05000000    0.07000000
   14.37111092  139.23100281    0.05000000    0.07000000
   14.37416649  138.05200195    0.05000000    0.07000000
   14.37750053  143.14999390    0.05000000    0.07000000
   14.38083363  134.36099243    0.05000000    0.07000000
   14.38388920  137.75700378    0.05000000    0.07000000
   14.39000034  137.75700378    0.05000000    0.07000000
   14.39416695  144.04400635    0.05000000    0.07000000
   14.39750004  141.81399536    0.05000000    0.07000000
   14.40083313  137.90299988    0.05000000    0.07000000
   14.40388870  134.87199402    0.05000000    0.07000000
   14.40722179  141.22399902    0.05000000    0.07000000
   14.41027737  140.05799866    0.05000000    0.07000000
   14.41361046  137.00199890    0.05000000    0.07000000
   14.41694450  144.42999268    0.05000000    0.07000000
   14.42000008  135.98699951    0.05000000    0.07000000
   14.42250061  142.88900757    0.05000000    0.07000000
   14.42361164  132.76800537    0.05000000    0.07000000
   14.42694473  139.90499878    0.05000000    0.07000000
   14.43305588  139.90499878    0.05000000    0.07000000
   14.43722248  144.18400574    0.05000000    0.07000000
   14.44027805  142.36300659    0.05000000    0.07000000
   14.44361115  138.55099487    0.05000000    0.07000000
   14.44666672  139.86700439    0.05000000    0.07000000
   14.44999981  151.32099915    0.05000000    0.07000000
   14.45333290  146.76800537    0.05000000    0.07000000
   14.45583344  142.86099243    0.05000000    0.07000000
   14.45666695  147.21800232    0.05000000    0.07000000
   14.46000004  144.05400085    0.05000000    0.07000000
   14.46305561  144.25000000    0.05000000    0.07000000
   14.46638870  145.59500122    0.05000000    0.07000000
   14.46972179  137.80799866    0.05000000    0.07000000
   14.47583294  137.80799866    0.05000000    0.07000000
   14.47999954  147.80499268    0.05000000    0.07000000
   14.48305511  140.32000732    0.05000000    0.07000000
   14.48638916  138.92100525    0.05000000    0.07000000
   14.48916721  145.10400391    0.05000000    0.07000000
   14.49000072  135.27099609    0.05000000    0.07000000
   14.49333382  142.23300171    0.05000000    0.07000000
   14.49638939  141.11900330    0.05000000    0.07000000
   14.49972248  141.99600220    0.05000000    0.07000000
   14.50305557  134.75100708    0.05000000    0.07000000
   14.50611115  141.20500183    0.05000000    0.07000000
   14.50944424  143.35800171    0.05000000    0.07000000
   14.51277733  147.55200195    0.05000000    0.07000000
   14.51861095  147.55200195    0.05000000    0.07000000
   14.52277756  148.48699951    0.05000000    0.07000000
   14.52611065  143.88800049    0.05000000    0.07000000
   14.52916622  146.22700500    0.05000000    0.07000000
   14.53249931  143.26400757    0.05000000    0.07000000
   14.53583336  148.94700623    0.05000000    0.07000000
   14.53888893  153.30599976    0.05000000    0.07000000
   14.54222298  150.88999939    0.05000000    0.07000000
   14.54527855  155.06399536    0.05000000    0.07000000
   14.54861164  159.17700195    0.05000000    0.07000000
   14.55194473  144.34100342    0.05000000    0.07000000
   14.55500031  163.37300110    0.05000000    0.07000000
   14.55583382  146.41000366    0.05000000    0.07000000
   14.56138897  146.41000366    0.05000000    0.07000000
   14.56555557  147.66400146    0.05000000    0.07000000
   14.56888866  148.03199768    0.05000000    0.07000000
   14.57222176  151.08799744    0.05000000    0.07000000
   14.57527733  150.98300171    0.05000000    0.07000000
   14.57861137  150.05099487    0.05000000    0.07000000
   14.58166695  151.92900085    0.05000000    0.07000000
   14.58500004  141.91099548    0.05000000    0.07000000
   14.58833313  155.94700623    0.05000000    0.07000000
   14.58916664  149.97500610    0.05000000    0.07000000
   14.59166622  155.59800720    0.05000000    0.07000000
   14.59499931  153.11799622    0.05000000    0.07000000
   14.59833336  144.36199951    0.05000000    0.07000000
   14.60444450  144.36199951    0.05000000    0.07000000
   14.60861111  150.64700317    0.05000000    0.07000000
   14.61166668  150.54899597    0.05000000    0.07000000
   14.61500072  158.48899841    0.05000000    0.07000000
   14.61805534  152.75199890    0.05000000    0.07000000
   14.62138939  149.22399902    0.05000000    0.07000000
   14.62250042  143.12199402    0.05000000    0.07000000
   14.62500000  151.68400574    0.05000000    0.07000000
   14.62833309  143.37399292    0.05000000    0.07000000
   14.63166714  141.46200562    0.05000000    0.07000000
   14.63472176  134.82800293    0.05000000    0.07000000
   14.63805580  152.25399780    0.05000000    0.07000000
   14.64111137  149.65899658    0.05000000    0.07000000
   14.64722252  149.65899658    0.05000000    0.07000000
   14.65138817  154.78100586    0.05000000    0.07000000
   14.65444374  151.24800110    0.05000000    0.07000000
   14.65583324  150.95899963    0.05000000    0.07000000
   14.65805531  148.91099548    0.05000000    0.07000000
   14.66138840  151.04899597    0.05000000    0.07000000
   14.66472149  148.44000244    0.05000000    0.07000000
   14.66777802  147.99499512    0.05000000    0.07000000
   14.67111111  148.21800232    0.05000000    0.07000000
   14.67416668  149.47200012    0.05000000    0.07000000
   14.67750072  142.60400391    0.05000000    0.07000000
   14.68083382  147.22000122    0.05000000    0.07000000
   14.68388939  146.11399841    0.05000000    0.07000000
   14.69000053  146.11399841    0.05000000    0.07000000
   14.69416714  154.05299377    0.05000000    0.07000000
   14.69750023  151.54600525    0.05000000    0.07000000
   14.70055580  159.19099426    0.05000000    0.07000000
   14.70388889  149.07600403    0.05000000    0.07000000
   14.70694447  142.82400513    0.05000000    0.07000000
   14.71027756  153.15299988    0.05000000    0.07000000
   14.71361065  170.61300659    0.05000000    0.07000000
   14.71666622  169.07499695    0.05000000    0.07000000
   14.71999931  160.49699402    0.05000000    0.07000000
   14.72249985  154.85000610    0.05000000    0.07000000
   14.72361088  156.97500610    0.05000000    0.07000000
   14.72694397  163.79699707    0.05000000    0.07000000
   14.73277760  163.79699707    0.05000000    0.07000000
   14.73694515  156.05700684    0.05000000    0.07000000
   14.74027824  157.20300293    0.05000000    0.07000000
   14.74333382  166.29200745    0.05000000    0.07000000
   14.74666691  164.95199585    0.05000000    0.07000000
   14.75000000  167.80400085    0.05000000    0.07000000
   14.75305557  177.10699463    0.05000000    0.07000000
   14.75583363  166.27999878    0.05000000    0.07000000
   14.75666714  163.07899475    0.05000000    0.07000000
   14.76000023  167.13800049    0.05000000    0.07000000
   14.76333332  164.68099976    0.05000000    0.07000000
   14.76638889  170.20100403    0.05000000    0.07000000
   14.76972198  169.82699585    0.05000000    0.07000000
   14.77583313  169.82699585    0.05000000    0.07000000
   14.77972221  172.91999817    0.05000000    0.07000000
   14.78305531  171.38699341    0.05000000    0.07000000
   14.78638935  163.66000366    0.05000000    0.07000000
   14.78916740  168.37800598    0.05000000    0.07000000
   14.78972244  169.61599731    0.05000000    0.07000000
   14.79305553  165.87300110    0.05000000    0.07000000
   14.79638958  166.22900391    0.05000000    0.07000000
   14.79972267  165.83700562    0.05000000    0.07000000
   14.80277824  162.92500305    0.05000000    0.07000000
   14.80611134  154.83399963    0.05000000    0.07000000
   14.80916691  163.44099426    0.05000000    0.07000000
   14.81250000  160.54100037    0.05000000    0.07000000
   14.81861115  160.54100037    0.05000000    0.07000000
   14.82277775  162.75500488    0.05000000    0.07000000
   14.82583332  158.56399536    0.05000000    0.07000000
   14.82916641  157.80700684    0.05000000    0.07000000
   14.83249950  162.98699951    0.05000000    0.07000000
   14.83555508  160.30700684    0.05000000    0.07000000
   14.83888817  144.76899719    0.05000000    0.07000000
   14.84194374  162.48300171    0.05000000    0.07000000
   14.84527779  165.09100342    0.05000000    0.07000000
   14.84861088  159.29100037    0.05000000    0.07000000
   14.85166740  156.63900757    0.05000000    0.07000000
   14.85500050  144.46099854    0.05000000    0.07000000
   14.85583401  152.99400330    0.05000000    0.07000000
   14.86138916  152.99400330    0.05000000    0.07000000
   14.86555576  163.28100586    0.05000000    0.07000000
   14.86888885  144.28799438    0.05000000    0.07000000
   14.87194443  171.82299805    0.05000000    0.07000000
   14.87527752  162.26499939    0.05000000    0.07000000
   14.87861156  159.75000000    0.05000000    0.07000000
   14.88166714  149.94299316    0.05000000    0.07000000
   14.88500023  156.34399414    0.05000000    0.07000000
   14.88833332  172.25300598    0.05000000    0.07000000
   14.88916683  152.83599854    0.05000000    0.07000000
   14.89166641  162.96000671    0.05000000    0.07000000
   14.89499950  157.18899536    0.05000000    0.07000000
   14.89833355  175.91099548    0.05000000    0.07000000
   14.90416622  175.91099548    0.05000000    0.07000000
   14.90833282  252.82400513    0.05000000    0.07000000
   14.91166592  171.48399353    0.05000000    0.07000000
   14.91472149  248.11999512    0.05000000    0.07000000
   14.91805553  164.37500000    0.05000000    0.07000000
   14.92194462  146.93400574    0.05000000    0.07000000
   14.92250061  144.15600586    0.05000000    0.07000000
   14.92527771  148.94299316    0.05000000    0.07000000
   14.92861176  204.60899353    0.05000000    0.07000000
   14.93194485  161.48899841    0.05000000    0.07000000
   14.93500042  160.13699341    0.05000000    0.07000000
   14.93833351  146.95599365    0.05000000    0.07000000
   14.94166660  142.53900146    0.05000000    0.07000000
   14.94722271  142.53900146    0.05000000    0.07000000
   14.95111084  151.67100525    0.05000000    0.07000000
   14.95444393  150.94700623    0.05000000    0.07000000
   14.95583344  145.58799744    0.05000000    0.07000000
   14.95805550  146.73300171    0.05000000    0.07000000
   14.96138859  151.18200684    0.05000000    0.07000000
   14.96472168  147.36099243    0.05000000    0.07000000
   14.96805477  143.07499695    0.05000000    0.07000000
   14.97111034  142.42799377    0.05000000    0.07000000
   14.97444439  142.31199646    0.05000000    0.07000000
   14.97777748  145.91799927    0.05000000    0.07000000
   14.98083305  148.57600403    0.05000000    0.07000000
   14.98416710  135.93600464    0.05000000    0.07000000
   14.99000072  135.93600464    0.05000000    0.07000000
   14.99416733  135.20399475    0.05000000    0.07000000
   14.99722290  147.81399536    0.05000000    0.07000000
   15.00055599  142.03999329    0.05000000    0.07000000
   15.00388908  151.52200317    0.05000000    0.07000000
   15.00694466  153.45899963    0.05000000    0.07000000
   15.01027775  146.89799500    0.05000000    0.07000000
   15.01333332  158.72700500    0.05000000    0.07000000
   15.01666641  160.02799988    0.05000000    0.07000000
   15.01999950  156.83900452    0.05000000    0.07000000
   15.02250004  158.96400452    0.05000000    0.07000000
   15.02333355  156.87300110    0.05000000    0.07000000
   15.02666664  147.34100342    0.05000000    0.07000000
   15.03277779  147.34100342    0.05000000    0.07000000
   15.03694534  135.90499878    0.05000000    0.07000000
   15.04027843  143.59500122    0.05000000    0.07000000
   15.04333401  151.37300110    0.05000000    0.07000000
   15.04666710  144.20899963    0.05000000    0.07000000
   15.04972267  168.12500000    0.05000000    0.07000000
   15.05305576  144.15899658    0.05000000    0.07000000
   15.05583382  152.63699341    0.05000000    0.07000000
   15.05666733  152.08900452    0.05000000    0.07000000
   15.06000042  157.78999329    0.05000000    0.07000000
   15.06333351  145.82600403    0.05000000    0.07000000
   15.06638908  142.01199341    0.05000000    0.07000000
   15.06972218  142.87100220    0.05000000    0.07000000
   15.07555580  142.87100220    0.05000000    0.07000000
   15.07972240  140.68600464    0.05000000    0.07000000
   15.08305550  141.03500366    0.05000000    0.07000000
   15.08611107  137.73800659    0.05000000    0.07000000
   15.08916664  136.54200745    0.05000000    0.07000000
   15.08972168  134.60899353    0.05000000    0.07000000
   15.09305477  137.94299316    0.05000000    0.07000000
   15.09638882  140.20199585    0.05000000    0.07000000
   15.09944439  136.47999573    0.05000000    0.07000000
   15.10277843  147.61199951    0.05000000    0.07000000
   15.10611153  138.89500427    0.05000000    0.07000000
   15.10916710  132.73100281    0.05000000    0.07000000
   15.11250019  135.88999939    0.05000000    0.07000000
   15.11833382  135.88999939    0.05000000    0.07000000
   15.12250042  143.30999756    0.05000000    0.07000000
   15.12583351  141.83299255    0.05000000    0.07000000
   15.12916660  142.99899292    0.05000000    0.07000000
   15.13222218  135.10000610    0.05000000    0.07000000
   15.13555527  140.13400269    0.05000000    0.07000000
   15.13888836  134.10899353    0.05000000    0.07000000
   15.14194393  140.76499939    0.05000000    0.07000000
   15.14527798  140.55999756    0.05000000    0.07000000
   15.14833355  138.97900391    0.05000000    0.07000000
   15.15166664  138.67100525    0.05000000    0.07000000
   15.15499973  149.25999451    0.05000000    0.07000000
   15.15583324  143.21899414    0.05000000    0.07000000
   15.16138840  143.21899414    0.05000000    0.07000000
   15.16555500  145.98500061    0.05000000    0.07000000
   15.16861153  142.13400269    0.05000000    0.07000000
   15.17194462  137.83999634    0.05000000    0.07000000
   15.18944454  142.96600342    0.05000000    0.07000000
   15.19194412  144.45199585    0.05000000    0.07000000
   15.19499969  145.35400391    0.05000000    0.07000000
   15.19833374  140.53500366    0.05000000    0.07000000
   15.20416641  140.53500366    0.05000000    0.07000000
   15.20833302  136.00000000    0.05000000    0.07000000
   15.21166611  136.12600708    0.05000000    0.07000000
   15.21500015  134.95300293    0.05000000    0.07000000
   15.21805477  129.53399658    0.05000000    0.07000000
   15.22138882  146.31399536    0.05000000    0.07000000
   15.22277737  140.11999512    0.05000000    0.07000000
   15.22499943  136.12300110    0.05000000    0.07000000
   15.22833252  135.27699280    0.05000000    0.07000000
   15.23166656  136.55799866    0.05000000    0.07000000
   15.23472214  148.21000671    0.05000000    0.07000000
   15.23805618  157.22200012    0.05000000    0.07000000
   15.24138927  145.16099548    0.05000000    0.07000000
   15.24722290  145.16099548    0.05000000    0.07000000
   15.25138855  141.42100525    0.05000000    0.07000000
   15.25444412  141.49099731    0.05000000    0.07000000
   15.25611115  142.87600708    0.05000000    0.07000000
   15.25805569  157.51800537    0.05000000    0.07000000
   15.26138878  145.12100220    0.05000000    0.07000000
   15.26472187  148.63800049    0.05000000    0.07000000
   15.26777744  155.63099670    0.05000000    0.07000000
   15.27111053  147.69200134    0.05000000    0.07000000
   15.27444458  153.24600220    0.05000000    0.07000000
   15.27750015  141.03700256    0.05000000    0.07000000
   15.28083324  153.81700134    0.05000000    0.07000000
   15.28388977  150.75900269    0.05000000    0.07000000
   15.29000092  150.75900269    0.05000000    0.07000000
   15.29416752  143.63200378    0.05000000    0.07000000
   15.29750061  150.19999695    0.05000000    0.07000000
   15.30055618  153.66499329    0.05000000    0.07000000
   15.30388927  156.17500305    0.05000000    0.07000000
   15.30694485  165.24600220    0.05000000    0.07000000
   15.31027794  171.05400085    0.05000000    0.07000000
   15.31361103  154.21499634    0.05000000    0.07000000
   15.31666660  157.75000000    0.05000000    0.07000000
   15.31999969  155.68099976    0.05000000    0.07000000
   15.32277775  152.23699951    0.05000000    0.07000000
   15.32333374  153.42500305    0.05000000    0.07000000
   15.32666683  147.23800659    0.05000000    0.07000000
   15.33277798  147.23800659    0.05000000    0.07000000
   15.33694458  166.62100220    0.05000000    0.07000000
   15.34027767  157.01600647    0.05000000    0.07000000
   15.34361076  150.83799744    0.05000000    0.07000000
   15.34694386  158.61999512    0.05000000    0.07000000
   15.35027790  158.01899719    0.05000000    0.07000000
   15.35333347  164.82800293    0.05000000    0.07000000
   15.35611153  161.60200500    0.05000000    0.07000000
   15.35694504  178.49200439    0.05000000    0.07000000
   15.36027813  160.19000244    0.05000000    0.07000000
   15.36361122  166.22799683    0.05000000    0.07000000
   15.36666679  168.68600464    0.05000000    0.07000000
   15.36999989  163.29299927    0.05000000    0.07000000
   15.37555599  163.29299927    0.05000000    0.07000000
   15.37972260  164.48199463    0.05000000    0.07000000
   15.38305569  154.87899780    0.05000000    0.07000000
   15.38638878  155.57600403    0.05000000    0.07000000
   15.38944435  150.65800476    0.05000000    0.07000000
   15.38972187  160.11300659    0.05000000    0.07000000
   15.39305496  154.41600037    0.05000000    0.07000000
   15.39638901  152.71600342    0.05000000    0.07000000
   15.39972210  146.42500305    0.05000000    0.07000000
   15.40277767  161.08700562    0.05000000    0.07000000
   15.40611076  147.12199402    0.05000000    0.07000000
   15.40944386  145.00799561    0.05000000    0.07000000
   15.41249943  129.35899353    0.05000000    0.07000000
   15.41861153  129.35899353    0.05000000    0.07000000
   15.42277813  161.13800049    0.05000000    0.07000000
   15.42305565  158.83299255    0.05000000    0.07000000
   15.42638874  162.53599548    0.05000000    0.07000000
   15.42972279  153.27900696    0.05000000    0.07000000
   15.43277836  166.90699768    0.05000000    0.07000000
   15.43611145  171.46200562    0.05000000    0.07000000
   15.43916702  188.10400391    0.05000000    0.07000000
   15.44250011  175.63800049    0.05000000    0.07000000
   15.44583321  163.07000732    0.05000000    0.07000000
   15.44888878  162.45799255    0.05000000    0.07000000
   15.45222187  171.20399475    0.05000000    0.07000000
   15.45555496  177.07299805    0.05000000    0.07000000
   15.45638847  158.68200684    0.05000000    0.07000000
   15.46138859  158.68200684    0.05000000    0.07000000
   15.46555519  185.97599792    0.05000000    0.07000000
   15.46861076  185.98199463    0.05000000    0.07000000
   15.47194386  184.63099670    0.05000000    0.07000000
   15.47527695  188.31300354    0.05000000    0.07000000
   15.47833252  207.15299988    0.05000000    0.07000000
   15.48166656  203.63499451    0.05000000    0.07000000
   15.48500061  212.69099426    0.05000000    0.07000000
   15.48805618  256.63598633    0.05000000    0.07000000
   15.48972225  242.81900024    0.05000000    0.07000000
   15.49166679  210.34899902    0.05000000    0.07000000
   15.49499989  227.70700073    0.05000000    0.07000000
   15.49805546  217.24499512    0.05000000    0.07000000
   15.50416660  217.24499512    0.05000000    0.07000000
   15.50833321  232.84100342    0.05000000    0.07000000
   15.51166630  191.33500671    0.05000000    0.07000000
   15.51472187  189.37100220    0.05000000    0.07000000
   15.51805496  178.53999329    0.05000000    0.07000000
   15.52138901  170.49800110    0.05000000    0.07000000
   15.52305508  185.02600098    0.05000000    0.07000000
   15.52472210  158.48699951    0.05000000    0.07000000
   15.52805519  149.27099609    0.05000000    0.07000000
   15.53111076  151.72700500    0.05000000    0.07000000
   15.53444481  176.42500305    0.05000000    0.07000000
   15.53750038  154.76100159    0.05000000    0.07000000
   15.54083347  148.40499878    0.05000000    0.07000000
   15.54694462  148.40499878    0.05000000    0.07000000
   15.55111122  153.76499939    0.05000000    0.07000000
   15.55444431  151.52999878    0.05000000    0.07000000
   15.55638885  153.07400513    0.05000000    0.07000000
   15.55805588  164.62399292    0.05000000    0.07000000
   15.56138897  163.28500366    0.05000000    0.07000000
   15.56444454  163.55099487    0.05000000    0.07000000
   15.56777763  146.61900330    0.05000000    0.07000000
   15.57111073  147.48500061    0.05000000    0.07000000
   15.57416630  143.32400513    0.05000000    0.07000000
   15.57750034  140.67799377    0.05000000    0.07000000
   15.58055592  150.05900574    0.05000000    0.07000000
   15.58388901  136.21899414    0.05000000    0.07000000
   15.59000015  136.21899414    0.05000000    0.07000000
   15.59388828  137.97500610    0.05000000    0.07000000
   15.59722233  141.15100098    0.05000000    0.07000000
   15.60055637  144.22900391    0.05000000    0.07000000
   15.60361195  145.06399536    0.05000000    0.07000000
   15.60694504  149.89799500    0.05000000    0.07000000
   15.61027813  160.25000000    0.05000000    0.07000000
   15.61333370  154.58299255    0.05000000    0.07000000
   15.61666679  157.87899780    0.05000000    0.07000000
   15.61972237  152.07299805    0.05000000    0.07000000
   15.62305546  150.85800171    0.05000000    0.07000000
   15.62361145  149.47999573    0.05000000    0.07000000
   15.62666702  155.26100159    0.05000000    0.07000000
   15.63277817  155.26100159    0.05000000    0.07000000
   15.63694477  157.02999878    0.05000000    0.07000000
   15.64000034  162.46499634    0.05000000    0.07000000
   15.64333344  166.64900208    0.05000000    0.07000000
   15.64666653  171.07299805    0.05000000    0.07000000
   15.64972210  169.99000549    0.05000000    0.07000000
   15.65305519  183.17300415    0.05000000    0.07000000
   15.65611076  187.53100586    0.05000000    0.07000000
   15.65694427  221.81100464    0.05000000    0.07000000
   15.65999985  326.41598511    0.05000000    0.07000000
   15.66305542  212.84599304    0.05000000    0.07000000
   15.66638851  205.19000244    0.05000000    0.07000000
   15.66944504  213.18800354    0.05000000    0.07000000
   15.67555618  213.18800354    0.05000000    0.07000000
   15.67972279  214.65699768    0.05000000    0.07000000
   15.68305588  208.72200012    0.05000000    0.07000000
   15.68611145  266.57501221    0.05000000    0.07000000
   15.68944454  227.80299377    0.05000000    0.07000000
   15.69027805  268.16400146    0.05000000    0.07000000
   15.69277763  199.35600281    0.05000000    0.07000000
   15.69611073  266.82998657    0.05000000    0.07000000
   15.69944477  197.16799927    0.05000000    0.07000000
   15.70249939  153.98199463    0.05000000    0.07000000
   15.70583344  165.52600098    0.05000000    0.07000000
   15.70916653  192.64999390    0.05000000    0.07000000
   15.71222210  149.11399841    0.05000000    0.07000000
   15.71833324  149.11399841    0.05000000    0.07000000
   15.72249985  255.73599243    0.05000000    0.07000000
   15.72361088  292.85598755    0.05000000    0.07000000
   15.72611046  278.89401245    0.05000000    0.07000000
   15.72944355  111.09999847    0.05000000    0.07000000
   15.73277760  123.05699921    0.05000000    0.07000000
   15.73583317  336.70300293    0.05000000    0.07000000
   15.73916721  221.20199585    0.05000000    0.07000000
   15.74250031  319.70199585    0.05000000    0.07000000
   15.74555588  275.97299194    0.05000000    0.07000000
   15.74888897  299.94100952    0.05000000    0.07000000
   15.75194454  368.47399902    0.05000000    0.07000000
   15.75527763  258.62799072    0.05000000    0.07000000
   15.75694466  174.69299316    0.05000000    0.07000000
   15.76111126  174.69299316    0.05000000    0.07000000
   15.76527786  151.33900452    0.05000000    0.07000000
   15.76861095  166.55499268    0.05000000    0.07000000
   15.77194405  174.01400757    0.05000000    0.07000000
   15.77499962  177.17199707    0.05000000    0.07000000
   15.77833271  184.30499268    0.05000000    0.07000000
   15.78166676  172.88800049    0.05000000    0.07000000
   15.78472233  153.11700439    0.05000000    0.07000000
   15.78805637  166.55999756    0.05000000    0.07000000
   15.79027843  142.87399292    0.05000000    0.07000000
   15.79166698  166.55000305    0.05000000    0.07000000
   15.79472256  141.55000305    0.05000000    0.07000000
   15.79805565  152.45300293    0.05000000    0.07000000
   15.80416679  152.45300293    0.05000000    0.07000000
   15.80833340  148.05900574    0.05000000    0.07000000
   15.81138897  139.33799744    0.05000000    0.07000000
   15.81472206  152.02600098    0.05000000    0.07000000
   15.81805515  153.84300232    0.05000000    0.07000000
   15.82111073  152.32899475    0.05000000    0.07000000
   15.82361126  134.41700745    0.05000000    0.07000000
   15.82499981  137.95500183    0.05000000    0.07000000
   15.82805538  145.82200623    0.05000000    0.07000000
   15.83138847  141.13800049    0.05000000    0.07000000
   15.83444405  137.55599976    0.05000000    0.07000000
   15.83777714  142.79699707    0.05000000    0.07000000
   15.84111118  140.34500122    0.05000000    0.07000000
   15.84694386  140.34500122    0.05000000    0.07000000
   15.85111141  140.77000427    0.05000000    0.07000000
   15.85444450  133.79299927    0.05000000    0.07000000
   15.85694504  136.36000061    0.05000000    0.07000000
   15.85777855  141.64900208    0.05000000    0.07000000
   15.86111164  140.71800232    0.05000000    0.07000000
   15.86444473  148.21200562    0.05000000    0.07000000
   15.86750031  158.40400696    0.05000000    0.07000000
   15.87083340  153.50999451    0.05000000    0.07000000
   15.87416649  150.92399597    0.05000000    0.07000000
   15.87722206  146.86599731    0.05000000    0.07000000
   15.88055611  152.36099243    0.05000000    0.07000000
   15.88361073  151.96800232    0.05000000    0.07000000
   15.88972187  151.96800232    0.05000000    0.07000000
   15.89388847  157.97599792    0.05000000    0.07000000
   15.89722252  155.65899658    0.05000000    0.07000000
   15.90027714  347.86300659    0.05000000    0.07000000
   15.90361118  249.96499634    0.05000000    0.07000000
   15.90694427  232.57600403    0.05000000    0.07000000
   15.90999985  164.64799500    0.05000000    0.07000000
   15.91333294  150.04899597    0.05000000    0.07000000
   15.91638851  157.41499329    0.05000000    0.07000000
   15.91972256  159.03700256    0.05000000    0.07000000
   15.92305565  151.25799561    0.05000000    0.07000000
   15.92472267  150.22599792    0.05000000    0.07000000
   15.92666721  143.39900208    0.05000000    0.07000000
   15.93249989  143.39900208    0.05000000    0.07000000
   15.93666649  141.59300232    0.05000000    0.07000000
   15.94000053  161.83799744    0.05000000    0.07000000
   15.94333363  153.73500061    0.05000000    0.07000000
   15.94638920  147.15400696    0.05000000    0.07000000
   15.94972229  154.13200378    0.05000000    0.07000000
   15.95277786  153.37300110    0.05000000    0.07000000
   15.95611095  154.69200134    0.05000000    0.07000000
   15.95805550  157.18800354    0.05000000    0.07000000
   15.95972157  146.21600342    0.05000000    0.07000000
   15.96277714  142.99699402    0.05000000    0.07000000
   15.96611118  146.73100281    0.05000000    0.07000000
   15.96944427  152.62699890    0.05000000    0.07000000
   15.97555542  152.62699890    0.05000000    0.07000000
   15.97972202  143.77999878    0.05000000    0.07000000
   15.98277760  132.57499695    0.05000000    0.07000000
   15.98611164  153.82499695    0.05000000    0.07000000
   15.98916721  170.32400513    0.05000000    0.07000000
   15.99166679  152.22000122    0.05000000    0.07000000
   15.99305534  164.50799561    0.05000000    0.07000000
   15.99611092  154.11099243    0.05000000    0.07000000
   15.99944496  147.45399475    0.05000000    0.07000000
   16.00250053  147.86700439    0.05000000    0.07000000
   16.00583267  169.54899597    0.05000000    0.07000000
   16.00916672  190.24400330    0.05000000    0.07000000
   16.01222229  180.77200317    0.05000000    0.07000000
   16.01833344  180.77200317    0.05000000    0.07000000
   16.02249908  165.79200745    0.05000000    0.07000000
   16.02499962  166.71499634    0.05000000    0.07000000
   16.02611160  153.41000366    0.05000000    0.07000000
   16.02916718  225.30400085    0.05000000    0.07000000
   16.03249931  243.17500305    0.05000000    0.07000000
   16.03555489  165.63499451    0.05000000    0.07000000
   16.03888893   -1.00000000    0.05000000    0.07000000
   16.04222107   -1.00000000    0.05000000    0.07000000
   16.04527664   -1.00000000    0.05000000    0.07000000
   16.04861069   -1.00000000    0.05000000    0.07000000
   16.05194283   -1.00000000    0.05000000    0.07000000
   16.05499840   -1.00000000    0.05000000    0.07000000
   16.06527710   -1.00000000    0.05000000    0.07000000
   16.06861115   -1.00000000    0.05000000    0.07000000
   16.07166672   -1.00000000    0.05000000    0.07000000
   16.07500076   79.63420105    0.05000000    0.07000000
   16.07805634  334.71099854    0.05000000    0.07000000
   16.08139038   67.26640320    0.05000000    0.07000000
   16.08472252   69.94129944    0.05000000    0.07000000
   16.08777809   -1.00000000    0.05000000    0.07000000
   16.09111214   -1.00000000    0.05000000    0.07000000
   16.09472275   -1.00000000    0.05000000    0.07000000
   16.09805679   -1.00000000    0.05000000    0.07000000
   16.10805511   -1.00000000    0.05000000    0.07000000
   16.11138916   -1.00000000    0.05000000    0.07000000
   16.11444473   -1.00000000    0.05000000    0.07000000
   16.11777878   -1.00000000    0.05000000    0.07000000
   16.12111092   -1.00000000    0.05000000    0.07000000
   16.12416649   -1.00000000    0.05000000    0.07000000
   16.12777710   -1.00000000    0.05000000    0.07000000
   16.13111115   -1.00000000    0.05000000    0.07000000
   16.13416672   -1.00000000    0.05000000    0.07000000
   16.13750076   -1.00000000    0.05000000    0.07000000
   16.14055634   -1.00000000    0.05000000    0.07000000
   16.14694405   -1.00000000    0.05000000    0.07000000
   16.15083313  254.93400574    0.05000000    0.07000000
   16.15416718  234.26800537    0.05000000    0.07000000
   16.15749931  200.36999512    0.05000000    0.07000000
   16.15888786  346.43099976    0.05000000    0.07000000
   16.16110992  218.43400574    0.05000000    0.07000000
   16.16444397   -1.00000000    0.05000000    0.07000000
   16.16749954   -1.00000000    0.05000000    0.07000000
   16.17083359   -1.00000000    0.05000000    0.07000000
   16.17416573   -1.00000000    0.05000000    0.07000000
   16.17722130   -1.00000000    0.05000000    0.07000000
   16.18055534   -1.00000000    0.05000000    0.07000000
   16.18361092   -1.00000000    0.05000000    0.07000000
   16.20805550   -1.00000000    0.05000000    0.07000000
   16.21138954   -1.00000000    0.05000000    0.07000000
   16.21444511   -1.00000000    0.05000000    0.07000000
   16.21777916   -1.00000000    0.05000000    0.07000000
   16.22083473   -1.00000000    0.05000000    0.07000000
   16.22416687   -1.00000000    0.05000000    0.07000000
   16.22750092   -1.00000000    0.05000000    0.07000000
   16.23277855   -1.00000000    0.05000000    0.07000000
   16.23694420   -1.00000000    0.05000000    0.07000000
   16.23999977   -1.00000000    0.05000000    0.07000000
   16.24361229   -1.00000000    0.05000000    0.07000000
   16.24694443   -1.00000000    0.05000000    0.07000000
   16.25000000   -1.00000000    0.05000000    0.07000000
   16.25333405   -1.00000000    0.05000000    0.07000000
   16.25666618   -1.00000000    0.05000000    0.07000000
   16.25972176   -1.00000000    0.05000000    0.07000000
   16.26305580   -1.00000000    0.05000000    0.07000000
   16.26638794   -1.00000000    0.05000000    0.07000000
   16.26944351   -1.00000000    0.05000000    0.07000000
   16.27972221  108.91500092    0.05000000    0.07000000
   16.28277779   -1.00000000    0.05000000    0.07000000
   16.28610992   70.50119781    0.05000000    0.07000000
   16.28944397   -1.00000000    0.05000000    0.07000000
   16.29249954   -1.00000000    0.05000000    0.07000000
   16.29583359   -1.00000000    0.05000000    0.07000000
   16.29916573   -1.00000000    0.05000000    0.07000000
   16.30222130   -1.00000000    0.05000000    0.07000000
   16.30555534  185.30599976    0.05000000    0.07000000
   16.30777740  174.49299622    0.05000000    0.07000000
   16.30916595  180.09500122    0.05000000    0.07000000
   16.31222153  226.89599609    0.05000000    0.07000000
   16.31833458  226.89599609    0.05000000    0.07000000
   16.32250023  240.86099243    0.05000000    0.07000000
   16.32583427  243.75399780    0.05000000    0.07000000
   16.32888985  196.13800049    0.05000000    0.07000000
   16.33222389  186.28900146    0.05000000    0.07000000
   16.33555603  174.04899597    0.05000000    0.07000000
   16.33861160  201.26499939    0.05000000    0.07000000
   16.34111214  200.57699585    0.05000000    0.07000000
   16.34250069  169.46400452    0.05000000    0.07000000
   16.34555626  177.80499268    0.05000000    0.07000000
   16.34889030  191.74899292    0.05000000    0.07000000
   16.35194397  220.67599487    0.05000000    0.07000000
   16.35527802  188.85000610    0.05000000    0.07000000
   16.36111069  188.85000610    0.05000000    0.07000000
   16.36527824  177.90100098    0.05000000    0.07000000
   16.36861038  199.04400635    0.05000000    0.07000000
   16.37194443  240.12899780    0.05000000    0.07000000
   16.37444496  238.39100647    0.05000000    0.07000000
   16.37555504  245.07499695    0.05000000    0.07000000
   16.37861061  224.81399536    0.05000000    0.07000000
   16.38194466  243.18699646    0.05000000    0.07000000
   16.38527679  201.84500122    0.05000000    0.07000000
   16.38833237  230.90499878    0.05000000    0.07000000
   16.39166641  197.49800110    0.05000000    0.07000000
   16.39472198  204.51400757    0.05000000    0.07000000
   16.39805603  192.97799683    0.05000000    0.07000000
   16.40416718  192.97799683    0.05000000    0.07000000
   16.40833282  305.00799561    0.05000000    0.07000000
   16.41138840  321.16699219    0.05000000    0.07000000
   16.41472244  205.76499939    0.05000000    0.07000000
   16.41777802  298.15701294    0.05000000    0.07000000
   16.42111015  202.71600342    0.05000000    0.07000000
   16.42444420  133.31500244    0.05000000    0.07000000
   16.42749977  135.56399536    0.05000000    0.07000000
   16.43083191  217.03399658    0.05000000    0.07000000
   16.43416595  122.88099670    0.05000000    0.07000000
   16.43722153  160.12800598    0.05000000    0.07000000
   16.44055557  131.80000305    0.05000000    0.07000000
   16.44111061  126.03500366    0.05000000    0.07000000
   16.44694328  126.03500366    0.05000000    0.07000000
   16.45111275   -1.00000000    0.05000000    0.07000000
   16.45416832   72.25579834    0.05000000    0.07000000
   16.45750046   -1.00000000    0.05000000    0.07000000
   16.46083450   -1.00000000    0.05000000    0.07000000
   16.46389008   -1.00000000    0.05000000    0.07000000
   16.46722221   -1.00000000    0.05000000    0.07000000
   16.47055626   -1.00000000    0.05000000    0.07000000
   16.47361183   -1.00000000    0.05000000    0.07000000
   16.47722244   -1.00000000    0.05000000    0.07000000
   16.48055649   -1.00000000    0.05000000    0.07000000
   16.48388863   -1.00000000    0.05000000    0.07000000
   16.49388885   -1.00000000    0.05000000    0.07000000
   16.49694443   -1.00000000    0.05000000    0.07000000
   16.50027847  320.19198608    0.05000000    0.07000000
   16.50361061  170.97099304    0.05000000    0.07000000
   16.50666618  172.36500549    0.05000000    0.07000000
   16.50777817  170.43299866    0.05000000    0.07000000
   16.51055527  167.39199829    0.05000000    0.07000000
   16.51361084  184.19400024    0.05000000    0.07000000
   16.51694489  245.59399414    0.05000000    0.07000000
   16.52000046  174.42199707    0.05000000    0.07000000
   16.52333260  164.20899963    0.05000000    0.07000000
   16.52666664  237.08399963    0.05000000    0.07000000
   16.53249931  237.08399963    0.05000000    0.07000000
   16.53666687  219.53199768    0.05000000    0.07000000
   16.53999901  234.35299683    0.05000000    0.07000000
   16.54111099  236.80299377    0.05000000    0.07000000
   16.54361153  241.52099609    0.05000000    0.07000000
   16.54666710  254.19500732    0.05000000    0.07000000
   16.54999924  191.01600647    0.05000000    0.07000000
   16.55305481  131.87300110    0.05000000    0.07000000
   16.55638885  201.02099609    0.05000000    0.07000000
   16.55972099  168.32299805    0.05000000    0.07000000
   16.56277657  205.13900757    0.05000000    0.07000000
   16.56611061  155.33999634    0.05000000    0.07000000
   16.56944466  151.25000000    0.05000000    0.07000000
   16.57555580  151.25000000    0.05000000    0.07000000
   16.57972336  155.32899475    0.05000000    0.07000000
   16.58277893  149.64100647    0.05000000    0.07000000
   16.58611107  148.95799255    0.05000000    0.07000000
   16.58916664  144.87199402    0.05000000    0.07000000
   16.59250069  148.46800232    0.05000000    0.07000000
   16.59583473  142.51100159    0.05000000    0.07000000
   16.59889030  139.00399780    0.05000000    0.07000000
   16.60222244  144.22500610    0.05000000    0.07000000
   16.60555649  135.51899719    0.05000000    0.07000000
   16.60777855  146.30200195    0.05000000    0.07000000
   16.60916710  139.60400391    0.05000000    0.07000000
   16.61222267  155.16499329    0.05000000    0.07000000
   16.61833382  155.16499329    0.05000000    0.07000000
   16.62249947  227.28799438    0.05000000    0.07000000
   16.62555504  218.26400757    0.05000000    0.07000000
   16.62888908  149.26199341    0.05000000    0.07000000
   16.63222313  173.44099426    0.05000000    0.07000000
   16.63527679  136.99299622    0.05000000    0.07000000
   16.63861084  153.14799500    0.05000000    0.07000000
   16.64111137  158.15600586    0.05000000    0.07000000
   16.64222145  170.70899963    0.05000000    0.07000000
   16.64527702  160.45799255    0.05000000    0.07000000
   16.64861107  177.25199890    0.05000000    0.07000000
   16.65166664  209.57899475    0.05000000    0.07000000
   16.65499878  147.90100098    0.05000000    0.07000000
   16.66110992  147.90100098    0.05000000    0.07000000
   16.66527748  225.10600281    0.05000000    0.07000000
   16.66860962  179.01899719    0.05000000    0.07000000
   16.67166519  147.22000122    0.05000000    0.07000000
   16.67444420  162.22099304    0.05000000    0.07000000
   16.67555428  194.03799438    0.05000000    0.07000000
   16.67860985  175.68600464    0.05000000    0.07000000
   16.68194389  169.05999756    0.05000000    0.07000000
   16.68499947  167.43699646    0.05000000    0.07000000
   16.68833160  173.88699341    0.05000000    0.07000000
   16.69166565  185.70199585    0.05000000    0.07000000
   16.69472122  166.56199646    0.05000000    0.07000000
   16.69805527  176.28900146    0.05000000    0.07000000
   16.70388985  176.28900146    0.05000000    0.07000000
   16.70805550  211.53599548    0.05000000    0.07000000
   16.71138954  229.80099487    0.05000000    0.07000000
   16.71444511  151.74400330    0.05000000    0.07000000
   16.71777916  174.55900574    0.05000000    0.07000000
   16.72111130  171.45199585    0.05000000    0.07000000
   16.72416687  201.09800720    0.05000000    0.07000000
   16.72750092  195.54499817    0.05000000    0.07000000
   16.73083305  203.02200317    0.05000000    0.07000000
   16.73388863  231.19799805    0.05000000    0.07000000
   16.73722267  208.80900574    0.05000000    0.07000000
   16.74055672  231.48100281    0.05000000    0.07000000
   16.74111176  230.48699951    0.05000000    0.07000000
   16.74694443  230.48699951    0.05000000    0.07000000
   16.75083351  232.21000671    0.05000000    0.07000000
   16.75416756  200.70799255    0.05000000    0.07000000
   16.75749969  174.14999390    0.05000000    0.07000000
   16.76055527  194.19799805    0.05000000    0.07000000
   16.76388931  238.85200500    0.05000000    0.07000000
   16.76722145  261.31399536    0.05000000    0.07000000
   16.77027702  210.60400391    0.05000000    0.07000000
   16.77361107  195.45399475    0.05000000    0.07000000
   16.77444458  195.25300598    0.05000000    0.07000000
   16.77722168  175.12300110    0.05000000    0.07000000
   16.78027725  154.39500427    0.05000000    0.07000000
   16.78361130  153.38000488    0.05000000    0.07000000
   16.78972244  153.38000488    0.05000000    0.07000000
   16.79388809  147.32699585    0.05000000    0.07000000
   16.79694366  147.92799377    0.05000000    0.07000000
   16.80027771  153.57099915    0.05000000    0.07000000
   16.80360985  141.42300415    0.05000000    0.07000000
   16.80666542  153.27200317    0.05000000    0.07000000
   16.80777740  148.36399841    0.05000000    0.07000000
   16.81055450  147.34300232    0.05000000    0.07000000
   16.81361008  156.25700378    0.05000000    0.07000000
   16.81694603  152.62100220    0.05000000    0.07000000
   16.82027817  150.26800537    0.05000000    0.07000000
   16.82333374  152.31100464    0.05000000    0.07000000
   16.82666779  148.00500488    0.05000000    0.07000000
   16.83250046  148.00500488    0.05000000    0.07000000
   16.83666801  178.93200684    0.05000000    0.07000000
   16.84000015  167.50500488    0.05000000    0.07000000
   16.84111214  161.33299255    0.05000000    0.07000000
   16.84361267  165.42799377    0.05000000    0.07000000
   16.84666824  153.98199463    0.05000000    0.07000000
   16.85000038  172.80599976    0.05000000    0.07000000
   16.85333443  178.05799866    0.05000000    0.07000000
   16.85639000  163.57499695    0.05000000    0.07000000
   16.85972214  155.33900452    0.05000000    0.07000000
   16.86277771  148.15199280    0.05000000    0.07000000
   16.86611176  151.79299927    0.05000000    0.07000000
   16.86944389  143.32000732    0.05000000    0.07000000
   16.87527847  143.32000732    0.05000000    0.07000000
   16.87944412  151.44000244    0.05000000    0.07000000
   16.88277817  145.99400330    0.05000000    0.07000000
   16.88611031  147.16600037    0.05000000    0.07000000
   16.88916588  144.67199707    0.05000000    0.07000000
   16.89249992  142.53199768    0.05000000    0.07000000
   16.89583397  148.67999268    0.05000000    0.07000000
   16.89888954  147.71899414    0.05000000    0.07000000
   16.90222168  149.95700073    0.05000000    0.07000000
   16.90527725  145.20500183    0.05000000    0.07000000
   16.90777779  156.50599670    0.05000000    0.07000000
   16.90916634  150.92599487    0.05000000    0.07000000
   16.91222191  139.69599915    0.05000000    0.07000000
   16.91833305  139.69599915    0.05000000    0.07000000
   16.92249870  147.92900085    0.05000000    0.07000000
   16.92555428  151.34500122    0.05000000    0.07000000
   16.92888832  148.57200623    0.05000000    0.07000000
   16.93194389  155.87100220    0.05000000    0.07000000
   16.93527603  150.05799866    0.05000000    0.07000000
   16.93861008  152.64199829    0.05000000    0.07000000
   16.94111061  150.51600647    0.05000000    0.07000000
   16.94222069  150.55000305    0.05000000    0.07000000
   16.94527626  147.62399292    0.05000000    0.07000000
   16.94861031  150.15600586    0.05000000    0.07000000
   16.95194435  148.34500122    0.05000000    0.07000000
   16.95499992  157.25300598    0.05000000    0.07000000
   16.96111107  157.25300598    0.05000000    0.07000000
   16.96527863  156.33599854    0.05000000    0.07000000
   16.96833420  154.23300171    0.05000000    0.07000000
   16.97166634  152.45199585    0.05000000    0.07000000
   16.97444534  161.21200562    0.05000000    0.07000000
   16.97527885  171.89399719    0.05000000    0.07000000
   16.97833443  160.04299927    0.05000000    0.07000000
   16.98166656  158.77000427    0.05000000    0.07000000
   16.98500061  161.17900085    0.05000000    0.07000000
   16.98805618  153.36999512    0.05000000    0.07000000
   16.99138832  153.34800720    0.05000000    0.07000000
   16.99472237  157.92799377    0.05000000    0.07000000
   16.99777794  149.31799316    0.05000000    0.07000000
   17.00388908  149.31799316    0.05000000    0.07000000
   17.00805473  154.38400269    0.05000000    0.07000000
   17.01138878  152.34899902    0.05000000    0.07000000
   17.01444435  158.74499512    0.05000000    0.07000000
   17.01777840  154.97399902    0.05000000    0.07000000
   17.02111053  159.01800537    0.05000000    0.07000000
   17.02416611  155.68400574    0.05000000    0.07000000
   17.02750015  147.21499634    0.05000000    0.07000000
   17.03055573  155.63699341    0.05000000    0.07000000
   17.03388786  153.61399841    0.05000000    0.07000000
   17.03722191  148.54499817    0.05000000    0.07000000
   17.04027748  152.44900513    0.05000000    0.07000000
   17.04111099  154.36700439    0.05000000    0.07000000
   17.04666710  154.36700439    0.05000000    0.07000000
   17.05083275  147.99099731    0.05000000    0.07000000
   17.05416679  154.45899963    0.05000000    0.07000000
   17.05749893  152.27499390    0.05000000    0.07000000
   17.06055450  148.61999512    0.05000000    0.07000000
   17.06388855  147.39599609    0.05000000    0.07000000
   17.06694603  152.03100586    0.05000000    0.07000000
   17.07027817  147.91099548    0.05000000    0.07000000
   17.07361221  149.76899719    0.05000000    0.07000000
   17.07444572  145.45500183    0.05000000    0.07000000
   17.07722282  148.36500549    0.05000000    0.07000000
   17.08027840  152.83200073    0.05000000    0.07000000
   17.08361244  148.79800415    0.05000000    0.07000000
   17.08972359  148.79800415    0.05000000    0.07000000
   17.09388924  146.92199707    0.05000000    0.07000000
   17.09694481  146.26800537    0.05000000    0.07000000
   17.10027885  144.46299744    0.05000000    0.07000000
   17.10333443  147.19000244    0.05000000    0.07000000
   17.10666656  146.16700745    0.05000000    0.07000000
   17.10777855  141.79800415    0.05000000    0.07000000
   17.11027908  140.27900696    0.05000000    0.07000000
   17.11333466  142.10099792    0.05000000    0.07000000
   17.11666679  147.24099731    0.05000000    0.07000000
   17.12000084  142.38699341    0.05000000    0.07000000
   17.12305641  148.90199280    0.05000000    0.07000000
   17.12638855  145.80299377    0.05000000    0.07000000
   17.13249969  145.80299377    0.05000000    0.07000000
   17.13666725  143.13800049    0.05000000    0.07000000
   17.13972282  142.34199524    0.05000000    0.07000000
   17.14111137  138.00799561    0.05000000    0.07000000
   17.14361191  141.60099792    0.05000000    0.07000000
   17.14666748  147.46099854    0.05000000    0.07000000
   17.14999962  149.03199768    0.05000000    0.07000000
   17.15333366  143.88900757    0.05000000    0.07000000
   17.15638924  146.72799683    0.05000000    0.07000000
   17.15972137  143.54699707    0.05000000    0.07000000
   17.16305542  146.27400208    0.05000000    0.07000000
   17.16611099  133.87600708    0.05000000    0.07000000
   17.16944313  143.00799561    0.05000000    0.07000000
   17.17527771  143.00799561    0.05000000    0.07000000
   17.17944336  134.28100586    0.05000000    0.07000000
   17.18277740  140.47000122    0.05000000    0.07000000
   17.18583298  138.75399780    0.05000000    0.07000000
   17.18916512  138.41700745    0.05000000    0.07000000
   17.19249916  146.13499451    0.05000000    0.07000000
   17.19555473  149.24800110    0.05000000    0.07000000
   17.19888878  143.34399414    0.05000000    0.07000000
   17.20194435  142.36000061    0.05000000    0.07000000
   17.20527840  147.32899475    0.05000000    0.07000000
   17.20777893  143.38000488    0.05000000    0.07000000
   17.22833443  143.38000488    0.05000000    0.07000000
   17.23250008  155.99899292    0.05000000    0.07000000
   17.23583412  145.75500488    0.05000000    0.07000000
   17.23888969  147.44599915    0.05000000    0.07000000
   17.24111176  142.57600403    0.05000000    0.07000000
   17.24277878  151.48699951    0.05000000    0.07000000
   17.24611092  147.92599487    0.05000000    0.07000000
   17.24916649  142.93699646    0.05000000    0.07000000
   17.25250053  147.72599792    0.05000000    0.07000000
   17.25583267  143.06199646    0.05000000    0.07000000
   17.25888824  140.10299683    0.05000000    0.07000000
   17.26222229  153.91400146    0.05000000    0.07000000
   17.26555634  132.85600281    0.05000000    0.07000000
