    HOUR (UT)   FLARE FACTOR    SKY TESTER    SUN TESTER
   11.66138840   -1.00000000   -1.00000000   -1.00000000
   11.68166733  326.47399902    4.19999981    1.60000002
   11.68805599  328.61898804    4.17999983    1.60000002
   11.69138908   -1.00000000    4.15999985    1.61000001
   11.69444466  294.07400513    4.15999985    1.61000001
   11.69777775  279.85699463    4.13999987    1.61000001
   11.70083332  294.38900757    4.11999989    1.63000000
   11.70416641  314.92199707    4.11999989    1.63000000
   11.70749950  299.93399048    4.09999990    1.63000000
   11.71055508  294.62100220    4.07999992    1.63000000
   11.71388912  287.69500732    4.07999992    1.63000000
   11.71500015  300.21099854    4.05999994    1.63000000
   11.71749973  305.53601074    4.05999994    1.63000000
   11.72083282  286.58599854    4.03999996    1.63000000
   11.72416592  287.62200928    4.01999998    1.64999998
   11.72722149  274.66400146    4.00000000    1.66999996
   11.73055553  287.31399536    4.00000000    1.66999996
   11.73388958  292.82501221    4.00000000    1.66999996
   11.73694515  279.91400146    3.99000001    1.66999996
   11.74027824  271.21701050    3.97000003    1.66999996
   11.74333382  237.65299988    3.95000005    1.66999996
   11.74666691  270.33099365    3.95000005    1.66999996
   11.74833393  273.73599243    3.93000007    1.66999996
   11.75027752  269.27999878    3.93000007    1.69000006
   11.75361156  270.62600708    3.91000009    1.69000006
   11.75694466  277.09500122    3.89000010    1.69000006
   11.76000023  275.16101074    3.89000010    1.71000004
   11.76333332  251.21000671    3.86999989    1.71000004
   11.76666641  264.55499268    3.84999990    1.71000004
   11.76972198  267.30200195    3.84999990    1.71000004
   11.77305508  256.10598755    3.82999992    1.71000004
   11.77638817  235.00599670    3.82999992    1.73000002
   11.77944374  245.61799622    3.80999994    1.73000002
   11.78166676  229.16200256    3.78999996    1.71000004
   11.78305531  255.98500061    3.78999996    1.71000004
   11.78638935  258.50399780    3.78999996    1.73000002
   11.78972244  250.50700378    3.76999998    1.73000002
   11.79277802  252.85099792    3.75000000    1.73000002
   11.79611111  242.47700500    3.73000002    1.75000000
   11.79944515  257.91000366    3.72000003    1.75000000
   11.80249977  254.53300476    3.72000003    1.75000000
   11.80583382  239.76199341    3.70000005    1.76999998
   11.80888939  234.77600098    3.68000007    1.75000000
   11.81222248  239.27999878    3.66000009    1.75000000
   11.81500053  250.67500305    3.64000010    1.76999998
   11.81611156  239.86399841    3.64000010    1.75000000
   11.81916618  238.06399536    3.61999989    1.76999998
   11.82250023  228.57299805    3.59999990    1.76999998
   11.82555580  244.35400391    3.57999992    1.78999996
   11.82888889  221.27499390    3.57999992    1.78999996
   11.83222198  243.10499573    3.55999994    1.78999996
   11.83527756  256.16500854    3.53999996    1.78999996
   11.83861065  216.20199585    3.53999996    1.78999996
   11.84194374  229.80000305    3.51999998    1.78999996
   11.84499931  222.49099731    3.50000000    1.80999994
   11.84833336  232.41700745    3.48000002    1.80999994
   11.84888840  255.84700012    3.48000002    1.80999994
   11.85194492  228.29699707    3.46000004    1.80999994
   11.85527802  221.29600525    3.45000005    1.83000004
   11.85833359  231.36599731    3.41000009    1.83000004
   11.86166668  219.07000732    3.39000010    1.83000004
   11.86500072  219.72900391    3.39000010    1.83000004
   11.86805534  226.52499390    3.34999990    1.83000004
   11.87138939  214.47099304    3.32999992    1.83000004
   11.87472248  220.44599915    3.30999994    1.85000002
   11.87777805  216.81199646    3.30999994    1.83000004
   11.88111115  218.20799255    3.28999996    1.85000002
   11.88166714  224.60099792    3.26999998    1.85000002
   11.88472176  236.28500366    3.25000000    1.85000002
   11.88777733  237.90299988    3.23000002    1.86000001
   11.89111137  230.21200562    3.21000004    1.85000002
   11.89416695  221.92700195    3.21000004    1.86000001
   11.89750004  224.41400146    3.20000005    1.86000001
   11.90083313  228.08000183    3.18000007    1.86000001
   11.90388870  215.50399780    3.16000009    1.86000001
   11.90722179  204.81500244    3.16000009    1.86000001
   11.91055489  211.43600464    3.14000010    1.86000001
   11.91361046  234.78500366    3.11999989    1.86000001
   11.91499996  217.85600281    3.11999989    1.88000000
   11.91750050  222.56599426    3.09999990    1.88000000
   11.92055607  207.83099365    3.07999992    1.88000000
   11.92388916  222.49899292    3.07999992    1.88000000
   11.92694473  233.19900513    3.05999994    1.88000000
   11.93027782  206.13999939    3.03999996    1.89999998
   11.93361092  217.90100098    3.03999996    1.89999998
   11.93694496  218.43499756    3.01999998    1.89999998
   11.94000053  207.12899780    3.01999998    1.89999998
   11.94333363  231.22399902    3.01999998    1.89999998
   11.94638920  213.67900085    3.00000000    1.89999998
   11.94833374  225.77900696    3.00000000    1.91999996
   11.95027733  217.66200256    3.00000000    1.91999996
   11.95333290  235.88000488    3.00000000    1.91999996
   11.95666695  207.34899902    3.00000000    1.91999996
   11.96000004  213.58500671    3.00000000    1.91999996
   11.96305561  207.94000244    3.00000000    1.94000006
   11.96638870  212.06700134    3.00000000    1.91999996
   11.96944427  206.06100464    3.00000000    1.94000006
   11.97277737  222.50900269    3.00000000    1.94000006
   11.97611046  216.63600159    2.98000002    1.94000006
   11.97916603  215.82299805    2.98000002    1.94000006
   11.98166656  209.80200195    2.98000002    1.94000006
   11.98305511  207.60299683    2.98000002    1.94000006
   11.98611164  200.17799377    2.98000002    1.94000006
   11.98944473  204.56900024    2.96000004    1.94000006
   11.99277782  201.01400757    2.96000004    1.94000006
   11.99583340  305.83898926    2.96000004    1.96000004
   11.99916649  367.11300659    2.96000004    1.96000004
   12.00222206  395.37298584    2.96000004    1.94000006
   12.00555515  408.17898560    2.96000004    1.96000004
   12.00749969  367.38500977    2.96000004    1.96000004
   12.00888920  369.43301392    2.96000004    1.96000004
   12.01027775  365.73098755    2.98000002    1.96000004
   12.01166630  370.67498779    2.98000002    1.96000004
   12.01305580  350.21600342    2.96000004    1.96000004
   12.01444435  378.39199829    2.96000004    1.96000004
   12.01583290  340.35198975    2.96000004    1.96000004
   12.01583290  207.60299683    2.98000002    1.94000006
   12.01611137  200.17799377    2.98000002    1.94000006
   12.01611137  204.56900024    2.96000004    1.94000006
   12.01611137  201.01400757    2.96000004    1.94000006
   12.01638889  305.83898926    2.96000004    1.96000004
   12.01638889  367.11300659    2.96000004    1.96000004
   12.01638889  395.37298584    2.96000004    1.94000006
   12.01666641  408.17898560    2.96000004    1.96000004
   12.01666641  215.82299805    2.98000002    1.94000006
   12.01722240  369.82901001    2.96000004    1.96000004
   12.02055550  329.11401367    2.96000004    1.96000004
   12.02361107  308.89700317    2.96000004    1.96000004
   12.02694416  250.80200195    2.96000004    1.98000002
   12.03027725  230.48899841    2.96000004    1.98000002
   12.03666687  230.48899841    2.94000006    1.98000002
   12.04083347  205.93299866    2.94000006    1.98000002
   12.04388905  213.86099243    2.93000007    2.00000000
   12.04722309  198.73800659    2.93000007    1.98000002
   12.04972267  214.32200623    2.91000009    2.00000000
   12.05111122  206.73899841    2.91000009    1.98000002
   12.05416679  216.40299988    2.89000010    2.00000000
   12.05749989  212.76600647    2.89000010    2.00000000
   12.06055546  213.31199646    2.86999989    2.00000000
   12.06388950  206.55099487    2.86999989    2.00000000
   12.06722260  193.37199402    2.84999990    2.00000000
   12.07027817  202.46800232    2.82999992    2.00000000
   12.07361126  190.04600525    2.80999994    2.01999998
   12.07944393  190.04600525    2.78999996    2.01999998
   12.08361053  208.28799438    2.76999998    2.01999998
   12.08694458  219.69799805    2.76999998    2.01999998
   12.09000015  198.58999634    2.75000000    2.01999998
   12.09333324  200.27000427    2.73000002    2.01999998
   12.09666634  211.61999512    2.71000004    2.01999998
   12.09972191  207.44700623    2.69000006    2.01999998
   12.10305595  212.42500305    2.69000006    2.03999996
   12.10611153  211.03900146    2.67000008    2.01999998
   12.10944462  205.80099487    2.66000009    2.03999996
   12.11277771  220.54699707    2.66000009    2.03999996
   12.11583328  213.16299438    2.64000010    2.03999996
   12.11638927  225.39999390    2.64000010    2.05999994
   12.12222195  225.39999390    2.61999989    2.03999996
   12.12638855  207.97399902    2.59999990    2.05999994
   12.12972260  213.99099731    2.59999990    2.05999994
   12.13305569  219.86300659    2.59999990    2.03999996
   12.13611126  192.97300720    2.57999992    2.05999994
   12.13944435  185.01400757    2.57999992    2.05999994
   12.14249992  214.13900757    2.57999992    2.05999994
   12.14583302  203.98699951    2.57999992    2.07999992
   12.14916611  197.13099670    2.55999994    2.05999994
   12.14972210  200.14199829    2.55999994    2.05999994
   12.15277767  193.33599854    2.55999994    2.07999992
   12.15611076  203.91099548    2.55999994    2.05999994
   12.15916634  206.63699341    2.55999994    2.05999994
   12.16527748  206.63699341    2.55999994    2.07999992
   12.16944504  198.25599670    2.55999994    2.07999992
   12.17250061  198.12600708    2.53999996    2.07999992
   12.17583370  191.34199524    2.53999996    2.07999992
   12.17888927  190.93899536    2.53999996    2.07999992
   12.18222237  204.23399353    2.51999998    2.07999992
   12.18305588  187.18800354    2.51999998    2.09999990
   12.18583298  187.24200439    2.50000000    2.09999990
   12.18916702  194.36999512    2.50000000    2.09999990
   12.19222260  189.74899292    2.48000002    2.09999990
   12.19555569  190.12899780    2.48000002    2.09999990
   12.19861126  189.25900269    2.48000002    2.09999990
   12.20194435  172.55900574    2.46000004    2.11999989
   12.20805550  172.55900574    2.46000004    2.09999990
   12.21222210  177.77999878    2.44000006    2.11999989
   12.21527767  183.48199463    2.44000006    2.09999990
   12.21638870  180.42399597    2.44000006    2.11999989
   12.21916580  183.58999634    2.44000006    2.11999989
   12.22249985  187.70700073    2.42000008    2.11999989
   12.22555542  178.43200684    2.42000008    2.11999989
   12.22888851  180.88299561    2.40000010    2.13000011
   12.23194408  187.75599670    2.40000010    2.13000011
   12.23527813  192.99000549    2.40000010    2.09999990
   12.23861122  185.45500183    2.40000010    2.11999989
   12.24166679  182.25399780    2.40000010    2.13000011
   12.24499989  185.10899353    2.40000010    2.13000011
   12.25083351  185.10899353    2.40000010    2.13000011
   12.25500011  186.67900085    2.40000010    2.13000011
   12.25833321  184.83500671    2.39000010    2.13000011
   12.26138878  190.16200256    2.39000010    2.15000010
   12.26472187  188.53300476    2.39000010    2.13000011
   12.26805496  185.86599731    2.39000010    2.13000011
   12.27111053  194.22200012    2.39000010    2.13000011
   12.27444458  188.52400208    2.39000010    2.13000011
   12.27750015  196.74499512    2.36999989    2.15000010
   12.28083324  183.47700500    2.36999989    2.15000010
   12.28305531  179.82600403    2.34999990    2.13000011
   12.28444481  189.29899597    2.34999990    2.15000010
   12.28777790  188.80499268    2.34999990    2.15000010
   12.29361153  188.80499268    2.32999992    2.15000010
   12.29777813  180.64700317    2.32999992    2.15000010
   12.30111122  188.56399536    2.30999994    2.15000010
   12.30444431  195.08399963    2.30999994    2.15000010
   12.30749989  183.73599243    2.28999996    2.17000008
   12.31083393  187.67300415    2.28999996    2.17000008
   12.31388950  186.51800537    2.28999996    2.17000008
   12.31638908  171.39199829    2.28999996    2.17000008
   12.31777763  197.82600403    2.28999996    2.15000010
   12.32111073  196.80799866    2.28999996    2.17000008
   12.32416630  190.96899414    2.28999996    2.17000008
   12.32750034  195.67700195    2.28999996    2.17000008
   12.33055592  182.98100281    2.26999998    2.19000006
   12.33666611  182.98100281    2.26999998    2.17000008
   12.34083271  190.62600708    2.26999998    2.17000008
   12.34388828  184.55499268    2.25000000    2.17000008
   12.34722233  188.63800049    2.25000000    2.17000008
   12.34972191  190.62800598    2.25000000    2.17000008
   12.35083389  197.08200073    2.25000000    2.19000006
   12.35416698  181.33099365    2.23000002    2.19000006
   12.35722256  181.16000366    2.23000002    2.17000008
   12.36055565  187.80499268    2.23000002    2.21000004
   12.36361122  183.17100525    2.21000004    2.19000006
   12.36694431  177.39500427    2.21000004    2.19000006
   12.37027836  186.84899902    2.19000006    2.17000008
   12.37333393  193.96099854    2.17000008    2.19000006
   12.37944412  193.96099854    2.15000010    2.19000006
   12.38361073  183.62500000    2.15000010    2.21000004
   12.38666630  190.07499695    2.13000011    2.19000006
   12.39000034  194.56500244    2.13000011    2.21000004
   12.39333344  187.97999573    2.11999989    2.21000004
   12.39638901  191.64799500    2.11999989    2.21000004
   12.39972210  182.00100708    2.09999990    2.21000004
   12.40305519  185.27000427    2.09999990    2.21000004
   12.40611076  189.75599670    2.09999990    2.21000004
   12.40944386  184.69700623    2.09999990    2.21000004
   12.41249943  190.36300659    2.09999990    2.21000004
   12.41583252  186.60000610    2.09999990    2.21000004
   12.41638851  188.92900085    2.09999990    2.21000004
   12.42222214  188.92900085    2.09999990    2.23000002
   12.42638874  185.65499878    2.09999990    2.23000002
   12.42972279  188.17700195    2.09999990    2.23000002
   12.43277836  180.58700562    2.07999992    2.23000002
   12.43611145  185.43600464    2.07999992    2.23000002
   12.43944454  184.45899963    2.07999992    2.23000002
   12.44250011  185.55799866    2.07999992    2.25000000
   12.44583321  173.87100220    2.05999994    2.25000000
   12.44888878  184.73199463    2.07999992    2.23000002
   12.44972229  181.79299927    2.05999994    2.23000002
   12.45249939  177.36500549    2.07999992    2.25000000
   12.45583344  191.91400146    2.07999992    2.23000002
   12.45888901  181.39300537    2.05999994    2.23000002
   12.46527767  181.39300537    2.05999994    2.25000000
   12.46916580  193.20300293    2.05999994    2.25000000
   12.47249985  187.54600525    2.05999994    2.25000000
   12.47583294  177.24000549    2.05999994    2.25000000
   12.47888851  186.81100464    2.05999994    2.25000000
   12.48222160  184.95100403    2.03999996    2.25000000
   12.48305511  171.51699829    2.03999996    2.25000000
   12.48583317  177.47000122    2.03999996    2.25000000
   12.48916721  166.28100586    2.03999996    2.25000000
   12.49222279  178.03399658    2.01999998    2.25000000
   12.49555588  179.88999939    2.01999998    2.25000000
   12.49888897  172.64700317    2.01999998    2.25000000
   12.50194454  173.98599243    2.01999998    2.25000000
   12.50805569  173.98599243    2.00000000    2.25000000
   12.51222229  162.85600281    2.00000000    2.25000000
   12.51527786  165.61399841    1.98000002    2.26999998
   12.51638889  172.54899597    1.98000002    2.25000000
   12.51888847  173.78900146    1.98000002    2.25000000
   12.52222157  179.15199280    1.98000002    2.26999998
   12.52527714  176.64700317    1.96000004    2.26999998
   12.52861118  173.71400452    1.96000004    2.26999998
   12.53194427  177.15199280    1.96000004    2.26999998
   12.53500080  178.27799988    1.96000004    2.28999996
   12.53833389  168.23800659    1.94000006    2.28999996
   12.54138947  173.90600586    1.94000006    2.28999996
   12.54472256  165.41200256    1.94000006    2.28999996
   12.55083370  165.41200256    1.91999996    2.28999996
   12.55500031  168.53199768    1.89999998    2.26999998
   12.55805588  161.75199890    1.89999998    2.28999996
   12.56138897  173.37100220    1.89999998    2.28999996
   12.56472206  169.31599426    1.89999998    2.26999998
   12.56777763  169.79299927    1.89999998    2.26999998
   12.57111073  173.44799805    1.89999998    2.28999996
   12.57444477  181.04400635    1.89999998    2.28999996
   12.57750034  178.71499634    1.91999996    2.28999996
   12.58083344  168.54800415    1.91999996    2.28999996
   12.58305550  170.45100403    1.91999996    2.28999996
   12.58444405  189.42100525    1.91999996    2.28999996
   12.58777714  180.95199585    1.91999996    2.28999996
   12.59361076  180.95199585    1.91999996    2.30999994
   12.59777737  174.99499512    1.91999996    2.28999996
   12.60111141  169.59199524    1.91999996    2.28999996
   12.60416698  179.18200684    1.91999996    2.30999994
   12.60750008  169.21000671    1.91999996    2.28999996
   12.61083412  176.99299622    1.91999996    2.30999994
   12.61388969  165.62399292    1.89999998    2.30999994
   12.61638927  173.40600586    1.89999998    2.30999994
   12.61750031  171.12800598    1.91999996    2.30999994
   12.62083340  173.12199402    1.91999996    2.30999994
   12.62388897  173.42199707    1.91999996    2.30999994
   12.62722206  168.83000183    1.91999996    2.30999994
   12.63055611  172.05799866    1.91999996    2.30999994
   12.63666630  172.05799866    1.91999996    2.30999994
   12.64055538  180.70899963    1.91999996    2.32999992
   12.64388847  183.61099243    1.91999996    2.30999994
   12.64722252  169.05599976    1.91999996    2.30999994
   12.64972210  177.19700623    1.91999996    2.30999994
   12.65111065  172.92300415    1.91999996    2.32999992
   12.65416622  183.26400757    1.91999996    2.32999992
   12.65749931  176.22900391    1.89999998    2.30999994
   12.66083336  170.39399719    1.89999998    2.30999994
   12.66388893  160.64900208    1.89999998    2.32999992
   12.66722298  174.77400208    1.89999998    2.32999992
   12.67027855  180.69000244    1.89999998    2.32999992
   12.67361164  164.30499268    1.89999998    2.30999994
   12.67944431  164.30499268    1.89999998    2.30999994
   12.69888878  181.97300720    1.85000002    2.32999992
   12.70194435  171.93699646    1.85000002    2.32999992
   12.70527744  168.51400757    1.85000002    2.32999992
   12.70833302  170.98500061    1.83000004    2.34999990
   12.71166611  175.15699768    1.80999994    2.32999992
   12.71500015  165.14100647    1.80999994    2.34999990
   12.71805477  176.77400208    1.78999996    2.34999990
   12.72249985  176.77400208    1.78999996    2.34999990
   12.72638798  179.13200378    1.78999996    2.34999990
   12.72972202  158.13000488    1.76999998    2.34999990
   12.73194408  168.11900330    1.76999998    2.34999990
   12.73333359  168.35200500    1.75000000    2.34999990
   12.73666668  168.39500427    1.75000000    2.34999990
   12.74000072  166.96600342    1.75000000    2.34999990
   12.74305534  174.49800110    1.75000000    2.34999990
   12.74638939  190.15800476    1.75000000    2.34999990
   12.74944496  179.18299866    1.75000000    2.36999989
   12.75277805  182.73500061    1.73000002    2.36999989
   12.75611115  183.71800232    1.73000002    2.36999989
   12.75916672  167.24400330    1.73000002    2.36999989
   12.76527786  167.24400330    1.75000000    2.36999989
   12.76944447  164.79600525    1.75000000    2.36999989
   12.77250004  185.25300598    1.75000000    2.34999990
   12.77583313  172.35000610    1.76999998    2.36999989
   12.77916622  173.82400513    1.76999998    2.36999989
   12.78222179  169.37600708    1.76999998    2.36999989
   12.78555584  171.44999695    1.76999998    2.36999989
   12.78861141  161.46299744    1.76999998    2.36999989
   12.79194450  182.61199951    1.76999998    2.39000010
   12.79527855  172.10699463    1.76999998    2.36999989
   12.79861164  176.21899414    1.76999998    2.36999989
   12.79888916  177.58900452    1.76999998    2.36999989
   12.80222225  174.37399292    1.76999998    2.36999989
   12.80805588  174.37399292    1.76999998    2.36999989
   12.81222248  174.11000061    1.76999998    2.36999989
   12.81555557  172.28500366    1.75000000    2.36999989
   12.81861115  167.97700500    1.75000000    2.36999989
   12.82194424  167.01600647    1.73000002    2.36999989
   12.82499981  176.48500061    1.71000004    2.36999989
   12.82833290  172.27200317    1.71000004    2.36999989
   12.83166695  172.90199280    1.69000006    2.36999989
   12.83222198  170.72900391    1.69000006    2.36999989
   12.83527756  158.59899902    1.69000006    2.39000010
   12.83861065  166.26100159    1.69000006    2.39000010
   12.84194374  159.11300659    1.69000006    2.39000010
   12.84499931  173.84500122    1.66999996    2.39000010
   12.85083389  173.84500122    1.64999998    2.39000010
   12.85500050  163.35699463    1.63000000    2.40000010
   12.85833359  167.55799866    1.61000001    2.39000010
   12.86138916  162.58200073    1.60000002    2.39000010
   12.86472225  169.87199402    1.58000004    2.39000010
   12.86555576  173.95199585    1.58000004    2.39000010
   12.86833382  157.60499573    1.55999994    2.39000010
   12.87166691  164.35000610    1.55999994    2.39000010
   12.87500000  163.21299744    1.53999996    2.40000010
   12.87805557  166.99600220    1.51999998    2.40000010
   12.88138866  167.40199280    1.51999998    2.40000010
   12.88472176  165.68699646    1.50000000    2.40000010
   12.88777733  166.24699402    1.50000000    2.40000010
   12.89388847  166.24699402    1.51999998    2.40000010
   12.89777756  162.91900635    1.51999998    2.40000010
   12.89888859  167.54100037    1.51999998    2.40000010
   12.90138817  173.02499390    1.53999996    2.40000010
   12.90472221  174.28999329    1.53999996    2.40000010
   12.90805531  172.52099609    1.53999996    2.40000010
   12.91111088  176.29200745    1.55999994    2.40000010
   12.91444397  171.80700684    1.58000004    2.40000010
   12.91750050  165.16299438    1.58000004    2.40000010
   12.92083359  162.51600647    1.60000002    2.40000010
   12.92416668  159.57899475    1.60000002    2.40000010
   12.92722225  172.55799866    1.61000001    2.40000010
   12.93055630  167.27799988    1.61000001    2.40000010
   12.93222237  171.54899597    1.61000001    2.40000010
   12.93666649  171.54899597    1.63000000    2.40000010
   12.94083309  167.59300232    1.64999998    2.40000010
   12.94388866  163.87899780    1.64999998    2.40000010
   12.94722271  165.91900635    1.64999998    2.40000010
   12.95055580  166.18600464    1.64999998    2.40000010
   12.95361137  163.24699402    1.64999998    2.40000010
   12.95694447  163.64999390    1.63000000    2.42000008
   12.96027756  161.82800293    1.58000004    2.40000010
   12.96333313  162.95399475    1.53999996    2.40000010
   12.96555519  163.70100403    1.50000000    2.40000010
   12.96694374  162.98300171    1.51999998    2.40000010
   12.97027779  164.63200378    1.50000000    2.40000010
   12.97361088  164.28900146    1.50000000    2.40000010
   12.97944355  164.28900146    1.48000002    2.42000008
   12.98361111  168.06700134    1.46000004    2.40000010
   12.98694515  172.17399597    1.46000004    2.42000008
   12.99000072  163.56900024    1.46000004    2.40000010
   12.99333382  173.05000305    1.46000004    2.40000010
   12.99638939  163.98199463    1.48000002    2.42000008
   12.99888897  161.83500671    1.48000002    2.42000008
   13.00000000  162.92799377    1.48000002    2.44000006
   13.00333309  169.71299744    1.48000002    2.42000008
   13.00666714  164.73300171    1.48000002    2.42000008
   13.00972176  161.09399414    1.50000000    2.40000010
   13.01305580  167.81700134    1.50000000    2.42000008
   13.01638889  165.27900696    1.50000000    2.42000008
   13.02222157  165.27900696    1.50000000    2.42000008
   13.02638817  172.40100098    1.48000002    2.44000006
   13.02972221  169.67199707    1.48000002    2.42000008
   13.03222179  158.40100098    1.48000002    2.42000008
   13.03333378  168.39599609    1.48000002    2.44000006
   13.03666687  166.86199951    1.48000002    2.44000006
   13.04000092  164.00300598    1.46000004    2.42000008
   13.04305553  148.34899902    1.46000004    2.44000006
   13.04638958  167.01100159    1.46000004    2.42000008
   13.04944515  164.96200562    1.44000006    2.42000008
   13.05277824  160.39999390    1.44000006    2.44000006
   13.05611134  161.03500366    1.41999996    2.44000006
   13.05916691  162.12300110    1.41999996    2.44000006
   13.06527805  162.12300110    1.41999996    2.44000006
   13.06916618  164.23500061    1.39999998    2.44000006
   13.07250023  169.72000122    1.39999998    2.44000006
   13.07583332  166.72300720    1.39999998    2.44000006
   13.07888889  170.96899414    1.39999998    2.44000006
   13.08222198  157.52600098    1.39999998    2.44000006
   13.08527756  180.81100464    1.39999998    2.44000006
   13.08861065  160.55499268    1.39999998    2.44000006
   13.09194374  166.29600525    1.39999998    2.46000004
   13.09499931  165.97099304    1.39999998    2.46000004
   13.09833336  165.38000488    1.41999996    2.46000004
   13.10027790  170.60800171    1.41999996    2.46000004
   13.10194492  162.31100464    1.41999996    2.44000006
   13.10805607  162.31100464    1.41999996    2.44000006
   13.11222267  157.13099670    1.44000006    2.46000004
   13.11527824  165.64999390    1.44000006    2.46000004
   13.11861134  162.49299622    1.44000006    2.44000006
   13.12194443  150.07200623    1.44000006    2.44000006
   13.12500000  162.15899658    1.46000004    2.44000006
   13.12833309  157.36900330    1.46000004    2.44000006
   13.13166714  169.91200256    1.46000004    2.44000006
   13.13361073  162.17199707    1.46000004    2.46000004
   13.13500023  163.54200745    1.46000004    2.46000004
   13.13833332  159.70599365    1.46000004    2.46000004
   13.14166641  160.28399658    1.46000004    2.46000004
   13.14472198  154.21699524    1.46000004    2.44000006
   13.15083313  154.21699524    1.46000004    2.48000002
   13.15499973  162.27799988    1.46000004    2.46000004
   13.15805531  158.00100708    1.46000004    2.44000006
   13.16138840  155.48599243    1.46000004    2.44000006
   13.16472149  161.10299683    1.46000004    2.44000006
   13.16694450  160.90600586    1.46000004    2.46000004
   13.16833401  156.40699768    1.46000004    2.46000004
   13.17166710  157.23599243    1.50000000    2.46000004
   13.17472267  157.32600403    1.50000000    2.46000004
   13.28361130   -1.00000000   -1.00000000   -1.00000000
   13.38111115   -1.00000000   -1.00000000   -1.00000000
   13.48111057   -1.00000000   -1.00000000   -1.00000000
   13.50305557   95.81199646    1.28999996    2.51999998
   13.50611115  160.36500549    1.28999996    2.50000000
   13.50944424  156.77499390    1.28999996    2.53999996
   13.51277733  154.96600342    1.28999996    2.53999996
   13.51583290  160.30400085    1.28999996    2.53999996
   13.51916599  159.34399414    1.28999996    2.51999998
   13.52333355  159.34399414    1.28999996    2.51999998
   13.52750015  163.79200745    1.28999996    2.51999998
   13.53055573  155.08099365    1.28999996    2.51999998
   13.53388977  150.81900024    1.26999998    2.51999998
   13.53611183  152.68200684    1.26999998    2.51999998
   13.53750038  159.94299316    1.25000000    2.50000000
   13.54083347  150.88800049    1.25000000    2.53999996
   13.54388905  153.00399780    1.25000000    2.53999996
   13.54722309  149.51400757    1.25000000    2.51999998
   13.55027771  155.56500244    1.25000000    2.51999998
   13.55361176  143.21699524    1.25000000    2.51999998
   13.55694485  155.44500732    1.25000000    2.55999994
   13.56000042  149.59800720    1.25000000    2.51999998
   13.56611156  149.59800720    1.25000000    2.53999996
   13.57027817  149.44900513    1.25000000    2.53999996
   13.57333374  147.06799316    1.26999998    2.53999996
   13.57666683  157.39599609    1.26999998    2.53999996
   13.57999992  150.34800720    1.26999998    2.51999998
   13.58305550  156.57000732    1.28999996    2.53999996
   13.58638859  152.59199524    1.30999994    2.53999996
   13.58972168  151.26400757    1.30999994    2.51999998
   13.59277725  160.36700439    1.33000004    2.53999996
   13.59611034  161.27400208    1.33000004    2.51999998
   13.59916592  157.16200256    1.33000004    2.51999998
   13.60249996  154.54600525    1.33000004    2.53999996
   13.60305595  149.60200500    1.33000004    2.53999996
   13.60888958  149.60200500    1.33000004    2.53999996
   13.61305618  158.26400757    1.33000004    2.53999996
   13.61638927  162.32499695    1.30999994    2.51999998
   13.61944485  147.51499939    1.30999994    2.53999996
   13.62277794  153.45199585    1.30999994    2.53999996
   13.62611103  161.84399414    1.30999994    2.53999996
   13.62916660  157.22000122    1.28999996    2.53999996
   13.63249969  154.50799561    1.26999998    2.53999996
   13.63555527  165.03900146    1.25000000    2.53999996
   13.63638878  159.38600159    1.25000000    2.53999996
   13.63944435  157.26800537    1.21000004    2.55999994
   13.64249992  163.06399536    1.21000004    2.53999996
   13.64583302  160.11000061    1.19000006    2.55999994
   13.65166664  160.11000061    1.19000006    2.55999994
   13.65583324  156.42799377    1.16999996    2.55999994
   13.65916634  157.58000183    1.16999996    2.55999994
   13.66249943  152.43800354    1.16999996    2.55999994
   13.66555500  162.12100220    1.14999998    2.55999994
   13.66888905  154.98800659    1.14999998    2.53999996
   13.66972256  158.26800537    1.14999998    2.53999996
   13.67250061  161.67900085    1.14999998    2.53999996
   13.67555618  162.77299500    1.14999998    2.55999994
   13.67888927  156.68299866    1.14999998    2.55999994
   13.68222237  152.23699951    1.16999996    2.55999994
   13.68527794  155.32499695    1.16999996    2.55999994
   13.68861103  160.79200745    1.14999998    2.55999994
   13.69472218  160.79200745    1.14999998    2.53999996
   13.69888878  150.95399475    1.14999998    2.55999994
   13.70194435  157.86599731    1.14999998    2.55999994
   13.70305538  151.91200256    1.14999998    2.55999994
   13.70583344  162.84899902    1.14999998    2.55999994
   13.70888901  160.48899841    1.14999998    2.55999994
   13.71222210  152.90100098    1.14999998    2.55999994
   13.71555519  164.38099670    1.14999998    2.55999994
   13.71861076  176.85699463    1.14999998    2.57999992
   13.72194386  164.08299255    1.14999998    2.57999992
   13.72499943  180.83000183    1.14999998    2.55999994
   13.72833252  160.57699585    1.14999998    2.57999992
   13.73166656  165.71099854    1.13000000    2.55999994
   13.73750019  165.71099854    1.13000000    2.55999994
   13.74166679  162.76300049    1.11000001    2.57999992
   13.74472237  160.78999329    1.11000001    2.57999992
   13.74805546  153.42799377    1.11000001    2.57999992
   13.75138855  168.16999817    1.11000001    2.55999994
   13.75444412  152.74000549    1.09000003    2.55999994
   13.75777817  170.04200745    1.09000003    2.53999996
   13.76111126  164.50399780    1.09000003    2.57999992
   13.76416683  166.87899780    1.09000003    2.57999992
   13.76749992  160.93099976    1.09000003    2.57999992
   13.76972198  157.88600159    1.09000003    2.57999992
   13.77111053  165.05099487    1.09000003    2.57999992
   13.77416611  160.26199341    1.11000001    2.55999994
   13.78027725  160.26199341    1.11000001    2.55999994
   13.78444481  170.80400085    1.11000001    2.57999992
   13.78777790  186.64300537    1.11000001    2.57999992
   13.79083347  194.54899597    1.11000001    2.57999992
   13.79416752  199.49000549    1.11000001    2.59999990
   13.79750061  195.88099670    1.11000001    2.57999992
   13.80055618  215.47999573    1.11000001    2.57999992
   13.80305576  189.54200745    1.11000001    2.57999992
   13.80444431  169.93099976    1.11000001    2.57999992
   13.80749989  188.82499695    1.11000001    2.57999992
   13.81083393  178.96400452    1.11000001    2.55999994
   13.81416702  175.20100403    1.11000001    2.55999994
   13.81722260  169.41499329    1.13000000    2.57999992
   13.82305527  169.41499329    1.13000000    2.57999992
   13.82722187  171.16900635    1.14999998    2.55999994
   13.83055592  166.34399414    1.14999998    2.59999990
   13.83388901  175.40199280    1.13000000    2.55999994
   13.83638859  190.78599548    1.14999998    2.57999992
   13.83749962  169.15899658    1.14999998    2.57999992
   13.84055519  176.93699646    1.13000000    2.59999990
   13.84388828  146.47399902    1.14999998    2.55999994
   13.84722233  161.57899475    1.13000000    2.57999992
   13.85027790  156.40899658    1.13000000    2.55999994
   13.85361195  154.43099976    1.13000000    2.55999994
   13.85666752  158.91499329    1.13000000    2.55999994
   13.86000061  162.98399353    1.13000000    2.55999994
   13.86611176  162.98399353    1.13000000    2.59999990
   13.87027836  170.15699768    1.11000001    2.57999992
   13.87333393  167.65400696    1.11000001    2.55999994
   13.87666702  155.79600525    1.11000001    2.55999994
   13.88000011  150.04600525    1.11000001    2.59999990
   13.88305569  153.46899414    1.11000001    2.57999992
   13.88638878  161.41700745    1.11000001    2.57999992
   13.88944435  151.33700562    1.09000003    2.57999992
   13.89277744  160.66900635    1.09000003    2.57999992
   13.89611053  155.39700317    1.09000003    2.55999994
   13.89916611  150.41600037    1.09000003    2.57999992
   13.90249920  166.29699707    1.07000005    2.57999992
   13.90305519  155.22900391    1.07000005    2.57999992
   13.90888882  155.22900391    1.09000003    2.57999992
   13.91305542  163.33000183    1.07000005    2.57999992
   13.91611099  155.99800110    1.07000005    2.57999992
   13.91944504  164.36199951    1.07000005    2.57999992
   13.92277813  157.18499756    1.07000005    2.59999990
   13.92611122  156.80099487    1.07000005    2.57999992
   13.92916679  155.85699463    1.05999994    2.59999990
   13.93249989  150.22099304    1.05999994    2.57999992
   13.93555546  151.87600708    1.03999996    2.57999992
   13.93638897  162.49699402    1.03999996    2.57999992
   13.93944454  153.11000061    1.03999996    2.57999992
   13.94250011  159.98500061    1.03999996    2.59999990
   13.94583321  168.10600281    1.03999996    2.59999990
   13.95166683  168.10600281    1.03999996    2.59999990
   13.95583344  137.43099976    1.03999996    2.59999990
   13.95916653  151.07699585    1.03999996    2.57999992
   13.96222210  158.82699585    1.03999996    2.59999990
   13.96555519  159.66200256    1.01999998    2.59999990
   13.96888828  155.26699829    1.01999998    2.59999990
   13.96999931  151.85699463    1.01999998    2.59999990
   13.97249985  162.70700073    1.01999998    2.57999992
   13.97583294  162.63600159    1.01999998    2.57999992
   13.97916603  159.91000366    1.01999998    2.59999990
   13.98222160  162.14199829    1.01999998    2.59999990
   13.98555565  159.99800110    1.01999998    2.57999992
   13.98888874  161.95799255    1.01999998    2.59999990
   13.99444485  161.95799255    1.01999998    2.57999992
   13.99861145  157.08000183    1.01999998    2.59999990
   14.00194454  170.65299988    1.01999998    2.59999990
   14.00305557  167.71299744    1.01999998    2.59999990
   14.00555515  157.13000488    1.01999998    2.59999990
   14.00861073  156.28900146    1.01999998    2.57999992
   14.01194477  162.06399536    1.01999998    2.59999990
   14.01527786  149.78900146    1.03999996    2.59999990
   14.01833344  168.69799805    1.03999996    2.59999990
   14.02166653  153.64799500    1.03999996    2.59999990
   14.02499962  162.05200195    1.03999996    2.59999990
   14.02805519  152.86900330    1.03999996    2.59999990
   14.03138828  158.93699646    1.03999996    2.59999990
   14.03750038  158.93699646    1.03999996    2.59999990
   14.04166698  157.18499756    1.03999996    2.59999990
   14.04472256  160.26899719    1.03999996    2.59999990
   14.04805565  165.51199341    1.03999996    2.59999990
   14.05111122  151.61999512    1.03999996    2.59999990
   14.05444431  152.35499573    1.03999996    2.59999990
   14.05777836  153.77000427    1.01999998    2.59999990
   14.06083393  152.96299744    1.01999998    2.59999990
   14.06416702  152.63099670    1.01999998    2.59999990
   14.06750011  162.21800232    1.01999998    2.59999990
   14.06972218  147.13900757    1.00000000    2.59999990
   14.07111073  148.51699829    1.00000000    2.59999990
   14.07416630  168.33000183    1.00000000    2.59999990
   14.08027744  168.33000183    1.00000000    2.59999990
   14.08444405  156.85800171    1.00000000    2.59999990
   14.08749962  159.91700745    1.00000000    2.59999990
   14.09083271  164.12300110    0.98000002    2.61999989
   14.09416676  152.07000732    0.98000002    2.59999990
   14.09722233  164.52999878    0.95999998    2.61999989
   14.10055637  156.04699707    0.95999998    2.61999989
   14.10305595  158.79499817    0.95999998    2.61999989
   14.10416698  158.90899658    0.95999998    2.61999989
   14.10722256  151.19599915    0.95999998    2.59999990
   14.11055565  165.13400269    0.95999998    2.59999990
   14.11388969  154.71200562    0.95999998    2.61999989
   14.11694431  161.26100159    0.95999998    2.59999990
   14.12305546  161.26100159    0.95999998    2.61999989
   14.12722206  157.75799561    0.95999998    2.64000010
   14.13055611  144.91799927    0.95999998    2.61999989
   14.13361073  153.68499756    0.95999998    2.61999989
   14.13638878  154.68800354    0.95999998    2.59999990
   14.13749981  151.43699646    0.95999998    2.59999990
   14.14055538  157.71000671    0.95999998    2.59999990
   14.14388847  156.47300720    0.95999998    2.61999989
   14.14750004  151.15199280    0.95999998    2.61999989
   14.15055561  147.20799255    0.95999998    2.61999989
   14.15388870  150.09300232    0.95999998    2.61999989
   14.15722179  144.61900330    0.95999998    2.59999990
   14.16055489  144.18200684    0.95999998    2.59999990
   14.16583252  144.18200684    0.95999998    2.59999990
   14.17000008  155.94999695    0.98000002    2.61999989
   14.17333412  151.44900513    0.98000002    2.59999990
   14.17638874  146.73500061    0.98000002    2.59999990
   14.17972279  153.79699707    0.98000002    2.61999989
   14.18305588  153.01300049    0.98000002    2.61999989
   14.18611145  146.34899902    1.00000000    2.61999989
   14.18944454  157.72999573    1.00000000    2.61999989
   14.19277763  154.83299255    1.00000000    2.61999989
   14.19583321  153.39100647    1.00000000    2.61999989
   14.19916630  155.25199890    1.00000000    2.61999989
   14.20222187  154.58700562    1.00000000    2.61999989
   14.20305538  157.22700500    1.00000000    2.61999989
   14.20888901  157.22700500    1.00000000    2.59999990
   14.21277714  154.48800659    1.00000000    2.64000010
   14.21611118  158.49499512    1.00000000    2.61999989
   14.21944427  163.15299988    1.00000000    2.59999990
   14.22249985  163.87399292    1.00000000    2.59999990
   14.22583294  154.40100098    1.00000000    2.61999989
   14.22916603  162.75399780    1.00000000    2.59999990
   14.23222160  152.42300415    1.00000000    2.61999989
   14.23555565  155.31500244    1.00000000    2.61999989
   14.23638916  152.84599304    0.98000002    2.61999989
   14.23916721  151.85800171    0.98000002    2.64000010
   14.24250031  147.16099548    0.98000002    2.61999989
   14.24555588  140.16099548    0.98000002    2.64000010
   14.25166702  140.16099548    0.98000002    2.61999989
   14.25583363  155.92100525    0.95999998    2.64000010
   14.25916672  151.50500488    0.94000000    2.64000010
   14.26222229  144.76699829    0.94000000    2.61999989
   14.26555538  133.88299561    0.94000000    2.61999989
   14.26861095  149.39199829    0.94000000    2.61999989
   14.26972198  158.62800598    0.94000000    2.61999989
   14.27250004  138.47900391    0.92000002    2.59999990
   14.27583313  144.92700195    0.92000002    2.59999990
   14.27888870  155.23500061    0.92000002    2.61999989
   14.28222179  144.33000183    0.92000002    2.64000010
   14.28527832  146.74800110    0.92000002    2.64000010
   14.28861141  144.75199890    0.89999998    2.64000010
   14.29444504  144.75199890    0.88000000    2.61999989
   14.29861164  149.80200195    0.88000000    2.64000010
   14.30194473  149.01600647    0.88000000    2.61999989
   14.30305576  149.49600220    0.89999998    2.61999989
   14.30555534  151.08599854    0.89999998    2.61999989
   14.30888939  146.43699646    0.89999998    2.61999989
   14.31194496  154.35899353    0.89999998    2.64000010
   14.31527805  155.46099854    0.89999998    2.64000010
   14.31833363  150.07200623    0.92000002    2.61999989
   14.32166672  154.50599670    0.92000002    2.61999989
   14.32499981  147.34500122    0.92000002    2.64000010
   14.32805538  149.85200500    0.94000000    2.61999989
   14.33138847  151.56300354    0.94000000    2.64000010
   14.33722210  151.56300354    0.94000000    2.61999989
   14.34138870  153.20100403    0.95999998    2.64000010
   14.34472179  141.32800293    0.95999998    2.59999990
   14.34777737  150.47700500    0.95999998    2.64000010
   14.35111141  143.78399658    0.94000000    2.64000010
   14.35444450  139.06799316    0.94000000    2.64000010
   14.35750008  146.86700439    0.94000000    2.64000010
   14.36083412  147.69599915    0.94000000    2.64000010
   14.36416721  151.33799744    0.94000000    2.64000010
   14.36750031  143.24499512    0.92000002    2.64000010
   14.36972237  147.95199585    0.92000002    2.64000010
   14.37111092  136.44799805    0.92000002    2.61999989
   14.37444496  147.56599426    0.92000002    2.61999989
   14.38027763  147.56599426    0.92000002    2.64000010
   14.38416672  141.73800659    0.92000002    2.64000010
   14.38749981  150.66700745    0.92000002    2.64000010
   14.39083290  143.61799622    0.92000002    2.64000010
   14.39388847  159.68899536    0.92000002    2.61999989
   14.39722252  140.36599731    0.92000002    2.64000010
   14.40055561  154.78500366    0.92000002    2.64000010
   14.40305519  149.80299377    0.92000002    2.64000010
   14.40416622  149.01600647    0.92000002    2.61999989
   14.40749931  151.02499390    0.92000002    2.61999989
   14.41055489  145.61300659    0.92000002    2.64000010
   14.41388893  157.95199585    0.92000002    2.64000010
   14.41722298  150.41799927    0.92000002    2.64000010
   14.42305565  150.41799927    0.94000000    2.64000010
   14.42722225  142.11799622    0.94000000    2.64000010
   14.43027782  138.88499451    0.94000000    2.64000010
   14.43361092  150.50999451    0.94000000    2.64000010
   14.43638897  155.76699829    0.94000000    2.64000010
   14.43722248  149.36399841    0.94000000    2.64000010
   14.44055557  149.89599609    0.94000000    2.64000010
   14.44361115  148.52499390    0.94000000    2.61999989
   14.44694424  154.24800110    0.94000000    2.64000010
   14.45027733  142.84899902    0.92000002    2.64000010
   14.45333290  153.52600098    0.92000002    2.64000010
   14.45666695  150.53799438    0.92000002    2.64000010
   14.46000004  140.23699951    0.92000002    2.64000010
   14.46583271  140.23699951    0.89999998    2.64000010
   14.46999931  141.36500549    0.89999998    2.64000010
   14.47333336  151.20599365    0.88000000    2.64000010
   14.47638798  154.40400696    0.88000000    2.64000010
   14.47972202  142.93200684    0.88000000    2.64000010
   14.48277760  145.77999878    0.86000001    2.64000010
   14.48611164  152.11300659    0.86000001    2.64000010
   14.48944473  146.95399475    0.86000001    2.64000010
   14.49250031  144.29800415    0.86000001    2.64000010
   14.49583340  150.27299500    0.86000001    2.64000010
   14.49916649  154.66200256    0.83999997    2.66000009
   14.50222206  155.96099854    0.83999997    2.66000009
   14.50305557  154.01400757    0.83999997    2.66000009
   14.52388859  154.01400757    0.83999997    2.64000010
   14.52805519  152.99699402    0.83999997    2.64000010
   14.53138828  156.18600464    0.83999997    2.66000009
   14.53444481  154.41400146    0.83999997    2.66000009
   14.53638935  151.15100098    0.83999997    2.66000009
   14.53805637  160.13699341    0.83999997    2.66000009
   14.54138947  149.36399841    0.83999997    2.66000009
   14.54444504  144.42399597    0.83999997    2.66000009
   14.54777813  152.06900024    0.83999997    2.66000009
   14.55111122  155.28300476    0.83999997    2.66000009
   14.55416679  156.63600159    0.83999997    2.64000010
   14.55749989  153.47200012    0.83999997    2.64000010
   14.56083393  152.97399902    0.83999997    2.64000010
   14.56666660  152.97399902    0.86000001    2.66000009
   14.57083321  159.55299377    0.86000001    2.66000009
   14.57388878  150.54100037    0.86000001    2.64000010
   14.57722187  150.64900208    0.86000001    2.64000010
   14.58055592  154.13000488    0.86000001    2.64000010
   14.58361053  148.49699402    0.86000001    2.64000010
   14.58694458  149.58099365    0.86000001    2.66000009
   14.59027767  154.24299622    0.88000000    2.64000010
   14.59333324  153.57299805    0.88000000    2.64000010
   14.59666634  140.93899536    0.88000000    2.64000010
   14.59972191  152.03300476    0.89999998    2.66000009
   14.60305595  149.89399719    0.89999998    2.66000009
   14.60361195  150.06799316    0.89999998    2.66000009
   14.60944462  150.06799316    0.89999998    2.66000009
   14.61361122  147.07099915    0.89999998    2.66000009
   14.61694431  156.30000305    0.89999998    2.67000008
   14.61999989  141.57800293    0.88000000    2.64000010
   14.62333393  148.49800110    0.88000000    2.64000010
   14.62666702  148.60800171    0.88000000    2.64000010
   14.62972260  147.03199768    0.86000001    2.66000009
   14.63305569  152.18099976    0.86000001    2.66000009
   14.63611126  153.38400269    0.86000001    2.66000009
   14.63694477  152.60899353    0.86000001    2.66000009
   14.64000034  150.46099854    0.86000001    2.66000009
   14.64305496  160.46299744    0.86000001    2.64000010
   14.64638901  154.31100464    0.86000001    2.64000010
   14.65222168  154.31100464    0.88000000    2.64000010
   14.65638828  154.39599609    0.86000001    2.66000009
   14.65972137  148.54100037    0.88000000    2.64000010
   14.66305542  151.91099548    0.86000001    2.66000009
   14.66611099  143.12600708    0.86000001    2.66000009
   14.66944504  156.33500671    0.86000001    2.66000009
   14.67027855  148.35699463    0.86000001    2.66000009
   14.67305565  150.16600037    0.83999997    2.66000009
   14.67611122  142.99000549    0.83999997    2.66000009
   14.67944431  148.11399841    0.83999997    2.66000009
   14.68277836  155.38499451    0.83999997    2.66000009
   14.68583298  156.21400452    0.81999999    2.67000008
   14.68916702  153.81500244    0.81999999    2.66000009
   14.69527817  153.81500244    0.81999999    2.64000010
   14.69944477  142.73199463    0.81999999    2.67000008
   14.70249939  153.45700073    0.81999999    2.67000008
   14.70361137  153.75599670    0.81999999    2.67000008
   14.70638847  135.55999756    0.80000001    2.66000009
   14.70944405  146.39999390    0.80000001    2.66000009
   14.71277714  132.22099304    0.80000001    2.67000008
   14.71611118  137.37899780    0.81999999    2.67000008
   14.71916580  144.73399353    0.81999999    2.66000009
   14.72249985  148.92900085    0.81999999    2.67000008
   14.72555542  149.68400574    0.81999999    2.67000008
   14.72888851  142.14700317    0.81999999    2.66000009
   14.73222160  154.24499512    0.81999999    2.66000009
   14.73805618  154.24499512    0.81999999    2.66000009
   14.74222279  148.64199829    0.81999999    2.66000009
   14.74527836  153.25199890    0.80000001    2.64000010
   14.74861145  147.74400330    0.80000001    2.66000009
   14.75194454  145.61300659    0.80000001    2.67000008
   14.75500011  148.90400696    0.80000001    2.67000008
   14.75833321  149.37300110    0.80000001    2.69000006
   14.76166630  147.86799622    0.80000001    2.66000009
   14.76472187  152.47300720    0.80000001    2.67000008
   14.76805496  153.80900574    0.80000001    2.67000008
   14.77027798  159.44700623    0.80000001    2.67000008
   14.77166653  151.56900024    0.80000001    2.67000008
   14.77472210  144.21800232    0.80000001    2.67000008
   14.78083324  144.21800232    0.80000001    2.66000009
   14.78500080  149.86500549    0.80000001    2.67000008
   14.78833389  150.52799988    0.80000001    2.67000008
   14.79138947  148.42500305    0.80000001    2.66000009
   14.79500008  148.26600647    0.80000001    2.66000009
   14.79833412  148.08099365    0.80000001    2.67000008
   14.80138874  147.95500183    0.80000001    2.66000009
   14.80361176  148.74899292    0.80000001    2.66000009
   14.80527782  144.62399292    0.80000001    2.64000010
   14.80833340  142.61700439    0.80000001    2.67000008
   14.81166649  148.44200134    0.80000001    2.67000008
   14.81500053  145.99000549    0.80000001    2.67000008
   14.81805515  149.03799438    0.80000001    2.66000009
   14.82361126  149.03799438    0.80000001    2.67000008
   14.82777786  143.83700562    0.80000001    2.67000008
   14.83111095  147.07299805    0.80000001    2.66000009
   14.83444405  153.66200256    0.80000001    2.67000008
   14.83694458  150.03599548    0.80000001    2.67000008
   14.83805561  155.64900208    0.80000001    2.69000006
   14.84111118  154.83700562    0.80000001    2.67000008
   14.84444427  154.21600342    0.80000001    2.67000008
   14.84749985  149.11700439    0.80000001    2.66000009
   14.85083389  154.59199524    0.80000001    2.67000008
   14.85416698  152.19400024    0.80000001    2.69000006
   14.85750008  150.54400635    0.80000001    2.66000009
   14.86055565  160.71899414    0.80000001    2.66000009
   14.86666679  160.71899414    0.80000001    2.67000008
   14.87055588  151.77000427    0.80000001    2.67000008
   14.87388897  152.91999817    0.80000001    2.67000008
   14.87722206  152.89900208    0.80000001    2.67000008
   14.88027763  149.99499512    0.80000001    2.66000009
   14.88361073  150.22000122    0.80000001    2.67000008
   14.88694477  152.89500427    0.79000002    2.67000008
   14.89000034  147.26699829    0.79000002    2.67000008
   14.89333344  140.44099426    0.79000002    2.67000008
   14.89666653  152.75599670    0.76999998    2.67000008
   14.89972210  151.95500183    0.76999998    2.67000008
   14.90305519  156.29600525    0.75000000    2.67000008
   14.90361118  155.64100647    0.75000000    2.67000008
   14.90944386  155.64100647    0.73000002    2.67000008
   14.91361046  155.57200623    0.73000002    2.67000008
   14.91666698  155.77499390    0.70999998    2.69000006
   14.92000008  144.41700745    0.70999998    2.69000006
   14.92333412  161.50399780    0.70999998    2.69000006
   14.92638874  153.61999512    0.70999998    2.69000006
   14.92972279  148.34100342    0.70999998    2.67000008
   14.93305588  148.24200439    0.70999998    2.67000008
   14.93611145  153.19000244    0.70999998    2.66000009
   14.93694496  152.11099243    0.70999998    2.66000009
   14.93972206  156.24200439    0.70999998    2.67000008
   14.94305515  147.81399536    0.70999998    2.67000008
   14.94611073  151.62399292    0.70999998    2.67000008
   14.95222187  151.62399292    0.70999998    2.67000008
   14.95638847  146.99600220    0.73000002    2.67000008
   14.95944405  141.82400513    0.73000002    2.67000008
   14.96277714  154.61500549    0.73000002    2.67000008
   14.96611118  149.22399902    0.73000002    2.67000008
   14.96916580  150.93699646    0.73000002    2.67000008
   14.97027779  147.36099243    0.73000002    2.67000008
   14.97305489  154.57600403    0.73000002    2.67000008
   14.97611046  150.80200195    0.73000002    2.69000006
   14.97944355  160.06399536    0.73000002    2.67000008
   14.98277760  143.26899719    0.73000002    2.67000008
   14.98583317  149.53599548    0.73000002    2.67000008
   14.98916721  148.42999268    0.73000002    2.66000009
   14.99499989  148.42999268    0.75000000    2.67000008
   14.99916649  141.56799316    0.75000000    2.67000008
   15.00249958  150.13000488    0.75000000    2.67000008
   15.00361156  140.57699585    0.75000000    2.67000008
   15.00611115  151.74299622    0.75000000    2.67000008
   15.00916672  155.53900146    0.75000000    2.67000008
   15.01249981  153.01600647    0.75000000    2.67000008
   15.01583290  154.97700500    0.75000000    2.67000008
   15.01888847  135.24200439    0.75000000    2.67000008
   15.02222157  151.30900574    0.75000000    2.69000006
   15.02555561  149.65899658    0.75000000    2.67000008
   15.02861118  160.71400452    0.75000000    2.67000008
   15.03194427  140.06199646    0.75000000    2.66000009
   15.03805637  140.06199646    0.75000000    2.67000008
   15.04194450  153.47700500    0.75000000    2.67000008
   15.04527855  149.05900574    0.75000000    2.69000006
   15.04861164  151.93400574    0.75000000    2.69000006
   15.05166721  143.26600647    0.75000000    2.67000008
   15.05500031  162.68099976    0.75000000    2.67000008
   15.05805588  156.66799927    0.75000000    2.67000008
   15.06138897  165.08799744    0.75000000    2.69000006
   15.06472206  162.19500732    0.75000000    2.67000008
   15.06777763  156.35600281    0.75000000    2.67000008
   15.07027817  154.07200623    0.75000000    2.67000008
   15.07166672  165.05400085    0.75000000    2.67000008
   15.07472229  150.19900513    0.75000000    2.69000006
   15.08083344  150.19900513    0.75000000    2.69000006
   15.08500004  154.77499390    0.75000000    2.67000008
   15.08805561  148.33099365    0.73000002    2.67000008
   15.09138870  150.13000488    0.73000002    2.67000008
   15.09444427  145.53900146    0.73000002    2.67000008
   15.09777737  155.99499512    0.73000002    2.67000008
   15.10111141  153.76400757    0.73000002    2.69000006
   15.10361195  137.91700745    0.73000002    2.69000006
   15.10472298  152.28900146    0.73000002    2.69000006
   15.10805607  151.32000732    0.73000002    2.69000006
   15.11111164  151.54499817    0.73000002    2.66000009
   15.11444473  158.49299622    0.73000002    2.66000009
   15.11750031  149.48500061    0.73000002    2.69000006
   15.12361145  149.48500061    0.70999998    2.69000006
   15.12777805  156.73300171    0.70999998    2.69000006
   15.13111115  148.07800293    0.70999998    2.69000006
   15.13416672  153.62199402    0.70999998    2.67000008
   15.13694477  154.60200500    0.73000002    2.67000008
   15.13777733  145.77900696    0.73000002    2.67000008
   15.14083290  150.61000061    0.73000002    2.67000008
   15.14416695  157.62100220    0.73000002    2.67000008
   15.14750004  147.58900452    0.73000002    2.67000008
   15.15055561  163.50100708    0.70999998    2.69000006
   15.15388870  160.44099426    0.70999998    2.69000006
   15.15694427  157.05700684    0.70999998    2.69000006
   15.16027737  151.54100037    0.70999998    2.69000006
   15.16638851  151.54100037    0.73000002    2.67000008
   15.17055607  148.38499451    0.70999998    2.69000006
   15.17388916  146.69299316    0.70999998    2.69000006
   15.17694473  146.78999329    0.70999998    2.69000006
   15.18027782  152.81700134    0.70999998    2.67000008
   15.18361092  145.37199402    0.70999998    2.69000006
   15.18666649  145.29800415    0.70999998    2.67000008
   15.19000053  147.67300415    0.70999998    2.67000008
   15.19333363  145.67100525    0.70999998    2.69000006
   15.19638920  136.38000488    0.70999998    2.69000006
   15.19972229  140.43400574    0.70999998    2.69000006
   15.20277786  152.66499329    0.70999998    2.69000006
   15.20361137  139.70500183    0.70999998    2.69000006
   15.20944405  139.70500183    0.69000000    2.67000008
   15.21333313  151.30400085    0.69000000    2.71000004
   15.21666622  145.38200378    0.69000000    2.69000006
   15.21999931  148.94999695    0.67000002    2.69000006
   15.22305489  146.02099609    0.67000002    2.69000006
   15.22638798  149.43400574    0.67000002    2.69000006
   15.22972202  156.06900024    0.67000002    2.69000006
   15.23277760  146.47399902    0.67000002    2.67000008
   15.23611164  151.60099792    0.69000000    2.69000006
   15.23694515  148.40499878    0.69000000    2.69000006
   15.23972225  150.41799927    0.69000000    2.69000006
   15.24277782  150.52099609    0.69000000    2.69000006
   15.24611092  151.21099854    0.69000000    2.71000004
   15.25222206  151.21099854    0.69000000    2.67000008
   15.25638866  129.78900146    0.69000000    2.69000006
   15.25944424  153.12899780    0.70999998    2.69000006
   15.26277733  146.83099365    0.70999998    2.69000006
   15.26611137  138.99000549    0.70999998    2.69000006
   15.26916599  143.22200012    0.70999998    2.71000004
   15.27027798  137.64999390    0.70999998    2.71000004
   15.27277756  144.72300720    0.70999998    2.69000006
   15.27583313  145.20199585    0.70999998    2.69000006
   15.27916622  146.45100403    0.69000000    2.71000004
   15.28249931  136.77900696    0.69000000    2.69000006
   15.28555584  144.92199707    0.69000000    2.69000006
   15.28888893  148.33700562    0.69000000    2.69000006
   15.29500008  148.33700562    0.64999998    2.69000006
   15.29916668  154.75999451    0.67000002    2.69000006
   15.30222225  150.11900330    0.67000002    2.69000006
   15.30361176  158.46400452    0.67000002    2.69000006
   15.30611134  153.00399780    0.67000002    2.71000004
   15.30916691  156.10099792    0.67000002    2.71000004
   15.31250000  152.57400513    0.67000002    2.69000006
   15.31583309  147.86700439    0.67000002    2.67000008
   15.31888866  153.45899963    0.67000002    2.71000004
   15.32222176  155.78700256    0.64999998    2.69000006
   15.32555580  136.91900635    0.64999998    2.69000006
   15.32861137  152.29299927    0.63000000    2.69000006
   15.33194447  152.93699646    0.64999998    2.69000006
   15.33777714  152.93699646    0.63000000    2.71000004
   15.34194374  147.81799316    0.63000000    2.69000006
   15.34527779  144.24600220    0.63000000    2.73000002
   15.34833336  155.19099426    0.63000000    2.69000006
   15.35166740  154.69299316    0.63000000    2.69000006
   15.35500050  151.36399841    0.63000000    2.69000006
   15.35805607  150.10099792    0.63000000    2.69000006
   15.36138916  146.78399658    0.63000000    2.69000006
   15.36472225  153.11500549    0.63000000    2.69000006
   15.36777782  158.27400208    0.64999998    2.69000006
   15.37027836  162.56100464    0.64999998    2.71000004
   15.37138939  148.82200623    0.64999998    2.71000004
   15.37472248  155.19799805    0.63000000    2.69000006
   15.38055611  155.19799805    0.63000000    2.69000006
   15.38472176  153.34300232    0.61000001    2.69000006
   15.38805580  159.99699402    0.61000001    2.69000006
   15.39138889  154.89100647    0.61000001    2.71000004
   15.39444447  153.85000610    0.58999997    2.71000004
   15.39777756  152.00599670    0.58999997    2.69000006
   15.40111065  145.44900513    0.58999997    2.69000006
   15.40361118  147.26699829    0.58999997    2.71000004
   15.40472221  155.41799927    0.58999997    2.71000004
   15.40777779  159.57400513    0.58999997    2.71000004
   15.41111088  143.24200439    0.58999997    2.71000004
   15.41444397  154.38499451    0.58999997    2.69000006
   15.41750050  155.65400696    0.58999997    2.69000006
   15.42361164  155.65400696    0.61000001    2.69000006
   15.42777824  152.76199341    0.61000001    2.69000006
   15.43083382  147.96200562    0.61000001    2.71000004
   15.43416691  148.75000000    0.61000001    2.71000004
   15.43694496  141.65199280    0.61000001    2.71000004
   15.43777752  157.77900696    0.61000001    2.71000004
   15.44111156  155.42199707    0.61000001    2.71000004
   15.44416714  157.28199768    0.63000000    2.71000004
   15.44750023  148.68699646    0.63000000    2.71000004
   15.45055580  161.98300171    0.63000000    2.71000004
   15.45388889  162.05700684    0.63000000    2.71000004
   15.45722198  151.74200439    0.63000000    2.71000004
   15.46027756  147.00999451    0.63000000    2.71000004
   15.46638870  147.00999451    0.63000000    2.69000006
   15.47055531  147.02200317    0.63000000    2.71000004
   15.47361088  150.46000671    0.63000000    2.71000004
   15.47694397  155.07200623    0.63000000    2.71000004
   15.48027706  156.45599365    0.63000000    2.71000004
   15.48333359  154.47700500    0.63000000    2.71000004
   15.48666668  153.19000244    0.63000000    2.71000004
   15.49000072  151.19599915    0.64999998    2.71000004
   15.49305534  145.82899475    0.63000000    2.71000004
   15.49638939  148.63900757    0.64999998    2.71000004
   15.49944496  149.27799988    0.69000000    2.71000004
   15.50277805  143.03399658    0.69000000    2.71000004
   15.50361156  146.74200439    0.69000000    2.71000004
   15.50916672  146.74200439    0.69000000    2.71000004
   15.51333332  148.25000000    0.69000000    2.69000006
   15.51666641  145.10899353    0.69000000    2.71000004
   15.51972198  143.88499451    0.67000002    2.71000004
   15.53750038  145.80499268    0.58999997    2.71000004
   15.53972244  149.15600586    0.58999997    2.71000004
   15.54305553  143.31799316    0.58999997    2.71000004
   15.54638958  145.53799438    0.58999997    2.71000004
   15.55222225  145.53799438    0.61000001    2.71000004
   15.55638885  148.72599792    0.63000000    2.71000004
   15.55972195  151.08799744    0.63000000    2.69000006
   15.56277752  143.13499451    0.63000000    2.71000004
   15.56611156  149.40699768    0.61000001    2.69000006
   15.56916618  151.00999451    0.61000001    2.69000006
   15.57055569  148.78399658    0.61000001    2.71000004
   15.57305527  150.05999756    0.61000001    2.71000004
   15.57638836  150.43499756    0.61000001    2.71000004
   15.57944393  149.12600708    0.63000000    2.71000004
   15.58277798  154.41600037    0.61000001    2.71000004
   15.58611107  144.48300171    0.61000001    2.71000004
   15.58916664  152.40499878    0.61000001    2.71000004
   15.59499931  152.40499878    0.61000001    2.71000004
   15.59916592  151.15800476    0.61000001    2.71000004
   15.60249996  146.75500488    0.61000001    2.71000004
   15.60388947  148.34399414    0.61000001    2.71000004
   15.60611153  153.08999634    0.61000001    2.71000004
   15.60944462  151.92700195    0.61000001    2.71000004
   15.61250019  154.25399780    0.63000000    2.71000004
   15.61583328  141.76100159    0.63000000    2.71000004
   15.61916637  151.33299255    0.63000000    2.71000004
   15.62222195  141.00799561    0.61000001    2.71000004
   15.62555599  146.11300659    0.61000001    2.71000004
   15.62888908  148.57099915    0.61000001    2.71000004
   15.63194466  152.70899963    0.61000001    2.71000004
   15.63805580  152.70899963    0.63000000    2.71000004
   15.64222240  144.34399414    0.64999998    2.71000004
   15.64527798  139.61799622    0.64999998    2.71000004
   15.64861107  151.84500122    0.64999998    2.71000004
   15.65166664  146.50399780    0.64999998    2.71000004
   15.65499973  151.74499512    0.67000002    2.71000004
   15.65833282  147.50000000    0.64999998    2.71000004
   15.66138840  151.42199707    0.64999998    2.71000004
   15.66472149  148.02299500    0.64999998    2.71000004
   15.66805553  144.47700500    0.63000000    2.69000006
   15.67055607  147.52999878    0.63000000    2.71000004
   15.67194462  147.90600586    0.63000000    2.71000004
   15.67527771  144.89999390    0.63000000    2.71000004
   15.68083382  144.89999390    0.63000000    2.71000004
   15.68500042  142.48899841    0.61000001    2.71000004
   15.68833351  147.63800049    0.61000001    2.71000004
   15.69166660  145.34599304    0.61000001    2.71000004
   15.69472218  147.07899475    0.61000001    2.71000004
   15.69805527  139.29800415    0.61000001    2.71000004
   15.70111084  143.91799927    0.58999997    2.69000006
   15.70416641  149.33599854    0.58999997    2.71000004
   15.70472240  148.08399963    0.58999997    2.71000004
   15.70805550  149.81500244    0.61000001    2.71000004
   15.71138859  153.86500549    0.61000001    2.71000004
   15.71444416  146.38400269    0.61000001    2.71000004
   15.71777725  146.52699280    0.61000001    2.71000004
   15.72361088  146.52699280    0.61000001    2.73000002
   15.72777748  143.04800415    0.61000001    2.71000004
   15.73111057  142.67100525    0.63000000    2.71000004
   15.73416710  143.28700256    0.61000001    2.71000004
   15.73750019  155.66900635    0.61000001    2.71000004
   15.73777771  152.96699524    0.61000001    2.71000004
   15.74111176  149.09399414    0.58999997    2.71000004
   15.74416733  135.39300537    0.58999997    2.71000004
   15.74777794  147.76600647    0.56999999    2.71000004
   15.75083351  147.28399658    0.56999999    2.71000004
   15.75416660  149.63099670    0.56999999    2.71000004
   15.75722218  152.58000183    0.56999999    2.71000004
   15.76055527  138.24099731    0.56999999    2.71000004
   15.76638889  138.24099731    0.58999997    2.71000004
   15.77083302  145.90400696    0.58999997    2.71000004
   15.77111053  145.03999329    0.58999997    2.71000004
   15.77444458  152.57899475    0.61000001    2.71000004
   15.77750015  149.28599548    0.61000001    2.71000004
   15.78083324  136.31399536    0.61000001    2.71000004
   15.78416729  146.68299866    0.61000001    2.71000004
   15.78722286  136.52400208    0.63000000    2.71000004
   15.79055595  158.93499756    0.63000000    2.71000004
   15.79388905  141.64900208    0.63000000    2.71000004
   15.79694462  142.75000000    0.61000001    2.71000004
   15.80027771  145.27699280    0.61000001    2.71000004
   15.80361176  141.36799622    0.61000001    2.71000004
   15.80416679  140.84300232    0.61000001    2.71000004
   15.80944443  140.84300232    0.61000001    2.71000004
   15.81333351  148.37600708    0.61000001    2.71000004
   15.81666660  145.90400696    0.58999997    2.71000004
   15.81999969  142.70399475    0.61000001    2.71000004
   15.82305527  150.65100098    0.61000001    2.69000006
   15.82638836  146.03900146    0.61000001    2.69000006
   15.82972240  141.10600281    0.63000000    2.71000004
   15.83277798  136.21000671    0.63000000    2.71000004
   15.83611107  145.59100342    0.64999998    2.71000004
   15.83749962  144.47599792    0.64999998    2.71000004
   15.83972168  145.63999939    0.64999998    2.71000004
   15.84305477  152.76800537    0.64999998    2.71000004
   15.84638882  150.84199524    0.64999998    2.71000004
   15.85222244  150.84199524    0.64999998    2.71000004
   15.85638905  154.21400452    0.64999998    2.71000004
   15.85944462  144.72500610    0.64999998    2.73000002
   15.86277771  139.60699463    0.64999998    2.71000004
   15.86611176  146.56300354    0.63000000    2.73000002
   15.86916637  149.12300110    0.64999998    2.71000004
   15.87083340  153.20399475    0.64999998    2.71000004
   15.87277794  149.63099670    0.63000000    2.71000004
   15.87611103  150.98500061    0.63000000    2.71000004
   15.87944412  152.03700256    0.63000000    2.71000004
   15.88249969  148.57099915    0.63000000    2.71000004
   15.88583279  152.74299622    0.63000000    2.71000004
   15.88888836  136.37300110    0.63000000    2.71000004
   15.89499950  136.37300110    0.61000001    2.73000002
   15.89916611  146.53599548    0.58999997    2.71000004
   15.90249920  147.07600403    0.58999997    2.71000004
   15.90416622  146.22900391    0.58999997    2.71000004
   15.90583324  145.40699768    0.58999997    2.71000004
   15.90916634  148.34300232    0.58999997    2.71000004
   15.91222191  145.84199524    0.58999997    2.71000004
   15.91555500  144.72500610    0.61000001    2.71000004
   15.91888905  139.64799500    0.61000001    2.73000002
   15.92194462  154.07600403    0.61000001    2.71000004
   15.92527771  154.02200317    0.61000001    2.71000004
   15.92861176  140.78599548    0.61000001    2.71000004
   15.93166733  147.27099609    0.61000001    2.75000000
   15.93777752  147.27099609    0.61000001    2.71000004
   15.94194412  160.47300720    0.61000001    2.71000004
   15.94527817  150.03100586    0.61000001    2.71000004
   15.94861126  147.49600220    0.61000001    2.71000004
   15.95166683  151.20100403    0.61000001    2.71000004
   15.95499992  143.84500122    0.61000001    2.71000004
   15.95805550  152.23699951    0.61000001    2.71000004
   15.96138859  141.58799744    0.61000001    2.73000002
   15.96472168  149.59399414    0.61000001    2.71000004
   15.96777725  144.78700256    0.61000001    2.73000002
   15.97083282  151.51199341    0.61000001    2.73000002
   15.97138882  154.15800476    0.61000001    2.73000002
   15.97472191  153.30499268    0.61000001    2.71000004
   15.98083305  153.30499268    0.63000000    2.71000004
   15.98472214  150.85499573    0.63000000    2.71000004
   15.98805618  154.87300110    0.63000000    2.71000004
   15.99138927  154.47300720    0.63000000    2.71000004
   15.99444485  158.42100525    0.63000000    2.71000004
   15.99805546  138.80000305    0.63000000    2.71000004
   16.00111198  150.63299561    0.64999998    2.71000004
   16.00416756  152.45899963    0.64999998    2.71000004
   16.00472260  143.13200378    0.64999998    2.71000004
   16.00805473  160.25100708    0.64999998    2.71000004
   16.01111031  150.30099487    0.64999998    2.71000004
   16.01444435  149.25300598    0.64999998    2.71000004
   16.01777840  154.84399414    0.64999998    2.71000004
   16.02361107  154.84399414    0.63000000    2.73000002
   16.02777672  150.10000610    0.63000000    2.71000004
   16.03083229  142.28599548    0.63000000    2.71000004
   16.03416634  150.68899536    0.63000000    2.71000004
   16.03750038  151.44599915    0.61000001    2.71000004
   16.03777695  143.03599548    0.61000001    2.71000004
   16.04111099  148.66200256    0.61000001    2.71000004
   16.04416656  144.30400085    0.61000001    2.71000004
   16.04749870  154.26800537    0.61000001    2.71000004
   16.05083275  162.49000549    0.61000001    2.71000004
   16.05388832  146.61999512    0.61000001    2.71000004
   16.05722237  147.40299988    0.61000001    2.71000004
   16.06055450  146.28199768    0.61000001    2.73000002
   16.06638718  146.28199768    0.61000001    2.71000004
   16.07055664  140.85299683    0.61000001    2.71000004
   16.07111168  148.33500671    0.61000001    2.71000004
   16.07444572  148.89799500    0.61000001    2.73000002
   16.07777786  148.77799988    0.61000001    2.73000002
   16.08083344  137.27900696    0.61000001    2.71000004
   16.08416748  147.95899963    0.61000001    2.71000004
   16.08750153  142.97200012    0.61000001    2.71000004
   16.09055710  146.55700684    0.63000000    2.71000004
   16.09388924  149.28100586    0.63000000    2.69000006
   16.09722328  145.36900330    0.63000000    2.71000004
   16.10027885  147.69000244    0.64999998    2.71000004
   16.10361099  149.87800598    0.64999998    2.71000004
   16.10444450  149.72099304    0.64999998    2.71000004
   16.10916710  149.72099304    0.64999998    2.71000004
   16.11361122  142.11300659    0.67000002    2.71000004
   16.11694527  148.66499329    0.67000002    2.71000004
   16.12027740  146.40299988    0.67000002    2.71000004
   16.12333298  145.97799683    0.69000000    2.71000004
   16.12666702  150.53500366    0.69000000    2.71000004
   16.13000107  157.10499573    0.69000000    2.71000004
   16.13305473  141.27299500    0.69000000    2.71000004
   16.13638878  152.69900513    0.69000000    2.71000004
   16.13777733  149.11099243    0.69000000    2.71000004
   16.13999939  144.52400208    0.69000000    2.71000004
   16.14305496  147.02000427    0.69000000    2.71000004
   16.14638901  147.73500061    0.69000000    2.71000004
   16.15222168  147.73500061    0.69000000    2.71000004
   16.15611076  150.64100647    0.69000000    2.71000004
   16.15944481  144.94400024    0.69000000    2.67000008
   16.16277695  141.53799438    0.67000002    2.71000004
   16.16583252  151.31399536    0.67000002    2.71000004
   16.16944313  140.02499390    0.64999998    2.69000006
   16.17111015  142.05700684    0.64999998    2.69000006
   16.17305565  137.96200562    0.63000000    2.71000004
   16.17611122  137.78599548    0.63000000    2.71000004
   16.17944336  144.35899353    0.63000000    2.71000004
   16.18249893  146.82699585    0.63000000    2.71000004
   16.18583298  144.71600342    0.63000000    2.71000004
   16.18916512  149.07600403    0.63000000    2.71000004
   16.19499969  149.07600403    0.63000000    2.71000004
   16.19916534  150.02000427    0.63000000    2.71000004
   16.20222282  140.13400269    0.63000000    2.71000004
   16.20444489  153.74000549    0.63000000    2.71000004
   16.20611191  150.88999939    0.63000000    2.71000004
   16.20916748  144.25000000    0.63000000    2.71000004
   16.21250153  145.19900513    0.63000000    2.71000004
   16.21583366  153.02900696    0.61000001    2.71000004
   16.21888924  143.80200195    0.61000001    2.71000004
   16.22222328  153.63900757    0.61000001    2.71000004
   16.22527885  154.83900452    0.58999997    2.71000004
   16.22861099  154.37399292    0.61000001    2.71000004
   16.23194504  152.32800293    0.61000001    2.71000004
   16.23777771  152.32800293    0.58999997    2.71000004
   16.24194527  142.16299438    0.61000001    2.71000004
   16.24527740  144.57200623    0.61000001    2.71000004
   16.24833298  146.52200317    0.63000000    2.71000004
   16.25166702  145.65600586    0.63000000    2.71000004
   16.25472260  152.36099243    0.63000000    2.73000002
   16.25805473  151.86700439    0.63000000    2.73000002
   16.26138878  157.67599487    0.63000000    2.71000004
   16.26444435  154.38800049    0.63000000    2.71000004
   16.26777840  140.21299744    0.63000000    2.71000004
   16.27111053  147.70500183    0.64999998    2.71000004
   16.27166557  153.85699463    0.64999998    2.71000004
   16.27472115  150.96699524    0.64999998    2.71000004
   16.28055573  150.96699524    0.64999998    2.71000004
   16.28472137  149.70500183    0.64999998    2.73000002
   16.28805542  150.42300415    0.64999998    2.71000004
   16.29138756  149.66900635    0.63000000    2.73000002
   16.29444313  152.29699707    0.64999998    2.71000004
   16.29777718  142.90299988    0.64999998    2.71000004
   16.30083275  139.19099426    0.63000000    2.71000004
   16.30416679  150.47900391    0.63000000    2.71000004
   16.30499840  149.23699951    0.63000000    2.71000004
   16.30805397  145.95500183    0.63000000    2.71000004
   16.31110954  141.54699707    0.64999998    2.73000002
   16.31444359  146.44900513    0.64999998    2.71000004
   16.31777954  151.47399902    0.63000000    2.71000004
   16.32361221  151.47399902    0.63000000    2.73000002
   16.32805634  146.90699768    0.63000000    2.71000004
   16.33139038  152.68499756    0.61000001    2.71000004
   16.33472252  139.35400391    0.61000001    2.73000002
   16.33805656  148.93400574    0.58999997    2.73000002
   16.33861160  143.65400696    0.58999997    2.73000002
   16.34166718  141.09300232    0.58999997    2.71000004
   16.34500122  142.07400513    0.58999997    2.71000004
   16.34833336  145.74600220    0.61000001    2.73000002
   16.35138893  138.12399292    0.61000001    2.71000004
   16.35472298  147.18699646    0.61000001    2.73000002
   16.35777855  148.13999939    0.61000001    2.73000002
   16.36111069  133.70700073    0.63000000    2.71000004
   16.36638832  133.70700073    0.63000000    2.71000004
   16.37055588  144.49400330    0.61000001    2.71000004
   16.37194443  147.28500366    0.61000001    2.71000004
   16.37416649  141.44000244    0.63000000    2.73000002
   16.37750053  140.50500488    0.63000000    2.71000004
   16.38055611  142.20700073    0.63000000    2.71000004
   16.38388824  140.57600403    0.63000000    2.71000004
   16.38722229  142.78399658    0.63000000    2.73000002
   16.39027786  152.99499512    0.63000000    2.71000004
   16.39361191  141.20399475    0.63000000    2.71000004
   16.39694405  145.60000610    0.63000000    2.71000004
   16.39999962  139.58900452    0.63000000    2.71000004
   16.40333366  150.72200012    0.63000000    2.73000002
   16.40527725  146.97599792    0.64999998    2.73000002
   16.40944481  146.97599792    0.64999998    2.73000002
   16.41333389  141.68299866    0.63000000    2.73000002
   16.41666603  151.97500610    0.63000000    2.71000004
   16.42000008  149.87300110    0.64999998    2.71000004
   16.42305565  142.13600159    0.63000000    2.73000002
   16.42638779  146.10800171    0.63000000    2.73000002
   16.42972183  151.63999939    0.63000000    2.73000002
   16.43277740  145.83700562    0.63000000    2.71000004
   16.43610954  148.59899902    0.64999998    2.71000004
   16.43861008  150.87600708    0.64999998    2.71000004
   16.43972206  147.82800293    0.64999998    2.71000004
   16.44305420  159.15699768    0.64999998    2.71000004
   16.44610977  155.02000427    0.64999998    2.71000004
   16.45222282  155.02000427    0.64999998    2.71000004
   16.45639038  150.07699585    0.63000000    2.73000002
   16.45944595  152.89700317    0.63000000    2.71000004
   16.46277809  152.10899353    0.61000001    2.71000004
   16.46611214  141.06199646    0.63000000    2.73000002
   16.46944427  152.51400757    0.63000000    2.75000000
   16.47194481  145.30900574    0.63000000    2.75000000
   16.47305679  143.54200745    0.64999998    2.71000004
   16.47638893  135.44500732    0.64999998    2.71000004
   16.47944450  152.02400208    0.64999998    2.71000004
   16.48277855  149.19299316    0.64999998    2.71000004
   16.48611069  146.56500244    0.64999998    2.71000004
   16.48916626  154.38000488    0.64999998    2.71000004
   16.49500084  154.38000488    0.63000000    2.73000002
   16.49916649  136.92300415    0.64999998    2.71000004
   16.50250053  144.75900269    0.63000000    2.71000004
   16.50527763  143.73199463    0.63000000    2.71000004
   16.50583267  148.07800293    0.63000000    2.71000004
   16.50916672  155.00799561    0.63000000    2.71000004
   16.51222229  148.18499756    0.63000000    2.71000004
   16.51555634  150.15899658    0.63000000    2.71000004
   16.51888847  153.22200012    0.63000000    2.71000004
   16.52194405  156.78500366    0.64999998    2.71000004
   16.52527809  150.61700439    0.64999998    2.71000004
   16.52861023  153.36900330    0.67000002    2.71000004
   16.53166580  143.87399292    0.67000002    2.71000004
   16.53777695  143.87399292    0.63000000    2.73000002
   16.55638885  152.81300354    0.64999998    2.73000002
   16.55944443  152.83900452    0.64999998    2.71000004
   16.56277657  151.84800720    0.64999998    2.71000004
   16.56583214  141.52200317    0.64999998    2.73000002
   16.56916809  149.29899597    0.64999998    2.73000002
   16.57250023  150.51499939    0.67000002    2.73000002
   16.57555580  151.71600342    0.67000002    2.71000004
   16.58111191  151.71600342    0.69000000    2.69000006
   16.58500099  148.53900146    0.69000000    2.73000002
   16.58833313  156.54699707    0.69000000    2.73000002
   16.58944511  149.07499695    0.69000000    2.71000004
   16.59194565  147.00000000    0.69000000    2.71000004
   16.59527779  143.85600281    0.70999998    2.71000004
   16.59861183  153.37699890    0.69000000    2.71000004
   16.60166740  155.76100159    0.70999998    2.71000004
   16.60499954  145.95799255    0.70999998    2.71000004
   16.60833359  152.63699341    0.69000000    2.71000004
   16.61138916  145.97099304    0.70999998    2.71000004
   16.61472321  154.82499695    0.70999998    2.71000004
   16.61777878  155.77900696    0.70999998    2.71000004
   16.62388992  155.77900696    0.69000000    2.71000004
   16.62805557  156.38600159    0.64999998    2.71000004
   16.63111115  146.94599915    0.63000000    2.71000004
   16.63444519  148.46299744    0.61000001    2.73000002
   16.63777733  148.42300415    0.61000001    2.71000004
   16.64111137  154.22999573    0.61000001    2.71000004
   16.64416695  143.72599792    0.61000001    2.71000004
   16.64749908  148.61099243    0.58999997    2.73000002
   16.65083313  140.23100281    0.58999997    2.73000002
   16.65388870  152.01600647    0.58999997    2.75000000
   16.65611076  150.10299683    0.58999997    2.71000004
   16.65749931  147.41299438    0.58999997    2.71000004
   16.66083336  149.72200012    0.61000001    2.71000004
   16.66666603  149.72200012    0.61000001    2.73000002
   16.67083359  143.84800720    0.63000000    2.73000002
   16.67388916  143.47999573    0.63000000    2.73000002
   16.67722130  147.54899597    0.63000000    2.73000002
   16.68055534  142.75700378    0.63000000    2.71000004
   16.68361092  148.14999390    0.63000000    2.71000004
   16.68694305  140.91000366    0.63000000    2.73000002
   16.68944359  143.46200562    0.63000000    2.71000004
   16.69055557  142.20799255    0.63000000    2.71000004
   16.69388771  142.30400085    0.63000000    2.71000004
   16.69694328  150.77999878    0.64999998    2.73000002
   16.70027924  152.76699829    0.64999998    2.73000002
   16.70361137  152.55499268    0.64999998    2.71000004
   16.70944595  152.55499268    0.64999998    2.73000002
   16.71361160  148.68800354    0.64999998    2.73000002
   16.71694565  144.26800537    0.64999998    2.73000002
   16.72000122  144.37500000    0.64999998    2.71000004
   16.72277832  143.73500061    0.64999998    2.71000004
   16.72361183  144.53100586    0.64999998    2.71000004
   16.72694588  145.63200378    0.63000000    2.71000004
   16.73027802  152.93200684    0.61000001    2.73000002
   16.73333359  142.04800415    0.61000001    2.73000002
   16.73666763  134.68299866    0.61000001    2.71000004
   16.73972321  137.46899414    0.56999999    2.75000000
   16.74305534  142.28999329    0.56999999    2.73000002
   16.74638939  138.42100525    0.56999999    2.73000002
   16.75250053  138.42100525    0.56999999    2.75000000
   16.75638962  141.66799927    0.58999997    2.71000004
   16.75972176  149.85400391    0.58999997    2.71000004
   16.76305580  150.60400391    0.61000001    2.71000004
   16.76611137  148.76100159    0.61000001    2.71000004
   16.76944351  151.24200439    0.63000000    2.71000004
   16.77249908  140.66499329    0.61000001    2.71000004
   16.77583313  148.20100403    0.63000000    2.73000002
   16.77916718  145.94700623    0.63000000    2.73000002
   16.78222275  149.91000366    0.61000001    2.73000002
   16.78555489  136.01199341    0.61000001    2.73000002
   16.78888893  145.83399963    0.61000001    2.71000004
   16.78944397  142.73199463    0.61000001    2.71000004
   16.79527664  142.73199463    0.56999999    2.73000002
   16.79944420  146.85299683    0.56999999    2.73000002
   16.80249977  147.15199280    0.55000001    2.71000004
   16.80583191  149.82400513    0.55000001    2.73000002
   16.80916595  143.14399719    0.55000001    2.73000002
   16.81222153  147.24099731    0.55000001    2.73000002
   16.81555557  149.51300049    0.55000001    2.73000002
   16.81888962  134.26499939    0.58999997    2.73000002
   16.82194519  151.66999817    0.58999997    2.75000000
   16.82277870  129.80999756    0.58999997    2.75000000
   16.82583427  140.20899963    0.58999997    2.71000004
   16.82916832  146.13600159    0.58999997    2.71000004
   16.83222389  135.25900269    0.58999997    2.73000002
   16.83805656  135.25900269    0.61000001    2.71000004
   16.84222221  142.45500183    0.61000001    2.73000002
   16.84527779  147.20899963    0.63000000    2.71000004
   16.84861183  148.70799255    0.63000000    2.73000002
   16.85194397  144.26400757    0.64999998    2.71000004
   16.85499954  150.10400391    0.64999998    2.71000004
   16.85611153  142.80099487    0.64999998    2.71000004
   16.85888863  143.21600342    0.64999998    2.71000004
   16.86194420  142.10600281    0.64999998    2.71000004
   16.86527824  143.70500183    0.64999998    2.73000002
   16.86833382  147.81399536    0.63000000    2.71000004
   16.87166595  152.20399475    0.63000000    2.71000004
   16.87500000  140.76800537    0.63000000    2.71000004
   16.88083267  140.76800537    0.61000001    2.73000002
   16.88500023  139.02299500    0.58999997    2.73000002
   16.88833237  143.39500427    0.58999997    2.71000004
   16.88944435  151.77200317    0.58999997    2.71000004
   16.89166641  149.35299683    0.58999997    2.73000002
   16.89500046  154.22200012    0.58999997    2.71000004
   16.89833260  143.15400696    0.58999997    2.73000002
   16.90138817  140.78700256    0.56999999    2.71000004
   16.90472221  144.35299683    0.56999999    2.71000004
   16.90777779  157.00799561    0.56999999    2.71000004
   16.91110992  148.23699951    0.56999999    2.71000004
   16.91444397  147.11099243    0.56999999    2.73000002
   16.91749954  147.58799744    0.56999999    2.73000002
   16.92388916  147.58799744    0.58999997    2.73000002
   16.92777634  156.15199280    0.58999997    2.73000002
   16.93111038  156.10299683    0.58999997    2.73000002
   16.93444443  138.90299988    0.61000001    2.71000004
   16.93750000  155.03300476    0.61000001    2.71000004
   16.94083214  145.01699829    0.61000001    2.71000004
   16.94416618  143.18699646    0.61000001    2.71000004
   16.94722176  146.99699402    0.58999997    2.71000004
   16.95055580  154.43099976    0.63000000    2.73000002
   16.95361137  144.97799683    0.63000000    2.73000002
   16.95611191  151.83000183    0.70999998    2.73000002
   16.95722389  152.25700378    0.70999998    2.73000002
   16.96055603  149.46299744    0.75000000    2.71000004
   16.96666718  149.46299744    0.73000002    2.73000002
   16.97083473  148.57899475    0.73000002    2.71000004
   16.97389030  152.16499329    0.79000002    2.73000002
   16.97722244  146.08500671    0.73000002    2.73000002
   16.98027802  153.99099731    0.76999998    2.73000002
   16.98361206  151.79400635    0.75000000    2.71000004
   16.98694420  148.81799316    0.75000000    2.71000004
   16.98944473  145.40699768    0.76999998    2.73000002
   16.99027824  151.32099915    0.76999998    2.73000002
   16.99361229  144.25999451    0.76999998    2.73000002
   16.99694443  156.89300537    0.75000000    2.71000004
   17.00000000  152.00900269    0.70999998    2.71000004
   17.00333405  144.17799377    0.69000000    2.73000002
   17.00944519  144.17799377    0.64999998    2.73000002
   17.01361084  141.65899658    0.64999998    2.71000004
   17.01694489  139.90100098    0.64999998    2.71000004
   17.02000046  145.39300537    0.63000000    2.73000002
   17.02277756  154.65600586    0.63000000    2.73000002
   17.02361107  146.35299683    0.63000000    2.73000002
   17.02694511  148.20100403    0.58999997    2.73000002
   17.03027725  142.48100281    0.56999999    2.75000000
   17.03333282  148.29899597    0.56999999    2.75000000
   17.03666687  142.60299683    0.55000001    2.73000002
   17.03999901  155.39500427    0.55000001    2.73000002
   17.04305458  147.57699585    0.52999997    2.73000002
   17.04638863  150.14799500    0.52999997    2.73000002
   17.05222130  150.14799500    0.55000001    2.73000002
   17.05638885  141.96299744    0.55000001    2.71000004
   17.05972099  129.55599976    0.55000001    2.71000004
   17.06305504  144.28599548    0.55000001    2.73000002
   17.06611061  148.23300171    0.55000001    2.73000002
   17.06944466  146.94900513    0.58999997    2.73000002
   17.07250023  142.31900024    0.61000001    2.71000004
   17.07583427  146.30400085    0.61000001    2.73000002
   17.07916832  150.05900574    0.61000001    2.73000002
   17.08222389  151.81100464    0.61000001    2.71000004
   17.08555603  153.75000000    0.61000001    2.71000004
   17.08889008  150.12699890    0.63000000    2.71000004
   17.08944511  146.97900391    0.64999998    2.73000002
   17.09500122  146.97900391    0.64999998    2.73000002
   17.09916687  145.69000244    0.64999998    2.73000002
   17.10250092  154.23599243    0.61000001    2.73000002
   17.10583305  145.29400635    0.56999999    2.73000002
   17.10888863  154.72099304    0.56999999    2.73000002
   17.11222267  146.21800232    0.56999999    2.71000004
   17.11527824  147.32800293    0.58999997    2.71000004
   17.11861038  153.72900391    0.58999997    2.73000002
   17.12194443  139.79699707    0.56999999    2.71000004
   17.12277794  145.71499634    0.56999999    2.71000004
   17.12527847  152.25399780    0.56999999    2.73000002
   17.12861061  143.39700317    0.56999999    2.73000002
   17.13194466  155.02000427    0.56999999    2.73000002
   17.13805580  155.02000427    0.56999999    2.73000002
   17.14222145  151.87100220    0.55000001    2.73000002
   17.14527702  149.49800110    0.55000001    2.75000000
   17.14861107  144.99600220    0.55000001    2.71000004
   17.15194321  150.94000244    0.55000001    2.73000002
   17.15499878  150.01300049    0.55000001    2.73000002
   17.15611076  150.66400146    0.55000001    2.73000002
   17.15888786  155.47900391    0.55000001    2.73000002
   17.16222191  155.05200195    0.55000001    2.73000002
   17.16527748  145.97200012    0.55000001    2.71000004
   17.16860962  148.05299377    0.56999999    2.73000002
   17.17194366  156.96099854    0.56999999    2.73000002
   17.17527771  148.89500427    0.58999997    2.71000004
   17.18083191  148.89500427    0.61000001    2.71000004
   17.18499947  155.68099976    0.58999997    2.73000002
   17.18805504  150.05099487    0.58999997    2.73000002
   17.18944359  148.48300171    0.58999997    2.71000004
   17.19194412  147.63600159    0.58999997    2.71000004
   17.19499969  151.52200317    0.61000001    2.73000002
   17.19833183  157.89799500    0.63000000    2.71000004
   17.20138931  149.20399475    0.63000000    2.71000004
   17.20472336  147.99099731    0.63000000    2.73000002
   17.20805550  154.89500427    0.63000000    2.71000004
   17.21111107  149.49400330    0.63000000    2.71000004
   17.21444511  155.65499878    0.63000000    2.71000004
   17.21777916  152.20599365    0.63000000    2.71000004
   17.22361183  152.20599365    0.63000000    2.71000004
   17.22777748  155.71000671    0.61000001    2.73000002
   17.23111153  154.40299988    0.61000001    2.73000002
   17.23416710  147.83700562    0.61000001    2.71000004
   17.23750114  151.05299377    0.58999997    2.71000004
   17.24083328  155.63400269    0.56999999    2.73000002
   17.24388885  155.41600037    0.56999999    2.71000004
   17.24722290  160.64300537    0.55000001    2.73000002
   17.25027847  156.00599670    0.55000001    2.73000002
   17.25361061  159.00900269    0.56999999    2.73000002
   17.25611115  162.14199829    0.56999999    2.71000004
   17.25749969  156.75900269    0.56999999    2.71000004
   17.26055527  154.15400696    0.56999999    2.73000002
   17.26638794  154.15400696    0.56999999    2.73000002
   17.27055550  152.82899475    0.55000001    2.75000000
   17.27388954  159.27499390    0.55000001    2.73000002
   17.27722168  154.66999817    0.55000001    2.73000002
   17.28027725  152.11999512    0.55000001    2.73000002
   17.28361130  148.87399292    0.55000001    2.73000002
   17.28666687  153.63099670    0.55000001    2.73000002
   17.28944397  147.28700256    0.55000001    2.73000002
   17.29055595  158.34700012    0.55000001    2.73000002
   17.29361153  156.61900330    0.55000001    2.73000002
   17.29694366  149.82699585    0.55000001    2.71000004
   17.29999924  154.11700439    0.52999997    2.73000002
   17.30333328  159.86900330    0.52999997    2.73000002
   17.30944443  159.86900330    0.52999997    2.71000004
   17.31361008  153.66400146    0.52999997    2.73000002
   17.31666756  150.81100464    0.52999997    2.73000002
   17.32000160  154.23100281    0.52999997    2.71000004
   17.32277870  155.16000366    0.52999997    2.73000002
   17.32361221  147.07299805    0.52999997    2.73000002
   17.32666779  150.48199463    0.52999997    2.73000002
   17.33000183  150.27299500    0.52999997    2.73000002
   17.33305550  148.79800415    0.52999997    2.71000004
   17.33638954  148.01199341    0.52999997    2.73000002
   17.33972359  153.75300598    0.52999997    2.73000002
   17.34277916  152.57200623    0.52999997    2.73000002
   17.34611130  155.77099609    0.52999997    2.73000002
   17.35222244  155.77099609    0.52999997    2.73000002
   17.35639000  152.71099854    0.55000001    2.73000002
   17.35944557  153.08099365    0.55000001    2.71000004
   17.36277771  152.14199829    0.55000001    2.73000002
   17.36611176  154.41099548    0.55000001    2.73000002
   17.36916733  163.54100037    0.55000001    2.73000002
   17.37249947  152.51400757    0.56999999    2.71000004
   17.37583351  146.05700684    0.56999999    2.71000004
   17.37888908  154.49000549    0.56999999    2.73000002
   17.38222313  153.97099304    0.56999999    2.73000002
   17.38527679  153.50399780    0.56999999    2.73000002
   17.38861084  159.31100464    0.56999999    2.73000002
   17.38944435  152.89599609    0.55000001    2.73000002
   17.39500046  152.89599609    0.55000001    2.73000002
   17.39916611  159.62399292    0.56999999    2.73000002
   17.40250015  152.34100342    0.56999999    2.71000004
   17.40555573  143.26199341    0.56999999    2.73000002
   17.40888786  159.12100220    0.56999999    2.73000002
   17.41222191  144.48699951    0.56999999    2.71000004
   17.41527748  152.79499817    0.56999999    2.73000002
   17.41860962  154.91400146    0.56999999    2.71000004
   17.42194366  143.62699890    0.56999999    2.73000002
   17.42277718  156.17199707    0.56999999    2.73000002
   17.42555428  146.01100159    0.58999997    2.71000004
   17.42860985  147.97500610    0.58999997    2.71000004
   17.43194389  146.79699707    0.58999997    2.71000004
   17.43777657  146.79699707    0.58999997    2.71000004
   17.44194412  147.25000000    0.58999997    2.71000004
   17.44527626  153.87699890    0.58999997    2.71000004
   17.44861031  145.27600098    0.61000001    2.73000002
   17.45166779  149.96899414    0.61000001    2.73000002
   17.45499992  149.47799683    0.61000001    2.73000002
   17.45611191  142.47000122    0.63000000    2.71000004
   17.45861244  134.00300598    0.63000000    2.71000004
   17.46166801  143.62300110    0.63000000    2.71000004
   17.46500015  137.26100159    0.63000000    2.71000004
   17.46833420  139.75300598    0.64999998    2.71000004
   17.47166634  142.93899536    0.64999998    2.71000004
   17.47472191  145.19299316    0.64999998    2.71000004
   17.48083305  145.19299316    0.64999998    2.71000004
   17.48500061  145.62899780    0.64999998    2.71000004
   17.48805618  140.98699951    0.64999998    2.71000004
   17.48944473  138.39100647    0.64999998    2.71000004
   17.49194527  143.55700684    0.64999998    2.71000004
   17.49527740  138.12600708    0.64999998    2.71000004
   17.49833298  141.41200256    0.64999998    2.71000004
   17.50166702  145.18099976    0.64999998    2.71000004
   17.50499916  143.86500549    0.67000002    2.71000004
   17.50805473  140.51699829    0.67000002    2.71000004
   17.51138878  144.72000122    0.67000002    2.71000004
   17.51444435  149.54699707    0.67000002    2.71000004
   17.51777840  144.04600525    0.67000002    2.71000004
   17.52361107  144.04600525    0.64999998    2.71000004
   17.52777672  142.15899658    0.64999998    2.71000004
   17.53111076  140.52400208    0.64999998    2.71000004
   17.53416634  147.78999329    0.64999998    2.71000004
   17.53750038  145.24200439    0.64999998    2.73000002
   17.54083252  136.42900085    0.64999998    2.71000004
   17.54388809  142.73100281    0.64999998    2.71000004
   17.54722214  145.15499878    0.63000000    2.71000004
   17.55055428  145.68499756    0.63000000    2.71000004
   17.55360985  153.81799316    0.61000001    2.73000002
   17.55611038  148.62100220    0.61000001    2.73000002
   17.57694626  148.62100220    0.63000000    2.73000002
   17.58111191  145.44900513    0.64999998    2.71000004
   17.58416748  147.86099243    0.64999998    2.71000004
   17.58750153  140.40899658    0.64999998    2.71000004
   17.58944511  141.36399841    0.64999998    2.71000004
   17.59111214  145.96600342    0.63000000    2.73000002
   17.59444427  140.09500122    0.63000000    2.71000004
   17.59777832  147.38900757    0.63000000    2.73000002
   17.60083389  141.34599304    0.63000000    2.73000002
   17.60416794  139.46899414    0.61000001    2.73000002
   17.60750008  141.91999817    0.58999997    2.73000002
   17.61055565  141.30599976    0.58999997    2.71000004
   17.61388969  145.57600403    0.61000001    2.73000002
   17.61972237  145.57600403    0.58999997    2.71000004
   17.62361145  145.20599365    0.63000000    2.73000002
   17.62694550  145.30400085    0.63000000    2.73000002
   17.63027763  141.53399658    0.63000000    2.71000004
   17.63333321  140.59399414    0.63000000    2.71000004
   17.63666725  148.34700012    0.63000000    2.71000004
   17.63972282  146.10800171    0.64999998    2.71000004
   17.64305496  147.11900330    0.64999998    2.71000004
   17.64638901  147.52799988    0.64999998    2.71000004
   17.64944458  138.77799988    0.64999998    2.71000004
   17.65277672  135.46000671    0.63000000    2.71000004
   17.65611076  138.80400085    0.67000002    2.73000002
   17.65666580  143.06300354    0.64999998    2.71000004
   17.66250038  143.06300354    0.67000002    2.71000004
   17.66666603  147.81199646    0.67000002    2.71000004
   17.66972160  138.84199524    0.67000002    2.71000004
   17.67305565  144.13800049    0.67000002    2.71000004
   17.67611122  152.03300476    0.67000002    2.73000002
   17.67944336  144.91799927    0.64999998    2.71000004
   17.68277740  143.86000061    0.64999998    2.71000004
   17.68583298  143.55799866    0.64999998    2.71000004
   17.68916512  147.68099976    0.67000002    2.71000004
   17.68999863  143.99299622    0.69000000    2.71000004
   17.69277763  148.81399536    0.69000000    2.71000004
   17.69610977  147.48100281    0.70999998    2.71000004
   17.69916534  145.21499634    0.75000000    2.73000002
   17.70527840  145.21499634    0.79000002    2.71000004
   17.70944595  143.35800171    0.75000000    2.69000006
   17.71277809  145.40600586    0.73000002    2.73000002
   17.71583366  141.24699402    0.70999998    2.71000004
   17.71916771  136.67300415    0.70999998    2.71000004
   17.72222328  144.92599487    0.70999998    2.71000004
   17.72333336  136.32299805    0.70999998    2.71000004
   17.72583389  132.62300110    0.73000002    2.71000004
   17.72916794  139.55200195    0.73000002    2.71000004
   17.73222351  142.77000427    0.70999998    2.71000004
   17.73555565  144.48899841    0.73000002    2.71000004
   17.73888969  142.05999756    0.75000000    2.71000004
   17.74194527  135.23500061    0.76999998    2.71000004
   17.74805641  135.23500061    0.76999998    2.71000004
   17.75222206  147.93099976    0.79000002    2.71000004
   17.75555611  151.09500122    0.76999998    2.71000004
   17.75666618  141.63200378    0.76999998    2.71000004
   17.75916672  143.41200256    0.76999998    2.71000004
   17.76250076  143.11700439    0.76999998    2.71000004
   17.76555634  136.82800293    0.76999998    2.71000004
   17.76888847  146.98199463    0.83999997    2.71000004
   17.77222252  144.64399719    0.92000002    2.71000004
   17.77527809  151.05000305    0.92000002    2.71000004
   17.77861023  144.48100281    0.80000001    2.71000004
   17.78194427  138.87600708    0.80000001    2.71000004
   17.78499985  145.00199890    0.80000001    2.71000004
   17.79083252  145.00199890    0.81999999    2.69000006
   17.79527664  139.43600464    0.83999997    2.71000004
   17.79833221  142.79600525    0.83999997    2.71000004
   17.80166626  140.05700684    0.83999997    2.71000004
   17.80472183  156.89100647    0.83999997    2.69000006
   17.80805397  153.36700439    0.83999997    2.69000006
   17.81138802  140.14300537    0.83999997    2.69000006
   17.81444359  145.66200256    0.80000001    2.69000006
   17.81777954  144.69700623    0.83999997    2.71000004
   17.82111168  140.89799500    0.83999997    2.71000004
   17.82333374  144.72399902    0.83999997    2.69000006
   17.82472229  140.65800476    0.83999997    2.69000006
   17.82805634  144.22700500    0.86000001    2.71000004
   17.83388901  144.22700500    0.89999998    2.69000006
   17.83805656  137.96899414    0.89999998    2.71000004
   17.84111214  145.80799866    0.92000002    2.71000004
   17.84444427  146.56199646    0.92000002    2.69000006
   17.84749985  143.99899292    0.92000002    2.69000006
   17.85083389  150.62699890    0.94000000    2.69000006
   17.85416794  141.99699402    0.98000002    2.69000006
   17.85666656  143.02699280    1.00000000    2.69000006
   17.85777855  143.09700012    1.00000000    2.69000006
   17.86111069  138.98399353    0.98000002    2.69000006
   17.86444473  150.85499573    0.94000000    2.69000006
   17.86750031  151.58299255    0.92000002    2.71000004
   17.87083435  138.51499939    0.92000002    2.71000004
   17.87666702  138.51499939    0.86000001    2.71000004
   17.88083267  142.94599915    0.86000001    2.71000004
   17.88388824  152.55900574    0.83999997    2.69000006
   17.88722229  150.35299683    0.83999997    2.71000004
   17.88999939  149.21400452    0.83999997    2.71000004
   17.89111137  153.84700012    0.81999999    2.71000004
   17.89416695  140.18499756    0.81999999    2.71000004
   17.89749908  146.36700439    0.76999998    2.71000004
   17.90083313  143.06599426    0.75000000    2.71000004
   17.90388870  151.31900024    0.75000000    2.71000004
   17.90722275  145.25799561    0.75000000    2.71000004
   17.91055489  140.38000488    0.75000000    2.71000004
   17.91361046  148.54400635    0.76999998    2.71000004
   17.91944313  148.54400635    0.83999997    2.71000004
   17.92361069  153.50700378    0.83999997    2.71000004
   17.92694473  142.68699646    0.83999997    2.69000006
   17.93000031  143.69200134    0.81999999    2.71000004
   17.93333244  159.47900391    0.81999999    2.71000004
   17.93666649  144.65899658    0.81999999    2.71000004
   17.93972206  148.38299561    0.81999999    2.71000004
   17.94305420  131.11399841    0.81999999    2.71000004
   17.94638824  147.20100403    0.83999997    2.71000004
   17.94944382  144.34300232    0.83999997    2.71000004
   17.95277786  143.81599426    0.83999997    2.71000004
   17.95583344  150.03900146    0.83999997    2.71000004
   17.95666695  139.08200073    0.83999997    2.71000004
   17.96222305  139.08200073    0.80000001    2.69000006
   17.96638870  140.08700562    0.80000001    2.69000006
   17.96972275  147.96899414    0.80000001    2.71000004
   17.97305679  147.24899292    0.86000001    2.71000004
   17.97611237  145.37399292    0.86000001    2.71000004
   17.97944450  144.95399475    0.89999998    2.71000004
   17.98250008  141.14500427    0.95999998    2.71000004
   17.98583412  140.96200562    1.01999998    2.71000004
   17.98916626  142.77499390    1.05999994    2.69000006
   17.98999977  142.43499756    1.05999994    2.69000006
   17.99250031  136.74000549    1.07000005    2.69000006
   17.99583435  142.39900208    1.09000003    2.69000006
   17.99916649  135.84800720    1.09000003    2.69000006
   18.00527763  135.84800720    1.11000001    2.69000006
   18.00916672  145.55299377    1.14999998    2.69000006
   18.01250076  155.99899292    1.19000006    2.69000006
   18.01583290  146.11199951    1.26999998    2.69000006
   18.01888847  137.91099548    1.26999998    2.69000006
   18.02222252  142.48800659    1.26999998    2.69000006
   18.02333260  143.86199951    1.26999998    2.69000006
   18.02583313  149.59300232    1.26999998    2.69000006
   18.02916718  145.04699707    1.28999996    2.69000006
   18.03249931  152.20300293    1.26999998    2.69000006
   18.03555489  144.98399353    1.26999998    2.71000004
   18.03888893  144.59100342    1.25000000    2.67000008
   18.04222107  146.39999390    1.25000000    2.71000004
   18.04805565  146.39999390    1.21000004    2.67000008
   18.05222130  142.28700256    1.21000004    2.67000008
   18.05527687  144.55099487    1.19000006    2.69000006
   18.05666542  140.36500549    1.19000006    2.69000006
   18.05888748  138.34300232    1.19000006    2.69000006
   18.06222153  141.09800720    1.16999996    2.69000006
   18.06555557  146.77299500    1.16999996    2.69000006
   18.06861115  154.26699829    1.16999996    2.71000004
   18.07194519  151.80799866    1.14999998    2.69000006
   18.07500076  144.34700012    1.14999998    2.69000006
   18.07833481  145.78999329    1.14999998    2.69000006
   18.08166695  146.27699280    1.16999996    2.69000006
   18.08472252  154.16999817    1.16999996    2.69000006
   18.09083366  154.16999817    1.16999996    2.69000006
   18.09500122  142.21499634    1.21000004    2.69000006
   18.09833336  141.23399353    1.21000004    2.69000006
   18.10138893  142.42300415    1.21000004    2.67000008
   18.10472298  142.63200378    1.21000004    2.67000008
   18.10805511  139.99600220    1.21000004    2.67000008
   18.11111069  137.43200684    1.21000004    2.69000006
   18.11444473  142.38000488    1.21000004    2.67000008
   18.11750031  144.22000122    1.21000004    2.67000008
   18.12083435  142.68800354    1.21000004    2.67000008
   18.12333298  142.59599304    1.23000002    2.69000006
   18.12444496  139.24699402    1.23000002    2.69000006
   18.12777710  150.25100708    1.21000004    2.69000006
   18.13361168  150.25100708    1.19000006    2.67000008
   18.13777733  145.76499939    1.19000006    2.69000006
   18.14111137  144.63499451    1.16999996    2.67000008
   18.14416695  146.22500610    1.19000006    2.69000006
   18.14749908  144.61399841    1.19000006    2.69000006
   18.15083313  140.39999390    1.21000004    2.67000008
   18.15388870  142.22200012    1.26999998    2.69000006
   18.15666580  134.71600342    1.26999998    2.69000006
   18.15749931  140.29899597    1.36000001    2.69000006
   18.16083336  144.33099365    1.36000001    2.69000006
   18.16416550  141.02900696    1.39999998    2.67000008
   18.16722107  151.66299438    1.44000006    2.67000008
   18.17055511  144.86000061    1.44000006    2.69000006
   18.17666626  144.86000061    1.50000000    2.67000008
   18.18083191  146.40100098    1.48000002    2.67000008
   18.18416595  144.85600281    1.50000000    2.67000008
   18.18722153  140.72900391    1.53999996    2.67000008
   18.18999863  144.34700012    1.53999996    2.67000008
   18.19083214  139.86000061    1.53999996    2.67000008
   18.19416618  148.44299316    1.53999996    2.67000008
   18.19749832  144.61099243    1.53999996    2.67000008
   18.20055580  138.78300476    1.51999998    2.67000008
   18.20388985  142.67300415    1.46000004    2.67000008
   18.20722389  146.58200073    1.44000006    2.69000006
   18.21027946  139.23199463    1.44000006    2.69000006
   18.21361160  144.58299255    1.44000006    2.67000008
   18.21944427  144.58299255    1.41999996    2.67000008
   18.22361183  150.70100403    1.44000006    2.67000008
   18.22666740  148.25500488    1.44000006    2.67000008
   18.23000145  142.26899719    1.44000006    2.67000008
   18.23333359  148.63699341    1.44000006    2.67000008
   18.23638916  145.09800720    1.46000004    2.67000008
   18.23972321  148.23800659    1.46000004    2.67000008
   18.24277878  140.90899658    1.46000004    2.67000008
   18.24611092  149.95799255    1.46000004    2.67000008
   18.24944496  143.39999390    1.48000002    2.67000008
   18.25250053  146.81599426    1.46000004    2.67000008
   18.25583267  143.22999573    1.50000000    2.67000008
   18.25666618  142.42500305    1.50000000    2.67000008
   18.26222229  142.42500305    1.50000000    2.67000008
   18.26638794  143.30499268    1.50000000    2.67000008
   18.26972198  136.73500061    1.46000004    2.67000008
   18.27277756  145.76199341    1.46000004    2.67000008
   18.27611160  139.08399963    1.44000006    2.67000008
   18.27944374  138.72200012    1.46000004    2.67000008
   18.28249931  143.63999939    1.46000004    2.67000008
   18.28583336  137.40199280    1.46000004    2.67000008
   18.28916550  134.76100159    1.48000002    2.69000006
   18.28999901  143.88600159    1.48000002    2.69000006
   18.29249954  146.21499634    1.48000002    2.67000008
   18.29583359  147.22300720    1.48000002    2.67000008
   18.29916573  141.05900574    1.46000004    2.67000008
   18.30499840  141.05900574    1.41999996    2.67000008
   18.30916595  150.88400269    1.41999996    2.67000008
   18.31250000  138.99200439    1.41999996    2.69000006
   18.31583214  145.08999634    1.39999998    2.67000008
   18.31888962  137.93699646    1.39999998    2.67000008
   18.32222366  138.80400085    1.38000000    2.67000008
   18.32333374  139.74400330    1.38000000    2.67000008
   18.32583427  136.19599915    1.38000000    2.67000008
   18.32888985  142.21699524    1.38000000    2.67000008
   18.33222389  152.11799622    1.39999998    2.69000006
   18.33527756  138.27200317    1.39999998    2.67000008
   18.33861160  148.82499695    1.38000000    2.69000006
   18.34194565  147.27299500    1.36000001    2.67000008
   18.34805679  147.27299500    1.36000001    2.67000008
   18.35194397  143.60499573    1.38000000    2.67000008
   18.35527802  141.50799561    1.36000001    2.67000008
   18.35666656  148.82600403    1.34000003    2.69000006
   18.35888863  137.12500000    1.34000003    2.69000006
   18.36222267  142.40100098    1.33000004    2.67000008
   18.36555672  141.19299316    1.30999994    2.67000008
   18.36861038  143.75300598    1.28999996    2.69000006
   18.37222290  140.94099426    1.30999994    2.69000006
   18.37527847  145.62100220    1.33000004    2.67000008
   18.37861061  146.65499878    1.33000004    2.67000008
   18.38166618  138.80299377    1.33000004    2.67000008
   18.38500023  144.29400635    1.34000003    2.67000008
   18.39083290  144.29400635    1.34000003    2.67000008
   18.39500046  145.63099670    1.33000004    2.67000008
   18.39805603  143.11399841    1.33000004    2.67000008
   18.40138817  139.51699829    1.33000004    2.67000008
   18.40472221  146.45100403    1.30999994    2.67000008
   18.40777779  145.29400635    1.30999994    2.67000008
   18.41110992  148.55200195    1.34000003    2.69000006
   18.41416550  134.77099609    1.36000001    2.67000008
   18.41749954  142.78300476    1.38000000    2.67000008
   18.42083359  142.82899475    1.36000001    2.67000008
   18.42333221  146.24400330    1.38000000    2.67000008
   18.42444420  140.34100342    1.38000000    2.67000008
   18.42749977  143.16999817    1.39999998    2.67000008
   18.43361092  143.16999817    1.39999998    2.67000008
   18.43777657  141.02900696    1.38000000    2.67000008
   18.44111061  139.24800110    1.38000000    2.67000008
   18.44416618  144.88499451    1.38000000    2.67000008
   18.44749832  151.07400513    1.36000001    2.67000008
   18.45111275  139.11999512    1.33000004    2.67000008
   18.45416832  148.04899597    1.33000004    2.67000008
   18.45666695  143.09599304    1.33000004    2.67000008
   18.45805550  141.32899475    1.33000004    2.67000008
   18.46111107  149.21800232    1.33000004    2.67000008
   18.46444511  145.07099915    1.26999998    2.67000008
   18.46750069  148.06300354    1.26999998    2.67000008
   18.47083473  141.73399353    1.28999996    2.67000008
   18.47638893  141.73399353    1.30999994    2.67000008
   18.48055649  148.96299744    1.30999994    2.67000008
   18.48388863  148.80999756    1.30999994    2.67000008
   18.48694420  140.34700012    1.30999994    2.67000008
   18.48999977  145.76300049    1.30999994    2.67000008
   18.49083328  149.83299255    1.30999994    2.67000008
   18.49388885  146.71499634    1.30999994    2.67000008
   18.49722290  140.98899841    1.33000004    2.69000006
   18.50027847  145.11599731    1.33000004    2.67000008
   18.50361061  139.93099976    1.33000004    2.67000008
   18.50694466  146.69599915    1.34000003    2.67000008
   18.51000023  140.74699402    1.36000001    2.69000006
   18.51333427  134.30999756    1.36000001    2.67000008
   18.51944351  134.30999756    1.38000000    2.67000008
   18.52333260  141.30099487    1.39999998    2.67000008
   18.52666664  142.06199646    1.38000000    2.67000008
   18.53000069  133.58799744    1.38000000    2.67000008
   18.53305435  144.52400208    1.39999998    2.67000008
   18.53638840  139.70599365    1.41999996    2.67000008
   18.53972244  147.59500122    1.46000004    2.66000009
   18.54277802  147.47599792    1.48000002    2.67000008
   18.54611015  142.90600586    1.50000000    2.67000008
   18.54944420  153.35000610    1.50000000    2.67000008
   18.55249977  156.23899841    1.48000002    2.67000008
   18.55583191  143.90800476    1.50000000    2.67000008
   18.55666542  150.28399658    1.50000000    2.67000008
   18.56222153  150.28399658    1.60000002    2.67000008
   18.56638718  148.42399597    1.61000001    2.66000009
   18.56944466  147.33900452    1.63000000    2.66000009
   18.57277870  148.58500671    1.63000000    2.66000009
   18.59027863  145.92999268    1.66999996    2.66000009
   18.59277916  144.94999695    1.66999996    2.67000008
   18.59583473  148.13600159    1.66999996    2.67000008
   18.59916687  144.00599670    1.64999998    2.66000009
   18.60527802  144.00599670    1.64999998    2.66000009
   18.60944557  150.68200684    1.64999998    2.67000008
   18.61250114  141.04200745    1.64999998    2.67000008
   18.61583328  148.78799438    1.66999996    2.66000009
   18.61888885  147.19500732    1.66999996    2.66000009
   18.62222290  149.72700500    1.64999998    2.67000008
   18.62361145  154.16700745    1.64999998    2.67000008
   18.62611198  141.62300110    1.64999998    2.66000009
   18.62916756  143.21299744    1.63000000    2.67000008
   18.63249969  149.06399536    1.63000000    2.67000008
   18.63583374  149.88299561    1.61000001    2.67000008
   18.63888931  146.79800415    1.61000001    2.67000008
   18.64222145  153.66000366    1.60000002    2.66000009
   18.64805603  153.66000366    1.58000004    2.66000009
   18.65222168  141.25399780    1.61000001    2.67000008
   18.65527725  144.78799438    1.63000000    2.67000008
   18.65694427  148.69200134    1.69000006    2.67000008
   18.65888786  143.44999695    1.69000006    2.67000008
   18.66222191  143.58900452    1.66999996    2.66000009
   18.66555595  144.54800415    1.71000004    2.66000009
   18.66860962  140.33799744    1.71000004    2.67000008
   18.67194366  136.95599365    1.76999998    2.66000009
   18.67527771  146.79400635    1.78999996    2.66000009
   18.67833328  142.53999329    1.78999996    2.66000009
   18.68166542  140.23599243    1.78999996    2.66000009
   18.68472099  142.83900452    1.78999996    2.64000010
   18.69083214  142.83900452    1.76999998    2.66000009
   18.69499969  151.17799377    1.80999994    2.66000009
   18.69833183  144.96200562    1.83000004    2.66000009
   18.70166779  141.50799561    1.76999998    2.66000009
   18.70472336  145.26600647    1.73000002    2.66000009
   18.70805550  144.72700500    1.73000002    2.66000009
   18.71138954  140.66400146    1.76999998    2.66000009
   18.71444511  138.48699951    1.76999998    2.66000009
   18.71777916  144.46000671    1.75000000    2.64000010
   18.72083473  143.97700500    1.71000004    2.66000009
   18.72361183  144.84700012    1.71000004    2.66000009
   18.72444534  141.31599426    1.71000004    2.66000009
   18.72777748  143.50900269    1.71000004    2.66000009
   18.73361206  143.50900269    1.75000000    2.66000009
   18.73777771  149.13499451    1.76999998    2.64000010
   18.74111176  144.63800049    1.76999998    2.64000010
   18.74444389  146.88499451    1.76999998    2.64000010
   18.74749947  135.31700134    1.73000002    2.64000010
   18.75083351  145.74099731    1.66999996    2.66000009
   18.75388908  143.97799683    1.63000000    2.67000008
   18.75694466  146.50599670    1.63000000    2.67000008
   18.75749969  147.41299438    1.63000000    2.66000009
   18.76083374  145.84399414    1.63000000    2.66000009
   18.76416588  146.63499451    1.63000000    2.64000010
   18.76722145  135.45100403    1.63000000    2.66000009
   18.77055550  143.67399597    1.64999998    2.66000009
   18.77666664  143.67399597    1.69000006    2.64000010
   18.78083229  135.46600342    1.75000000    2.64000010
   18.78388786  136.83999634    1.71000004    2.64000010
   18.78722191  143.75399780    1.66999996    2.66000009
   18.79027748  135.96400452    1.66999996    2.66000009
   18.79055595  143.55999756    1.66999996    2.66000009
   18.79388809  141.23399353    1.66999996    2.66000009
   18.79722214  147.15100098    1.63000000    2.64000010
   18.80055428  143.94299316    1.63000000    2.64000010
   18.80360985  140.18099976    1.58000004    2.66000009
   18.80694389  142.14700317    1.53999996    2.64000010
   18.80999947  144.17700195    1.53999996    2.64000010
   18.81333351  142.79299927    1.55999994    2.64000010
   18.81944466  142.79299927    1.58000004    2.64000010
   18.82361221  142.54699707    1.61000001    2.64000010
   18.82666779  150.49699402    1.60000002    2.66000009
   18.83000183  146.04600525    1.60000002    2.66000009
   18.83333397  139.95899963    1.61000001    2.64000010
   18.83638954  145.07000732    1.60000002    2.64000010
   18.83972359  144.42700195    1.60000002    2.66000009
   18.84305573  141.00799561    1.60000002    2.64000010
   18.84611130  148.11500549    1.60000002    2.66000009
   18.84944534  144.34899902    1.60000002    2.64000010
   18.85250092  143.75599670    1.60000002    2.64000010
   18.85583305  141.26300049    1.61000001    2.64000010
   18.85694504  143.50399780    1.61000001    2.64000010
   18.86222267  143.50399780    1.61000001    2.64000010
   18.86638832  139.12300110    1.63000000    2.64000010
   18.86972237  144.45599365    1.69000006    2.64000010
   18.87277794  148.24899292    1.71000004    2.64000010
   18.87611198  145.33299255    1.75000000    2.66000009
   18.87944412  148.12600708    1.75000000    2.66000009
   18.88249969  144.65899658    1.76999998    2.64000010
   18.88583374  147.53399658    1.76999998    2.64000010
   18.88888931  137.74800110    1.76999998    2.64000010
   18.89027786  149.94900513    1.69000006    2.64000010
   18.89277840  149.38200378    1.64999998    2.64000010
   18.89583397  138.49800110    1.60000002    2.64000010
   18.89916611  142.55599976    1.58000004    2.64000010
   18.90499878  142.55599976    1.50000000    2.64000010
   18.90916634  144.56300354    1.50000000    2.64000010
   18.91250038  147.38400269    1.50000000    2.64000010
   18.91583252  148.06300354    1.51999998    2.64000010
   18.91888809  148.58700562    1.53999996    2.64000010
   18.92222214  140.74200439    1.55999994    2.64000010
   18.92361069  141.50100708    1.55999994    2.64000010
   18.92583275  146.24800110    1.60000002    2.64000010
   18.92888832  145.27000427    1.64999998    2.64000010
   18.93222237  148.20100403    1.64999998    2.64000010
   18.93527603  148.45799255    1.66999996    2.64000010
   18.93861008  140.83900452    1.69000006    2.64000010
   18.94194412  145.64799500    1.69000006    2.64000010
   18.94805527  145.64799500    1.64999998    2.64000010
   18.95222282  137.18600464    1.61000001    2.64000010
   18.95555687  141.86000061    1.58000004    2.64000010
   18.95694542  144.71099854    1.58000004    2.64000010
   18.95916748  143.28900146    1.60000002    2.64000010
   18.96222305  143.17300415    1.58000004    2.64000010
   18.96555710  148.31199646    1.58000004    2.64000010
   18.96861076  143.91700745    1.55999994    2.64000010
   18.97194481  149.81100464    1.51999998    2.64000010
   18.97527885  141.32499695    1.48000002    2.64000010
   18.97833443  138.61099243    1.46000004    2.64000010
   18.98166656  140.77200317    1.44000006    2.64000010
   18.98500061  137.69400024    1.44000006    2.64000010
   18.99083328  137.69400024    1.46000004    2.64000010
   18.99500084  146.70700073    1.48000002    2.64000010
   18.99805641  146.72300720    1.51999998    2.64000010
   19.00138855  142.08599854    1.55999994    2.64000010
   19.00472260  146.51400757    1.58000004    2.64000010
   19.00777817  148.13000488    1.60000002    2.64000010
   19.01111031  148.40199280    1.60000002    2.64000010
   19.01444435  147.19900513    1.61000001    2.64000010
   19.01749992  149.50700378    1.61000001    2.64000010
   19.02083397  150.74600220    1.63000000    2.64000010
   19.02361107  147.14999390    1.63000000    2.66000009
   19.02444458  141.97500610    1.63000000    2.66000009
   19.02750015  145.68699646    1.60000002    2.64000010
   19.03361130  145.68699646    1.58000004    2.64000010
   19.03777695  143.06100464    1.53999996    2.64000010
   19.04111099  143.77699280    1.53999996    2.64000010
   19.04416656  138.69099426    1.53999996    2.64000010
   19.04749870  146.90199280    1.53999996    2.64000010
   19.05083275  149.04899597    1.51999998    2.64000010
   19.05388832  148.53300476    1.53999996    2.61999989
   19.05694389  143.27000427    1.53999996    2.64000010
   19.05777740  143.19099426    1.53999996    2.64000010
   19.06083298  150.11300659    1.53999996    2.64000010
   19.06416512  146.73399353    1.53999996    2.64000010
   19.06722260  147.77200317    1.55999994    2.64000010
   19.07055664  149.04800415    1.55999994    2.64000010
   19.07638931  149.04800415    1.55999994    2.64000010
   19.08055687  139.16200256    1.55999994    2.61999989
   19.08388901  142.69000244    1.58000004    2.64000010
   19.08694458  154.04400635    1.58000004    2.64000010
   19.09027863  142.96099854    1.60000002    2.61999989
   19.09083366  148.90699768    1.60000002    2.61999989
   19.09388924  144.68099976    1.60000002    2.64000010
   19.09722328  141.22799683    1.60000002    2.64000010
   19.10027885  149.50700378    1.60000002    2.64000010
   19.10361099  146.54299927    1.58000004    2.61999989
   19.10694504  146.24400330    1.58000004    2.61999989
   19.11000061  146.04899597    1.55999994    2.64000010
   19.11333466  150.27900696    1.55999994    2.64000010
   19.11944389  150.27900696    1.53999996    2.64000010
   19.12333298  151.90499878    1.51999998    2.61999989
   19.12388992  145.88099670    1.51999998    2.61999989
   19.12722206  141.51199341    1.51999998    2.64000010
   19.13055611  146.97000122    1.51999998    2.64000010
   19.13361168  149.39199829    1.51999998    2.61999989
   19.13694382  146.07400513    1.53999996    2.64000010
   19.14027786  136.25300598    1.61000001    2.61999989
   19.14333344  151.64300537    1.64999998    2.61999989
   19.14666748  143.60299683    1.64999998    2.61999989
   19.14999962  148.51300049    1.61000001    2.61999989
   19.15305519  143.24600220    1.60000002    2.64000010
   19.15638924  147.22700500    1.60000002    2.61999989
   19.15722275  139.44099426    1.60000002    2.61999989
   19.16222191  139.44099426    1.60000002    2.61999989
   19.16638756  137.91099548    1.61000001    2.61999989
   19.16944313  139.44299316    1.66999996    2.64000010
   19.17277718  147.64900208    1.78999996    2.61999989
   19.17611122  144.35299683    1.76999998    2.59999990
   19.17916679  142.62899780    1.73000002    2.59999990
   19.18249893  151.24200439    1.73000002    2.59999990
   19.18555450  144.26300049    1.71000004    2.59999990
   19.18888855  143.37899780    1.73000002    2.59999990
   19.19055557  142.37199402    1.69000006    2.61999989
   19.19249916  149.46899414    1.69000006    2.61999989
   19.19583321  142.30499268    1.66999996    2.61999989
   19.19888878  145.33900452    1.66999996    2.59999990
   19.20499992  145.33900452    1.69000006    2.59999990
   19.20916748  140.53300476    1.73000002    2.59999990
   19.21222305  138.81700134    1.73000002    2.61999989
   19.21555710  148.00900269    1.71000004    2.59999990
   19.21888924  140.00700378    1.64999998    2.61999989
   19.22194481  133.02999878    1.64999998    2.61999989
   19.22389030  150.59800720    1.63000000    2.61999989
   19.22583389  137.37899780    1.61000001    2.59999990
   19.22916794  147.19900513    1.61000001    2.59999990
   19.23222351  145.06100464    1.60000002    2.61999989
   19.23555565  149.70899963    1.58000004    2.61999989
   19.23861122  146.27499390    1.55999994    2.61999989
   19.24194527  149.57200623    1.58000004    2.59999990
   19.24777794  149.57200623    1.55999994    2.61999989
   19.25194359  143.00999451    1.55999994    2.61999989
   19.25527763  139.98100281    1.55999994    2.61999989
   19.25722313  144.26499939    1.53999996    2.59999990
   19.25888824  145.00999451    1.53999996    2.59999990
   19.26222229  148.42300415    1.51999998    2.59999990
   19.26527786  148.63200378    1.50000000    2.61999989
   19.26861000  141.68899536    1.46000004    2.59999990
   19.27166557  148.52699280    1.44000006    2.61999989
   19.27499962  149.40400696    1.41999996    2.61999989
   19.27833366  146.48100281    1.41999996    2.61999989
   19.28138924  145.49299622    1.39999998    2.61999989
   19.28499985  142.38200378    1.38000000    2.59999990
   19.29083252  142.38200378    1.38000000    2.61999989
   19.29472160  141.96499634    1.36000001    2.61999989
   19.29805565  150.32499695    1.34000003    2.61999989
   19.30138779  142.86799622    1.33000004    2.61999989
   19.30444336  143.24800110    1.33000004    2.61999989
   19.30777740  145.84700012    1.34000003    2.61999989
   19.31110954  144.32899475    1.34000003    2.61999989
   19.31416512  144.51600647    1.36000001    2.61999989
   19.31750107  140.75999451    1.38000000    2.61999989
   19.32055664  140.89599609    1.39999998    2.61999989
   19.32389069  140.62699890    1.39999998    2.59999990
   19.32444572  151.92399597    1.39999998    2.59999990
   19.32777786  139.77900696    1.39999998    2.59999990
   19.33361244  139.77900696    1.39999998    2.61999989
   19.33777809  146.54699707    1.44000006    2.59999990
   19.34083366  145.25900269    1.46000004    2.59999990
   19.34416771  147.28999329    1.46000004    2.59999990
   19.34722328  146.75300598    1.46000004    2.61999989
   19.35055542  154.56900024    1.46000004    2.61999989
   19.35388947  157.85400391    1.48000002    2.59999990
   19.35694504  147.91400146    1.51999998    2.59999990
   19.35777855  148.60899353    1.51999998    2.59999990
   19.36083412  140.89700317    1.51999998    2.59999990
   19.36388969  148.16400146    1.51999998    2.59999990
   19.36722183  146.79499817    1.51999998    2.59999990
   19.37055588  145.87500000    1.51999998    2.59999990
   19.37638855  145.87500000    1.51999998    2.59999990
   19.38055611  146.83099365    1.51999998    2.59999990
   19.38361168  141.68099976    1.51999998    2.59999990
   19.38694382  146.18800354    1.51999998    2.59999990
   19.39027786  146.29299927    1.51999998    2.59999990
   19.39111137  155.16700745    1.50000000    2.59999990
   19.39388847  146.92700195    1.50000000    2.59999990
   19.39694405  144.52099609    1.50000000    2.59999990
   19.40027809  150.34800720    1.50000000    2.59999990
   19.40361023  145.04400635    1.50000000    2.59999990
   19.40666580  149.26400757    1.50000000    2.59999990
   19.40999985  144.63699341    1.48000002    2.59999990
   19.41333389  147.67300415    1.48000002    2.59999990
   19.41916656  147.67300415    1.48000002    2.59999990
   19.42333221  147.65499878    1.48000002    2.59999990
   19.42444420  144.19299316    1.48000002    2.59999990
   19.42722130  144.45199585    1.48000002    2.59999990
   19.43027687  138.84500122    1.50000000    2.59999990
   19.43388748  144.44400024    1.48000002    2.59999990
   19.43694305  140.68200684    1.48000002    2.59999990
   19.44027710  145.81300354    1.48000002    2.59999990
   19.44333267  141.14900208    1.48000002    2.59999990
   19.44666672  142.80700684    1.46000004    2.59999990
   19.45000076  144.76100159    1.46000004    2.59999990
   19.45305634  150.08200073    1.46000004    2.59999990
   19.45639038  140.11900330    1.44000006    2.59999990
   19.45777893  149.52299500    1.46000004    2.59999990
   19.46222305  149.52299500    1.46000004    2.59999990
   19.46611214  152.77999878    1.46000004    2.59999990
   19.46944427  149.19799805    1.46000004    2.57999992
   19.47277832  143.84800720    1.44000006    2.59999990
   19.47583389  141.67500305    1.44000006    2.59999990
   19.47916794  144.69700623    1.41999996    2.59999990
   19.48250008  139.75100708    1.41999996    2.59999990
   19.48555565  147.22799683    1.41999996    2.59999990
   19.48888969  144.37500000    1.41999996    2.59999990
   19.49111176  148.87800598    1.44000006    2.59999990
   19.49250031  142.22900391    1.44000006    2.59999990
   19.49555588  144.58200073    1.44000006    2.59999990
   19.49888992  145.69400024    1.46000004    2.59999990
   19.50499916  145.69400024    1.51999998    2.59999990
   19.50916672  146.82499695    1.53999996    2.59999990
   19.51222229  152.27099609    1.51999998    2.59999990
   19.51555634  147.35000610    1.51999998    2.59999990
   19.51888847  149.04299927    1.50000000    2.59999990
   19.52194405  150.60699463    1.50000000    2.57999992
   19.52444458  144.72999573    1.50000000    2.57999992
   19.52555466  143.06799316    1.50000000    2.57999992
   19.52861023  141.98199463    1.50000000    2.59999990
   19.53194427  148.80700684    1.50000000    2.59999990
   19.53527641  134.63299561    1.50000000    2.59999990
   19.53833199  138.85400391    1.53999996    2.57999992
   19.54166603  147.47500610    1.58000004    2.59999990
   19.54777718  147.47500610    1.63000000    2.57999992
   19.55194283  140.33500671    1.64999998    2.57999992
   19.55527687  141.50199890    1.64999998    2.57999992
   19.55777740  141.57499695    1.66999996    2.57999992
   19.55888748  142.89799500    1.66999996    2.57999992
   19.56194305  141.87300110    1.64999998    2.55999994
   19.56527710  144.07400513    1.66999996    2.57999992
   19.56861115  145.86500549    1.71000004    2.55999994
   19.57166672  142.45700073    1.71000004    2.55999994
   19.57500076  141.41600037    1.69000006    2.57999992
   19.57833481  140.65499878    1.69000006    2.55999994
   19.58139038  147.39100647    1.69000006    2.55999994
   19.58472252  143.74000549    1.66999996    2.57999992
   19.59055710  143.74000549    1.66999996    2.55999994
   19.60888863  146.52699280    1.63000000    2.57999992
   19.61222267  148.19400024    1.61000001    2.57999992
   19.61555672  146.63999939    1.61000001    2.57999992
   19.61861038  144.49200439    1.60000002    2.55999994
   19.62194443  139.11399841    1.61000001    2.55999994
   19.62527847  139.67500305    1.61000001    2.55999994
   19.62833405  140.07800293    1.60000002    2.55999994
   19.63361168  140.07800293    1.60000002    2.57999992
   19.63777733  140.62600708    1.61000001    2.55999994
   19.64111137  140.52699280    1.61000001    2.55999994
   19.64194489  141.46000671    1.63000000    2.55999994
   19.64472198  147.14700317    1.63000000    2.55999994
   19.64805603  146.04800415    1.63000000    2.55999994
   19.65111160  142.79899597    1.61000001    2.57999992
   19.65444374  143.82299805    1.60000002    2.55999994
   19.65777779  149.77000427    1.60000002    2.55999994
   19.66083336  145.68099976    1.60000002    2.55999994
   19.66416550  146.79499817    1.60000002    2.55999994
   19.66749954  147.18699646    1.60000002    2.55999994
   19.67055511  142.72000122    1.60000002    2.55999994
   19.67666626  142.72000122    1.61000001    2.55999994
   19.68055534  145.31199646    1.61000001    2.55999994
   19.68388748  141.41700745    1.60000002    2.55999994
   19.68722153  148.59500122    1.60000002    2.55999994
   19.69027710  137.98500061    1.58000004    2.55999994
   19.69361115  145.10899353    1.58000004    2.55999994
   19.69694328  142.97500610    1.55999994    2.55999994
   19.70000076  146.51499939    1.55999994    2.55999994
   19.70333481  146.30099487    1.55999994    2.55999994
   19.70639038  147.67100525    1.55999994    2.55999994
   19.70888901  140.72900391    1.55999994    2.55999994
   19.71000099  140.87300110    1.55999994    2.55999994
   19.71333504  141.29400635    1.55999994    2.55999994
   19.71944427  141.29400635    1.55999994    2.55999994
   19.72361183  143.88800049    1.55999994    2.55999994
   19.72666740  141.56399536    1.55999994    2.55999994
   19.73000145  144.79600525    1.55999994    2.55999994
   19.73333359  141.28399658    1.53999996    2.55999994
   19.73638916  142.46000671    1.53999996    2.55999994
   19.73972321  142.15800476    1.53999996    2.55999994
   19.74222183  139.35099792    1.53999996    2.55999994
   19.74333382  144.31900024    1.53999996    2.55999994
   19.74666786  146.57099915    1.53999996    2.55999994
   19.74972153  145.47300720    1.55999994    2.55999994
   19.75305557  144.30900574    1.55999994    2.55999994
   19.75638962  144.51699829    1.55999994    2.55999994
   19.76222229  144.51699829    1.58000004    2.55999994
   19.76638794  144.71699524    1.69000006    2.55999994
   19.76972198  145.02699280    1.76999998    2.55999994
   19.77277756  147.59199524    1.80999994    2.53999996
   19.77527809  143.49499512    1.80999994    2.55999994
   19.77638817  144.14500427    1.78999996    2.53999996
   19.77972221  144.28900146    1.76999998    2.53999996
   19.78277779  148.50300598    1.76999998    2.53999996
   19.78610992  146.30400085    1.71000004    2.55999994
   19.78944397  148.99400330    1.66999996    2.55999994
   19.79249954  150.24499512    1.64999998    2.53999996
   19.79583359  143.62699890    1.66999996    2.53999996
   19.79888916  144.64399719    1.64999998    2.55999994
   19.80499840  144.64399719    1.61000001    2.53999996
   19.80916595  143.69400024    1.61000001    2.53999996
   19.81250000  145.01199341    1.64999998    2.53999996
   19.81583214  144.98300171    1.64999998    2.53999996
   19.81888962  151.29499817    1.71000004    2.55999994
   19.82222366  145.34700012    1.76999998    2.53999996
   19.82527924  147.69599915    2.07999992    2.51999998
   19.82861137  151.62500000    1.94000006    2.51999998
   19.83194542  148.17599487    1.85000002    2.53999996
   19.83500099  150.03399658    1.73000002    2.53999996
   19.83833313  146.78700256    1.73000002    2.53999996
   19.84166718  149.73399353    1.69000006    2.53999996
   19.84222221  151.69000244    1.69000006    2.53999996
   19.84805679  151.69000244    1.73000002    2.51999998
   19.85222244  141.27200317    1.71000004    2.53999996
   19.85527802  146.04499817    1.69000006    2.51999998
   19.85861206  144.51100159    1.64999998    2.53999996
   19.86166763  139.09800720    1.64999998    2.53999996
   19.86499977  143.14799500    1.64999998    2.53999996
   19.86833382  148.24800110    1.66999996    2.51999998
   19.87138939  145.68499756    1.66999996    2.51999998
   19.87472153  146.58399963    1.69000006    2.51999998
   19.87555504  137.69400024    1.69000006    2.51999998
   19.87833405  136.18699646    1.69000006    2.51999998
   19.88166618  132.52999878    1.69000006    2.51999998
   19.88500023  117.07099915    1.69000006    2.53999996
   19.89083290  117.07099915    1.69000006    2.51999998
   19.89500046  147.05299377    1.66999996    2.53999996
   19.89805603  198.09100342    1.66999996    2.51999998
   19.90138817  267.73999023    1.66999996    2.50000000
   19.90472221   94.48079681    1.66999996    2.51999998
   19.90777779   -1.00000000    1.66999996    2.51999998
   19.91138840   -1.00000000    1.69000006    2.51999998
   19.91472244   -1.00000000    1.69000006    2.51999998
   19.91777802   -1.00000000    1.69000006    2.51999998
   19.92111015   -1.00000000    1.69000006    2.51999998
   19.92416573   -1.00000000    1.66999996    2.51999998
   19.92749977   -1.00000000    1.66999996    2.51999998
   19.93777657   -1.00000000    1.64999998    2.51999998
   19.94111061   -1.00000000    1.63000000    2.51999998
   19.94444275   -1.00000000    1.63000000    2.51999998
   19.94777679   -1.00000000    1.63000000    2.51999998
   19.95083427   -1.00000000    1.63000000    2.51999998
   19.95416832   -1.00000000    1.63000000    2.51999998
   19.95722389   -1.00000000    1.63000000    2.51999998
   19.96055603   -1.00000000    1.64999998    2.51999998
   19.96389008   -1.00000000    1.66999996    2.51999998
   19.96694565   -1.00000000    1.66999996    2.51999998
   19.97027779   -1.00000000    1.66999996    2.51999998
   19.98055649   -1.00000000    1.73000002    2.51999998
   19.98388863   -1.00000000    1.73000002    2.51999998
   19.98694420   -1.00000000    1.83000004    2.51999998
   19.99027824   -1.00000000    1.86000001    2.50000000
   19.99361229   -1.00000000    1.91999996    2.50000000
   19.99666786   -1.00000000    1.91999996    2.50000000
   20.00000000   -1.00000000    1.91999996    2.50000000
   20.00305557   -1.00000000    1.94000006    2.48000002
   20.00638962   -1.00000000    1.88000000    2.50000000
   20.01000023   -1.00000000    1.83000004    2.50000000
   20.01333427   -1.00000000    1.85000002    2.50000000
   20.02333260   -1.00000000    1.89999998    2.48000002
   20.02666664   -1.00000000    1.91999996    2.48000002
   20.03000069   -1.00000000    1.89999998    2.48000002
   20.03305435   -1.00000000    1.89999998    2.48000002
   20.03638840   -1.00000000    1.89999998    2.50000000
   20.03972244   -1.00000000    1.91999996    2.50000000
   20.04305458   -1.00000000    1.89999998    2.48000002
   20.04638863   -1.00000000    1.88000000    2.48000002
   20.04944420   -1.00000000    1.89999998    2.50000000
   20.05277634   -1.00000000    1.89999998    2.50000000
   20.05583191   -1.00000000    1.88000000    2.48000002
   20.06611061   -1.00000000    1.86000001    2.48000002
   20.06944466   -1.00000000    1.86000001    2.50000000
   20.07277870   -1.00000000    1.86000001    2.48000002
   20.07611275   -1.00000000    1.86000001    2.48000002
   20.07944489   -1.00000000    1.86000001    2.48000002
   20.08250046   -1.00000000    1.86000001    2.48000002
   20.08583450   -1.00000000    1.86000001    2.48000002
   20.08916664   -1.00000000    1.86000001    2.48000002
   20.09222221   -1.00000000    1.88000000    2.48000002
   20.09555626   -1.00000000    1.88000000    2.48000002
   20.09861183   -1.00000000    1.88000000    2.48000002
   20.10916710   -1.00000000    1.89999998    2.48000002
   20.11222267   -1.00000000    1.89999998    2.48000002
   20.11555672   -1.00000000    1.89999998    2.48000002
   20.11888885   -1.00000000    1.89999998    2.48000002
   20.12194443   -1.00000000    1.91999996    2.48000002
   20.12527847   -1.00000000    1.91999996    2.48000002
   20.12833405   -1.00000000    1.91999996    2.48000002
   20.13166618   -1.00000000    1.91999996    2.48000002
   20.13500023   -1.00000000    1.91999996    2.48000002
   20.13805580   -1.00000000    1.91999996    2.48000002
   20.14138794   -1.00000000    1.91999996    2.46000004
   20.15194321   -1.00000000    1.91999996    2.46000004
   20.15527725   -1.00000000    1.91999996    2.46000004
   20.15833282   -1.00000000    1.91999996    2.46000004
   20.16166687   -1.00000000    1.91999996    2.46000004
   20.16499901   -1.00000000    1.91999996    2.46000004
   20.16805458   -1.00000000    1.91999996    2.46000004
   20.17138863   -1.00000000    1.91999996    2.46000004
   20.17472076   -1.00000000    1.94000006    2.46000004
   20.17805481   -1.00000000    1.96000004    2.46000004
   20.18138885   -1.00000000    2.03999996    2.46000004
   20.18444443   -1.00000000    2.11999989    2.46000004
   20.19472122   -1.00000000    3.32999992    2.46000004
   20.19805527   -1.00000000    3.93000007    2.46000004
   20.20138931   -1.00000000    4.44999981    2.48000002
   20.20444489   -1.00000000    4.88999987    2.46000004
   20.20777893   -1.00000000    4.90999985    2.48000002
   20.21111107   -1.00000000    4.90999985    2.42000008
   20.21444511   -1.00000000    4.90999985    2.36999989
   20.21750069   -1.00000000    4.90999985    2.26999998
   20.22083473   -1.00000000    4.90999985    2.32999992
   20.22416687   -1.00000000    4.90999985    2.40000010
   20.22722244   -1.00000000    4.90999985    2.40000010
   20.23750114   -1.00000000    4.90999985    2.32999992
   20.24083328   -1.00000000    4.90999985    2.30999994
   20.24444389   -1.00000000    4.90999985    2.25000000
   20.24777794   -1.00000000    4.90999985    2.13000011
   20.25083351   -1.00000000    4.90999985    2.23000002
   20.25416756   -1.00000000    4.90999985    2.17000008
   20.25749969   -1.00000000    4.90999985    2.13000011
   20.26055527   -1.00000000    4.90999985    2.09999990
   20.26388931   -1.00000000    4.90999985    2.13000011
   20.26722145   -1.00000000    4.90999985    2.09999990
   20.27027702   -1.00000000    4.90999985    2.25000000
   20.28055573   -1.00000000    4.90999985    2.42000008
   20.28361130   -1.00000000    4.90999985    2.44000006
   20.28694344   -1.00000000    4.90999985    2.44000006
   20.29027748   -1.00000000    4.90999985    2.26999998
   20.29333305   -1.00000000    4.90999985    2.13000011
   20.29666710   -1.00000000    4.90999985    2.07999992
   20.29972076   -1.00000000    4.90999985    2.00000000
   20.30305481   -1.00000000    4.90999985    2.05999994
   20.30638885   -1.00000000    4.90999985    2.15000010
   20.30972099   -1.00000000    4.90999985    2.36999989
   20.31305504   -1.00000000    4.90999985    2.36999989
   20.32333374   -1.00000000    4.90999985    2.40000010
   20.32666779   -1.00000000    4.90999985    2.36999989
   20.32972336   -1.00000000    4.90999985    2.26999998
   20.33305550   -1.00000000    4.90999985    2.44000006
   20.33611107   -1.00000000    4.90999985    2.40000010
   20.33944511   -1.00000000    4.90999985    2.44000006
   20.34305573   -1.00000000    4.90999985    2.42000008
   20.34638977   -1.00000000    4.90999985    2.44000006
   20.34944534   -1.00000000    4.90999985    2.44000006
   20.35277748   -1.00000000    4.90999985    2.42000008
   20.35611153   -1.00000000    4.90999985    2.40000010
   20.36611176   -1.00000000    4.90999985    2.39000010
   20.36944389   -1.00000000    4.90999985    2.36999989
   20.37249947   -1.00000000    4.90999985    2.34999990
   20.37611198   -1.00000000    4.90999985    2.36999989
   20.37944412   -1.00000000    4.90999985    2.40000010
   20.38249969   -1.00000000    4.90999985    2.39000010
   20.38583374   -1.00000000    4.90999985    2.42000008
   20.38916588   -1.00000000    4.90999985    2.40000010
   20.39222145   -1.00000000    4.90999985    2.40000010
   20.39555550   -1.00000000    4.90999985    2.40000010
   20.39861107   -1.00000000    4.90999985    2.36999989
   20.40888786   -1.00000000    4.90999985    2.39000010
   20.41222191   -1.00000000    4.90999985    2.36999989
   20.41555595   -1.00000000    4.90999985    2.36999989
   20.41860962   -1.00000000    4.90999985    2.36999989
   20.42194366   -1.00000000    4.90999985    2.39000010
   20.42499924   -1.00000000    4.90999985    2.36999989
   20.42833328   -1.00000000    4.90999985    2.36999989
   20.43166542   -1.00000000    4.90999985    2.32999992
   20.43472099   -1.00000000    4.90999985    2.30999994
   20.43805504   -1.00000000    4.90999985    2.21000004
   20.44138718   -1.00000000    4.90999985    2.23000002
   20.45194435   -1.00000000    4.90999985    2.05999994
   20.45499992   -1.00000000    4.90999985    2.23000002
   20.45833397   -1.00000000    4.90999985    2.32999992
   20.46138954   -1.00000000    4.90999985    2.39000010
   20.46472359   -1.00000000    4.90999985    2.36999989
   20.46805573   -1.00000000    4.90999985    2.36999989
   20.47111130   -1.00000000    4.90999985    2.32999992
   20.47444534   -1.00000000    4.90999985    2.30999994
   20.47805595   -1.00000000    4.90999985    2.34999990
   20.48139000   -1.00000000    4.90999985    2.34999990
   20.48472214   -1.00000000    4.90999985    2.34999990
   20.49472237   -1.00000000    4.69999981    2.36999989
   20.49805641   -1.00000000    4.19999981    2.36999989
   20.50111198   -1.00000000    3.86999989    2.36999989
   20.50444412   -1.00000000    3.91000009    2.36999989
   20.50749969   -1.00000000    4.00000000    2.36999989
   20.51111031   -1.00000000    3.78999996    2.36999989
   20.51444435   -1.00000000    3.61999989    2.36999989
   20.51777840   -1.00000000    3.53999996    2.34999990
   20.52083397   -1.00000000    3.39000010    2.36999989
   20.52416611   -1.00000000    3.28999996    2.36999989
   20.52722168   -1.00000000    3.28999996    2.36999989
   20.53750038   -1.00000000    3.61999989    2.34999990
   20.54083252   -1.00000000    3.61999989    2.34999990
   20.54416656   -1.00000000    3.57999992    2.34999990
   20.54749870   -1.00000000    3.57999992    2.34999990
   20.55083275   -1.00000000    3.55999994    2.34999990
   20.55388832   -1.00000000    3.50000000    2.34999990
   20.55722237   -1.00000000    3.34999990    2.36999989
   20.56027794   -1.00000000    3.20000005    2.34999990
   20.56361008   -1.00000000    3.09999990    2.34999990
   20.56694603   -1.00000000    3.01999998    2.32999992
   20.57000160   -1.00000000    2.98000002    2.34999990
   20.58027840   -1.00000000    2.78999996    2.34999990
   20.58361244   -1.00000000    2.80999994    2.32999992
   20.58694458   -1.00000000    2.84999990    2.34999990
   20.59000015   -1.00000000    2.86999989    2.34999990
   20.59333420   -1.00000000    2.84999990    2.34999990
   20.59666824   -1.00000000    2.80999994    2.34999990
   20.59972191   -1.00000000    2.80999994    2.34999990
   20.60305595   -1.00000000    2.82999992    2.32999992
   20.60611153   -1.00000000    2.84999990    2.32999992
   20.63361168   -1.00000000    3.01999998    2.30999994
   20.63666725   -1.00000000    3.03999996    2.30999994
   20.63999939   -1.00000000    3.03999996    2.30999994
   20.64333344   -1.00000000    3.05999994    2.30999994
   20.64666748   -1.00000000    3.05999994    2.30999994
   20.64999962   -1.00000000    3.05999994    2.30999994
   20.65305519   -1.00000000    3.09999990    2.30999994
   20.65638924   -1.00000000    3.16000009    2.28999996
   20.65944481   -1.00000000    3.20000005    2.28999996
   20.66277695   -1.00000000    3.23000002    2.30999994
   20.66611099   -1.00000000    3.26999998    2.30999994
   20.67611122   -1.00000000    3.36999989    2.28999996
   20.67944336   -1.00000000    3.45000005    2.28999996
   20.68277740   -1.00000000    3.57999992    2.28999996
   20.68583298   -1.00000000    3.64000010    2.28999996
   20.68916512   -1.00000000    3.61999989    2.28999996
   20.69249916   -1.00000000    3.53999996    2.28999996
   20.69555473   -1.00000000    3.48000002    2.28999996
