    HOUR (UT)   FLARE FACTOR    SKY TESTER    SUN TESTER
   12.12833309   -1.00000000   -1.00000000   -1.00000000
   12.14916611  190.63499451    0.70999998    1.76999998
   12.15527725  192.84100342    0.73000002    1.78999996
   12.15861034  173.81900024    0.73000002    1.78999996
   12.16166592  176.96099854    0.73000002    1.78999996
   12.16499996  185.88200378    0.73000002    1.78999996
   12.16833401  180.01100159    0.73000002    1.78999996
   12.17138958  178.93499756    0.73000002    1.78999996
   12.17472267  181.83900452    0.73000002    1.80999994
   12.17777824  177.24899292    0.73000002    1.80999994
   12.18111134  181.64500427    0.75000000    1.80999994
   12.18249989  181.71299744    0.73000002    1.78999996
   12.18472195  181.71200562    0.75000000    1.80999994
   12.18777752  179.10099792    0.75000000    1.80999994
   12.19111156  184.75300598    0.75000000    1.80999994
   12.19444466  179.99899292    0.75000000    1.80999994
   12.19750023  182.89300537    0.75000000    1.80999994
   12.20111084  187.23399353    0.75000000    1.80999994
   12.20444393  174.20899963    0.75000000    1.80999994
   12.20749950  177.65499878    0.75000000    1.80999994
   12.21083355  171.66200256    0.73000002    1.80999994
   12.21416664  180.46200562    0.73000002    1.80999994
   12.21583271  176.14500427    0.75000000    1.83000004
   12.21777725  177.13900757    0.75000000    1.85000002
   12.22083282  181.89300537    0.75000000    1.85000002
   12.22416592  178.78799438    0.75000000    1.85000002
   12.22749996  183.56300354    0.75000000    1.85000002
   12.23055553  184.37600708    0.75000000    1.85000002
   12.23388958  175.88499451    0.75000000    1.85000002
   12.23722267  178.35800171    0.75000000    1.85000002
   12.24055576  184.89700317    0.75000000    1.85000002
   12.24361134  198.16700745    0.75000000    1.85000002
   12.24722290  187.43099976    0.75000000    1.86000001
   12.24916649  179.98800659    0.75000000    1.86000001
   12.25083351  195.77200317    0.75000000    1.86000001
   12.25416660  185.14999390    0.75000000    1.86000001
   12.25722218  190.69400024    0.75000000    1.86000001
   12.26055527  197.84599304    0.75000000    1.86000001
   12.26361084  197.12500000    0.75000000    1.86000001
   12.26694393  188.17900085    0.75000000    1.88000000
   12.27027798  207.14100647    0.75000000    1.88000000
   12.27333355  196.95599365    0.75000000    1.88000000
   12.27666664  185.65499878    0.75000000    1.88000000
   12.27972221  195.31399536    0.75000000    1.88000000
   12.28249931  193.92199707    0.75000000    1.88000000
   12.28361130  182.92900085    0.75000000    1.88000000
   12.28694534  198.26600647    0.75000000    1.89999998
   12.29000092  244.41000366    0.75000000    1.89999998
   12.29333401  190.05999756    0.75000000    1.89999998
   12.29638958  163.10800171    0.73000002    1.89999998
   12.29972267  184.61900330    0.73000002    1.89999998
   12.30305576  173.21200562    0.73000002    1.91999996
   12.30611134  194.15800476    0.73000002    1.91999996
   12.30944443  166.18899536    0.73000002    1.89999998
   12.31277752  173.35699463    0.73000002    1.91999996
   12.31583309  181.35400391    0.73000002    1.91999996
   12.31638908  190.63299561    0.73000002    1.91999996
   12.31972218  207.20399475    0.73000002    1.91999996
   12.32277775  189.51400757    0.73000002    1.91999996
   12.32611084  188.03799438    0.73000002    1.94000006
   12.32916641  183.28999329    0.73000002    1.94000006
   12.33249950  188.49299622    0.73000002    1.94000006
   12.33583260  184.72399902    0.70999998    1.91999996
   12.33888817  181.11099243    0.70999998    1.94000006
   12.34222221  175.01300049    0.70999998    1.94000006
   12.34555531  186.00999451    0.70999998    1.94000006
   12.34861088  194.51600647    0.70999998    1.94000006
   12.34916592  186.18299866    0.70999998    1.94000006
   12.35222244  181.44000244    0.70999998    1.94000006
   12.35555553  194.65299988    0.70999998    1.96000004
   12.35861111  179.78300476    0.73000002    1.96000004
   12.36194515  214.79400635    0.73000002    1.96000004
   12.36500072  186.59899902    0.73000002    1.96000004
   12.36833382  197.22799683    0.73000002    1.96000004
   12.37166691  206.07000732    0.73000002    1.98000002
   12.37472248  188.13800049    0.73000002    1.98000002
   12.37805557  206.69500732    0.73000002    1.98000002
   12.38111115  219.07600403    0.73000002    1.98000002
   12.38249969  201.59800720    0.73000002    1.98000002
   12.38500023  270.01501465    0.70999998    1.98000002
   12.38833332  263.82998657    0.70999998    1.98000002
   12.39138889  182.97799683    0.70999998    1.98000002
   12.39472198  200.42999268    0.70999998    1.98000002
   12.39805508  218.33500671    0.70999998    2.00000000
   12.40111065  251.67900085    0.70999998    2.00000000
   12.40444374  212.67500305    0.70999998    2.00000000
   12.40749931  185.53900146    0.70999998    2.00000000
   12.41083336  191.96099854    0.70999998    2.00000000
   12.41416645  180.05999756    0.70999998    2.00000000
   12.41583252  169.70700073    0.70999998    2.00000000
   12.41777802  178.21000671    0.70999998    2.00000000
   12.42111111  196.39399719    0.70999998    2.00000000
   12.42416668  196.23300171    0.70999998    2.01999998
   12.42750072  182.74499512    0.70999998    2.01999998
   12.43055630  184.83500671    0.70999998    2.01999998
   12.43388939  192.18400574    0.70999998    2.01999998
   12.43722248  173.07499695    0.70999998    2.01999998
   12.44027805  183.62899780    0.69000000    2.01999998
   12.44361115  195.41600037    0.69000000    2.01999998
   12.44694424  176.33599854    0.69000000    2.01999998
   12.44916630  183.73100281    0.69000000    2.01999998
   12.45055580  187.82600403    0.69000000    2.01999998
   12.45388889  218.39199829    0.69000000    2.01999998
   12.45694447  190.41000366    0.67000002    2.03999996
   12.46027756  199.68099976    0.67000002    2.03999996
   12.46333313  223.78399658    0.67000002    2.03999996
   12.46666622  208.93299866    0.67000002    2.03999996
   12.46999931  216.34800720    0.67000002    2.03999996
   12.47305489  198.80499268    0.67000002    2.05999994
   12.47638798  209.86199951    0.67000002    2.05999994
   12.47972202  187.58399963    0.67000002    2.03999996
   12.48249912  189.56300354    0.64999998    2.03999996
   12.48333359  210.59800720    0.64999998    2.03999996
   12.48666668  181.27900696    0.64999998    2.03999996
   12.48972225  185.23399353    0.64999998    2.05999994
   12.49305534  196.03300476    0.64999998    2.05999994
   12.49638939  185.57400513    0.64999998    2.07999992
   12.49944496  186.80999756    0.64999998    2.07999992
   12.50277805  182.09100342    0.64999998    2.05999994
   12.50611115  186.26899719    0.64999998    2.07999992
   12.50916672  193.75399780    0.64999998    2.07999992
   12.51249981  181.37199402    0.64999998    2.07999992
   12.51583290  202.28100586    0.64999998    2.07999992
   12.51638889  202.72700500    0.64999998    2.07999992
   12.51944447  196.11399841    0.63000000    2.07999992
   12.52277756  201.19599915    0.63000000    2.07999992
   12.52611065  204.91499329    0.63000000    2.07999992
   12.52916622  189.25700378    0.63000000    2.07999992
   12.53249931  185.83700562    0.63000000    2.07999992
   12.53555584  194.03199768    0.63000000    2.07999992
   12.53888893  194.48699951    0.63000000    2.09999990
   12.54222298  196.20599365    0.63000000    2.09999990
   12.54527855  173.46000671    0.63000000    2.09999990
   12.54861164  177.94500732    0.61000001    2.09999990
   12.54972267  172.75900269    0.61000001    2.09999990
   12.55222225  178.42799377    0.61000001    2.09999990
   12.55555534  176.28799438    0.61000001    2.09999990
   12.55861092  177.71600342    0.61000001    2.09999990
   12.56194496  192.01199341    0.61000001    2.09999990
   12.56527805  179.45700073    0.61000001    2.09999990
   12.56833363  178.40199280    0.61000001    2.09999990
   12.57166672  176.90800476    0.61000001    2.09999990
   12.57499981  176.10400391    0.61000001    2.09999990
   12.57805538  180.64599609    0.61000001    2.11999989
   12.58138847  185.16999817    0.61000001    2.09999990
   12.58305550  177.06599426    0.61000001    2.09999990
   12.58527756  194.38900757    0.61000001    2.09999990
   12.58833313  187.66499329    0.61000001    2.11999989
   12.59166622  184.16000366    0.61000001    2.11999989
   12.59499931  217.74299622    0.61000001    2.11999989
   12.59805489  175.78700256    0.61000001    2.11999989
   12.60138893  181.08599854    0.61000001    2.11999989
   12.60444450  188.82000732    0.61000001    2.11999989
   12.60777855  177.41200256    0.61000001    2.13000011
   12.61111164  180.49299622    0.61000001    2.13000011
   12.61416721  173.67100525    0.61000001    2.13000011
   12.61611176  175.72900391    0.61000001    2.13000011
   12.61777782  167.80000305    0.61000001    2.13000011
   12.62111092  171.35200500    0.61000001    2.13000011
   12.62416649  171.65800476    0.61000001    2.13000011
   12.62750053  170.00500488    0.61000001    2.13000011
   12.63083363  176.24699402    0.61000001    2.13000011
   12.63388920  183.03500366    0.58999997    2.15000010
   12.63722229  185.33900452    0.58999997    2.15000010
   12.64055538  192.44799805    0.58999997    2.13000011
   12.64361095  188.89999390    0.58999997    2.15000010
   12.64694405  173.51300049    0.58999997    2.15000010
   12.64972210  189.47500610    0.58999997    2.15000010
   12.65055561  181.92300415    0.58999997    2.15000010
   12.65388870  176.68499756    0.58999997    2.15000010
   12.65694427  174.94299316    0.58999997    2.15000010
   12.66027737  182.02400208    0.58999997    2.15000010
   12.66361046  178.18400574    0.58999997    2.15000010
   12.66666698  177.86700439    0.58999997    2.15000010
   12.67000008  180.03300476    0.58999997    2.15000010
   12.67333412  181.10299683    0.58999997    2.15000010
   12.67638874  184.51199341    0.58999997    2.15000010
   12.67972279  182.47200012    0.58999997    2.15000010
   12.68305588  182.37899780    0.58999997    2.17000008
   12.68333340  184.66299438    0.58999997    2.17000008
   12.68666649  173.35600281    0.58999997    2.17000008
   12.69027805  173.86199951    0.58999997    2.17000008
   12.69333363  160.63299561    0.58999997    2.17000008
   12.69666672  180.33399963    0.58999997    2.17000008
   12.69972229  183.92100525    0.58999997    2.17000008
   12.70305538  178.66700745    0.58999997    2.17000008
   12.70638847  182.91200256    0.58999997    2.17000008
   12.70944405  176.83599854    0.58999997    2.17000008
   12.71277714  181.27299500    0.58999997    2.17000008
   12.71611118  174.06700134    0.56999999    2.17000008
   12.71638870  174.06199646    0.56999999    2.17000008
   12.71972179  172.79299927    0.56999999    2.17000008
   12.72305489  175.18200684    0.56999999    2.17000008
   12.72611046  176.03999329    0.56999999    2.17000008
   12.72944355  175.27999878    0.56999999    2.17000008
   12.73277760  170.12899780    0.56999999    2.17000008
   12.73583317  167.09899902    0.56999999    2.17000008
   12.73916721  168.71800232    0.56999999    2.17000008
   12.74250031  180.30400085    0.56999999    2.17000008
   12.74555588  169.32899475    0.56999999    2.19000006
   12.74888897  168.97799683    0.56999999    2.19000006
   12.75000000  178.78900146    0.56999999    2.19000006
   12.75249958  175.37899780    0.56999999    2.19000006
   12.75583363  168.29600525    0.56999999    2.19000006
   12.75888920  160.10400391    0.56999999    2.21000004
   12.76222229  172.22099304    0.56999999    2.21000004
   12.76555538  173.41499329    0.56999999    2.21000004
   12.76861095  169.94999695    0.56999999    2.19000006
   12.77194405  165.80400085    0.56999999    2.21000004
   12.77527714  166.80200195    0.56999999    2.21000004
   12.77833271  155.77299500    0.56999999    2.21000004
   12.78166676  163.65600586    0.56999999    2.21000004
   12.78333378  167.31399536    0.55000001    2.21000004
   12.78527832  161.17599487    0.55000001    2.21000004
   12.78861141  175.23399353    0.55000001    2.21000004
   12.79194450  158.79699707    0.55000001    2.21000004
   12.79500008  167.38400269    0.55000001    2.23000002
   12.79833412  169.34700012    0.55000001    2.23000002
   12.80138874  171.56900024    0.55000001    2.23000002
   12.80472279  176.95399475    0.55000001    2.23000002
   12.80805588  174.65699768    0.55000001    2.23000002
   12.81111145  168.10899353    0.55000001    2.23000002
   12.81444454  168.03599548    0.55000001    2.23000002
   12.81666660  163.25000000    0.55000001    2.23000002
   12.81805515  171.12899780    0.55000001    2.23000002
   12.82138920  162.49200439    0.55000001    2.23000002
   12.82444477  171.39199829    0.55000001    2.23000002
   12.82777786  180.89700317    0.55000001    2.23000002
   12.83111095  173.21899414    0.55000001    2.23000002
   12.83416653  169.51400757    0.55000001    2.23000002
   12.83749962  160.22399902    0.52999997    2.23000002
   12.84083271  167.21899414    0.55000001    2.23000002
   12.84388828  167.57499695    0.55000001    2.23000002
   12.84722233  165.63499451    0.52999997    2.23000002
   12.85000038  170.41700745    0.52999997    2.23000002
   12.85083389  167.02499390    0.52999997    2.25000000
   12.85416698  166.66999817    0.52999997    2.23000002
   12.85722256  164.14700317    0.52999997    2.23000002
   12.86055565  167.85600281    0.52999997    2.25000000
   12.86388969  162.00999451    0.52999997    2.25000000
   12.86694431  168.17999268    0.52999997    2.25000000
   12.87027836  167.04200745    0.52999997    2.25000000
   12.87361145  163.13800049    0.52999997    2.25000000
   12.87666702  159.43699646    0.52999997    2.25000000
   12.88000011  163.55299377    0.52999997    2.25000000
   12.88333321  173.89300537    0.52999997    2.25000000
   12.88388920  172.38999939    0.52999997    2.25000000
   12.88694477  162.90400696    0.52999997    2.25000000
   12.89027786  170.68800354    0.52999997    2.25000000
   12.89361095  158.99299622    0.52999997    2.25000000
   12.89666653  164.64700317    0.52999997    2.25000000
   12.89999962  169.77099609    0.51999998    2.25000000
   12.90305519  170.89799500    0.51999998    2.25000000
   12.90638828  158.45899963    0.51999998    2.25000000
   12.90972137  157.38200378    0.51999998    2.25000000
   12.91277695  155.96699524    0.51999998    2.25000000
   12.91611099  165.13099670    0.51999998    2.25000000
   12.91666698  164.21499634    0.51999998    2.25000000
   12.91972256  166.25000000    0.51999998    2.25000000
   12.92277813  159.57299805    0.50000000    2.26999998
   12.92611122  166.22599792    0.50000000    2.26999998
   12.92916679  162.38299561    0.50000000    2.26999998
   12.93249989  167.63099670    0.50000000    2.26999998
   12.93583298  164.18200684    0.47999999    2.26999998
   12.93888855  172.20100403    0.47999999    2.26999998
   12.94222260  170.25799561    0.50000000    2.26999998
   12.94555569  163.50900269    0.50000000    2.26999998
   12.94861126  171.42100525    0.50000000    2.26999998
   12.94999981  175.41900635    0.50000000    2.26999998
   12.95249939  173.43099976    0.50000000    2.26999998
   12.95555496  168.65600586    0.51999998    2.26999998
   12.95888901  177.65800476    0.51999998    2.26999998
   12.96194458  165.15600586    0.51999998    2.28999996
   12.96527767  168.97300720    0.51999998    2.26999998
   12.96861076  154.26100159    0.51999998    2.28999996
   12.97166634  149.14599609    0.50000000    2.28999996
   12.97499943  149.35099792    0.50000000    2.28999996
   12.97833252  153.85899353    0.50000000    2.28999996
   12.98138809  156.00999451    0.50000000    2.28999996
   12.98333359  157.61000061    0.50000000    2.28999996
   12.98527813  157.08700562    0.47999999    2.28999996
   12.98833370  164.58799744    0.47999999    2.28999996
   12.99166679  159.04299927    0.47999999    2.28999996
   12.99472237  157.50199890    0.47999999    2.28999996
   12.99805546  160.47599792    0.47999999    2.28999996
   13.00138855  166.54499817    0.47999999    2.30999994
   13.00444412  168.88600159    0.47999999    2.28999996
   13.00777817  164.97099304    0.47999999    2.30999994
   13.01111126  167.99600220    0.47999999    2.28999996
   13.01416683  165.62899780    0.47999999    2.30999994
   13.01666641  166.94999695    0.47999999    2.30999994
   13.01805496  166.57800293    0.47999999    2.30999994
   13.02111053  164.69400024    0.47999999    2.30999994
   13.02444458  160.94599915    0.47999999    2.30999994
   13.02750015  161.85800171    0.47999999    2.30999994
   13.03083324  165.16900635    0.47999999    2.30999994
   13.03416729  155.21200562    0.47999999    2.30999994
   13.03722286  158.37300110    0.47999999    2.30999994
   13.04055595  167.63499451    0.47999999    2.30999994
   13.04416752  163.63499451    0.47999999    2.32999992
   13.04722309  173.32499695    0.47999999    2.32999992
   13.05000019  169.70199585    0.47999999    2.30999994
   13.05111122  168.43099976    0.47999999    2.30999994
   13.05416679  164.71600342    0.47999999    2.30999994
   13.05749989  164.32000732    0.47999999    2.30999994
   13.06083393  168.57099915    0.47999999    2.30999994
   13.06388950  172.78799438    0.47999999    2.30999994
   13.06722260  175.26100159    0.47999999    2.30999994
   13.07027817  163.79499817    0.47999999    2.32999992
   13.07361126  160.20399475    0.47999999    2.32999992
   13.07694435  159.75000000    0.47999999    2.30999994
   13.07999992  161.96699524    0.47999999    2.32999992
   13.08333302  162.58799744    0.47999999    2.32999992
   13.08388901  162.97999573    0.47999999    2.30999994
   13.08694458  161.89999390    0.47999999    2.30999994
   13.09027767  172.24899292    0.46000001    2.32999992
   13.09333324  162.98199463    0.46000001    2.32999992
   13.09666634  167.10600281    0.46000001    2.32999992
   13.10000038  164.16400146    0.46000001    2.32999992
   13.10305595  155.74200439    0.46000001    2.32999992
   13.10638905  165.78100586    0.46000001    2.32999992
   13.10972214  165.58999634    0.46000001    2.32999992
   13.11277771  151.01800537    0.46000001    2.32999992
   13.11611176  156.80900574    0.46000001    2.32999992
   13.11666679  163.40899658    0.46000001    2.32999992
   13.11972237  161.53900146    0.44000000    2.32999992
   13.12277794  168.87100220    0.44000000    2.32999992
   13.12611103  164.71400452    0.44000000    2.32999992
   13.12944412  161.84199524    0.44000000    2.32999992
   13.13249969  158.34700012    0.44000000    2.32999992
   13.13583279  164.02699280    0.44000000    2.32999992
   13.13888836  172.08599854    0.44000000    2.32999992
   13.14222240  162.52900696    0.44000000    2.32999992
   13.14555550  159.29699707    0.44000000    2.34999990
   13.14861107  162.37500000    0.44000000    2.34999990
   13.16583252  156.35400391    0.44000000    2.34999990
   13.16861153  162.94099426    0.44000000    2.34999990
   13.17166710  155.67700195    0.44000000    2.34999990
   13.17500019  166.25500488    0.44000000    2.34999990
   13.17833328  162.32400513    0.44000000    2.34999990
   13.18138885  156.64300537    0.46000001    2.34999990
   13.18472195  154.33299255    0.46000001    2.34999990
   13.18805599  152.73399353    0.44000000    2.34999990
   13.19111156  153.69700623    0.44000000    2.34999990
   13.19444466  158.76300049    0.44000000    2.36999989
   13.19750023  149.66400146    0.44000000    2.36999989
   13.19916630  158.41499329    0.44000000    2.34999990
   13.20138836  159.55700684    0.44000000    2.34999990
   13.20444393  161.83799744    0.44000000    2.34999990
   13.20777798  156.66999817    0.44000000    2.34999990
   13.21083355  166.04400635    0.44000000    2.36999989
   13.21416664  165.60699463    0.44000000    2.36999989
   13.21749973  161.54600525    0.44000000    2.36999989
   13.22055531  162.36300659    0.46000001    2.36999989
   13.22388840  159.66099548    0.46000001    2.36999989
   13.22722149  164.07499695    0.46000001    2.36999989
   13.23027706  163.93800354    0.46000001    2.36999989
   13.23249912  160.92300415    0.44000000    2.36999989
   13.23416710  160.52900696    0.44000000    2.36999989
   13.23722267  164.91799927    0.44000000    2.36999989
   13.24055576  158.78599548    0.44000000    2.36999989
   13.24388885  163.58999634    0.44000000    2.36999989
   13.24694443  160.28100586    0.44000000    2.36999989
   13.25027752  167.00799561    0.44000000    2.36999989
   13.25333309  162.93800354    0.44000000    2.36999989
   13.25666714  162.52400208    0.44000000    2.36999989
   13.26000023  163.33399963    0.46000001    2.36999989
   13.26305580  152.16799927    0.44000000    2.36999989
   13.26583290  165.19000244    0.44000000    2.36999989
   13.26694393  159.94200134    0.44000000    2.36999989
   13.26999950  164.61199951    0.44000000    2.39000010
   13.27333355  161.81900024    0.41999999    2.36999989
   13.27666664  155.12699890    0.41999999    2.36999989
   13.27972221  157.86500549    0.41999999    2.36999989
   13.28305531  163.20300293    0.41999999    2.36999989
   13.28611183  167.57400513    0.41999999    2.39000010
   13.28944492  146.13600159    0.41999999    2.39000010
   13.29277802  154.44799805    0.41999999    2.39000010
   13.29583359  154.89700317    0.41999999    2.39000010
   13.29916668  155.02000427    0.41999999    2.39000010
   13.29972267  160.12899780    0.41999999    2.39000010
   13.30277824  157.21099854    0.41999999    2.39000010
   13.30611134  148.48800659    0.41999999    2.39000010
   13.30944443  153.27400208    0.44000000    2.39000010
   13.31250000  142.12800598    0.44000000    2.39000010
   13.31583309  173.02799988    0.44000000    2.39000010
   13.31916618  168.92500305    0.44000000    2.39000010
   13.32222176  175.61599731    0.44000000    2.39000010
   13.32555580  153.66200256    0.44000000    2.39000010
   13.32861137  152.68899536    0.44000000    2.39000010
   13.33194447  156.87800598    0.41999999    2.39000010
   13.33249950  152.28599548    0.41999999    2.39000010
   13.33555508  151.80700684    0.44000000    2.39000010
   13.33861065  159.33299255    0.41999999    2.39000010
   13.34194374  151.00599670    0.44000000    2.39000010
   13.34527779  152.11999512    0.41999999    2.39000010
   13.34833336  154.38299561    0.41999999    2.39000010
   13.35166740  148.08599854    0.41999999    2.40000010
   13.35472298  145.95799255    0.41999999    2.39000010
   13.35805607  157.98399353    0.44000000    2.39000010
   13.36138916  146.87600708    0.44000000    2.39000010
   13.36444473  154.07800293    0.41999999    2.39000010
   13.36583328  155.90899658    0.41999999    2.39000010
   13.36833382  144.92799377    0.41999999    2.39000010
   13.37138939  149.38099670    0.41999999    2.40000010
   13.37472248  157.40699768    0.41999999    2.40000010
   13.37805557  148.81199646    0.41999999    2.40000010
   13.38111115  157.82000732    0.41999999    2.40000010
   13.38444424  161.30000305    0.41999999    2.40000010
   13.38777733  157.01699829    0.41999999    2.40000010
   13.39083290  162.44700623    0.41999999    2.40000010
   13.39416695  156.41999817    0.41999999    2.40000010
   13.39722252  170.64999390    0.41999999    2.40000010
   13.39916611  165.56799316    0.41999999    2.40000010
   13.40111065  160.39799500    0.41999999    2.40000010
   13.40444374  170.09199524    0.41999999    2.40000010
   13.40777779  176.66999817    0.44000000    2.40000010
   13.41083336  162.91200256    0.44000000    2.40000010
   13.41416645  173.66499329    0.41999999    2.40000010
   13.41722298  170.91099548    0.41999999    2.40000010
   13.42055607  168.98399353    0.41999999    2.40000010
   13.42388916  170.79100037    0.41999999    2.40000010
   13.42722225  169.97599792    0.41999999    2.40000010
   13.43027782  159.36900330    0.41999999    2.40000010
   13.43249989  163.94700623    0.41999999    2.40000010
   13.43416691  170.73899841    0.41999999    2.40000010
   13.43722248  163.28399658    0.41999999    2.40000010
   13.44055557  166.84199524    0.41999999    2.40000010
   13.44388866  156.39100647    0.41999999    2.42000008
   13.44694424  167.35299683    0.41999999    2.42000008
   13.45027733  174.31599426    0.41999999    2.42000008
   13.45361137  164.33900452    0.41999999    2.42000008
   13.45666695  165.94000244    0.41999999    2.42000008
   13.46000004  158.05900574    0.41999999    2.42000008
   13.46305561  166.70899963    0.41999999    2.40000010
   13.46583271  165.80099487    0.41999999    2.42000008
   13.46694374  160.18400574    0.41999999    2.42000008
   13.47027779  169.46899414    0.41999999    2.42000008
   13.47361088  168.16400146    0.41999999    2.42000008
   13.47666645  171.35800171    0.41999999    2.42000008
   13.47999954  152.00000000    0.41999999    2.42000008
   13.48305511  164.62399292    0.41999999    2.42000008
   13.48638916  172.29899597    0.40000001    2.42000008
   13.48972225  155.69200134    0.41999999    2.42000008
   13.49277782  167.42100525    0.41999999    2.44000006
   13.49611092  167.23199463    0.40000001    2.42000008
   13.49916649  165.99400330    0.40000001    2.42000008
   13.49972248  171.82800293    0.40000001    2.42000008
   13.50277805  158.40699768    0.40000001    2.42000008
   13.50611115  155.73399353    0.40000001    2.42000008
   13.50944424  161.83700562    0.40000001    2.42000008
   13.51249981  167.90199280    0.40000001    2.42000008
   13.51583290  176.91999817    0.40000001    2.44000006
   13.51916599  167.33700562    0.40000001    2.44000006
   13.52222157  168.85200500    0.40000001    2.42000008
   13.52555561  168.25399780    0.41999999    2.42000008
   13.52888870  171.90400696    0.41999999    2.44000006
   13.53222179  172.49800110    0.44000000    2.44000006
   13.53277779  166.08999634    0.44000000    2.44000006
   13.53555584  170.21299744    0.47999999    2.44000006
   13.53888893  162.10000610    0.47999999    2.44000006
   13.54222298  165.71499634    0.47999999    2.42000008
   13.54527855  169.41299438    0.47999999    2.44000006
   13.54861164  172.84700012    0.47999999    2.44000006
   13.55166721  164.71299744    0.46000001    2.44000006
   13.55500031  162.53199768    0.47999999    2.44000006
   13.55833340  159.34599304    0.47999999    2.44000006
   13.56138897  164.38200378    0.47999999    2.44000006
   13.56472206  156.74099731    0.50000000    2.44000006
   13.56611156  161.61300659    0.50000000    2.44000006
   13.56833363  166.69400024    0.50000000    2.44000006
   13.57166672  155.04800415    0.51999998    2.44000006
   13.57472229  161.07299805    0.55000001    2.44000006
   13.57805538  160.49099731    0.61000001    2.44000006
   13.58138847  167.92199707    0.61000001    2.44000006
   13.58444405  157.99699402    0.58999997    2.44000006
   13.58777714  154.33999634    0.58999997    2.44000006
   13.59111118  168.16799927    0.52999997    2.44000006
   13.59416676  159.51800537    0.51999998    2.44000006
   13.59749985  156.52999878    0.41999999    2.46000004
   13.59944439  160.02499390    0.41999999    2.46000004
   13.60111141  159.18699646    0.44000000    2.46000004
   13.60444450  157.76300049    0.50000000    2.44000006
   13.60777855  162.00900269    0.64999998    2.44000006
   13.61083412  161.66000366    0.64999998    2.44000006
   13.61416721  160.82499695    0.64999998    2.44000006
   13.61750031  158.65199280    0.52999997    2.46000004
   13.62055588  155.63000488    0.44000000    2.46000004
   13.62388897  164.62600708    0.46000001    2.46000004
   13.62694454  157.82200623    0.47999999    2.46000004
   13.63027763  157.53799438    0.47999999    2.46000004
   13.63277817  146.61799622    0.50000000    2.44000006
   13.63388920  152.86199951    0.50000000    2.44000006
   13.63722229  152.62399292    0.51999998    2.44000006
   13.64027786  150.68099976    0.52999997    2.46000004
   13.64361095  153.85400391    0.52999997    2.46000004
   13.64694405  153.80400085    0.51999998    2.46000004
   13.64999962  157.96000671    0.46000001    2.46000004
   13.65333271  153.90100098    0.44000000    2.46000004
   13.65666676  161.25999451    0.40000001    2.46000004
   13.65972137  152.61099243    0.40000001    2.46000004
   13.66305542  154.24299622    0.40000001    2.46000004
   13.66611099  146.72799683    0.40000001    2.46000004
   13.66666698  155.97500610    0.40000001    2.46000004
   13.67000008  147.24600220    0.40000001    2.46000004
   13.67305565  149.19500732    0.41999999    2.46000004
   13.67638874  157.00900269    0.40000001    2.46000004
   13.67972279  149.79299927    0.40000001    2.46000004
   13.68277836  145.56900024    0.40000001    2.46000004
   13.68638897  147.33399963    0.44000000    2.46000004
   13.68972206  156.35899353    0.46000001    2.46000004
   13.69277763  148.21000671    0.46000001    2.46000004
   13.69611073  154.91999817    0.46000001    2.46000004
   13.69944477  145.27600098    0.46000001    2.46000004
   13.69972229  153.10000610    0.46000001    2.46000004
   13.70305538  154.45500183    0.55000001    2.46000004
   13.70611095  152.73399353    0.55000001    2.46000004
   13.70944405  159.28300476    0.52999997    2.46000004
   13.71277714  155.68600464    0.52999997    2.46000004
   13.71611118  157.47799683    0.47999999    2.46000004
   13.71944427  153.68400574    0.47999999    2.46000004
   13.72249985  147.92700195    0.47999999    2.48000002
   13.72583294  159.34500122    0.44000000    2.46000004
   13.72916603  146.20700073    0.46000001    2.48000002
   13.73222160  153.37199402    0.47999999    2.46000004
   13.73277760  153.51499939    0.47999999    2.46000004
   13.73583317  154.14999390    0.51999998    2.48000002
   13.73888874  145.30400085    0.52999997    2.46000004
   13.74222279  152.26899719    0.55000001    2.48000002
   13.74555588  146.99000549    0.55000001    2.48000002
   13.74861145  148.85600281    0.55000001    2.46000004
   13.75194454  152.33299255    0.64999998    2.46000004
   13.75527763  144.59700012    0.73000002    2.48000002
   13.75833321  147.28300476    0.69000000    2.46000004
   13.76166630  156.05799866    0.70999998    2.46000004
   13.76472187  152.03900146    0.80000001    2.48000002
   13.76611137  154.11099243    0.80000001    2.48000002
   13.76861095  153.89100647    1.19000006    2.46000004
   13.77166653  151.54699707    1.19000006    2.46000004
   13.77499962  150.97500610    0.89999998    2.48000002
   13.77833271  155.53100586    0.80000001    2.46000004
   13.78138828  145.29400635    0.69000000    2.46000004
   13.78472233  148.53999329    0.75000000    2.46000004
   13.78805637  147.27999878    0.61000001    2.48000002
   13.79111195  144.36099243    0.52999997    2.48000002
   13.79444504  146.70700073    0.52999997    2.48000002
   13.79750061  146.36199951    0.47999999    2.48000002
   13.79972267  146.80499268    0.46000001    2.48000002
   13.80138874  138.10200500    0.46000001    2.48000002
   13.80472279  147.81500244    0.50000000    2.48000002
   13.80805588  151.32099915    0.44000000    2.48000002
   13.81111145  151.02799988    0.44000000    2.48000002
   13.81444454  155.04499817    0.38000000    2.48000002
   13.81777763  147.64199829    0.36000001    2.48000002
   13.82083321  138.96600342    0.36000001    2.48000002
   13.82416630  140.82600403    0.38000000    2.48000002
   13.82750034  142.55299377    0.38000000    2.48000002
   13.83055592  141.88499451    0.38000000    2.48000002
   13.83277798  147.14199829    0.38000000    2.48000002
   13.83444405  137.19000244    0.38000000    2.48000002
   13.83749962  147.36099243    0.38000000    2.48000002
   13.84083271  143.46499634    0.38000000    2.48000002
   13.84416676  148.25199890    0.38000000    2.48000002
   13.84722233  149.10899353    0.36000001    2.50000000
   13.85055637  150.58900452    0.34000000    2.48000002
   13.85388947  147.85000610    0.34000000    2.48000002
   13.85694504  150.83299255    0.34000000    2.48000002
   13.86027813  150.56500244    0.38000000    2.50000000
   13.86333370  154.46200562    0.38000000    2.50000000
   13.86611176  156.12899780    0.38000000    2.48000002
   13.86722279  153.86900330    0.38000000    2.50000000
   13.87027836  157.63000488    0.38000000    2.48000002
   13.87361145  149.75700378    0.38000000    2.48000002
   13.87694454  153.20899963    0.41999999    2.48000002
   13.88000011  158.45799255    0.58999997    2.48000002
   13.88333321  151.91000366    0.52999997    2.48000002
   13.88666630  160.65899658    0.51999998    2.50000000
   13.88972187  156.45399475    0.50000000    2.48000002
   13.89305496  150.67900085    0.50000000    2.48000002
   13.89611053  148.86399841    0.50000000    2.48000002
   13.89944458  155.24099731    0.46000001    2.50000000
   13.89999962  152.99800110    0.46000001    2.50000000
   13.90333271  153.13800049    0.46000001    2.50000000
   13.90666676  156.48899841    0.41999999    2.50000000
   13.90972137  148.17300415    0.44000000    2.48000002
   13.91305542  151.57899475    0.46000001    2.48000002
   13.91638851  148.03700256    0.46000001    2.50000000
   13.91944504  146.86099243    0.44000000    2.48000002
   13.92277813  150.65100098    0.40000001    2.50000000
   13.92583370  146.55799866    0.40000001    2.50000000
   13.92916679  144.67300415    0.41999999    2.50000000
   13.93249989  146.56900024    0.41999999    2.50000000
   13.93305588  146.77400208    0.41999999    2.50000000
   13.93583298  142.31799316    0.40000001    2.50000000
   13.93916702  137.68299866    0.40000001    2.50000000
   13.94250011  147.33399963    0.38000000    2.50000000
   13.94583321  154.99899292    0.38000000    2.48000002
   13.94888878  152.29299927    0.38000000    2.50000000
   13.95222187  144.39799500    0.38000000    2.50000000
   13.95555496  150.93099976    0.38000000    2.50000000
   13.95861053  146.45500183    0.38000000    2.50000000
   13.96194458  148.46299744    0.38000000    2.50000000
   13.96527767  145.73199463    0.34000000    2.50000000
   13.96638870  153.46400452    0.34000000    2.50000000
   13.96861076  150.96000671    0.34000000    2.50000000
   13.97194386  149.39300537    0.34000000    2.50000000
   13.97527695  141.89399719    0.34000000    2.51999998
   13.97833252  154.04800415    0.34000000    2.50000000
   13.98166656  157.58999634    0.31999999    2.50000000
   13.98472214  153.52099609    0.31999999    2.51999998
   13.98805618  158.90600586    0.31999999    2.51999998
   13.99138927  149.41499329    0.31999999    2.51999998
   13.99444485  148.22000122    0.34000000    2.51999998
   13.99777794  149.13000488    0.34000000    2.50000000
   13.99972248  146.19500732    0.34000000    2.51999998
   14.00138855  148.07600403    0.34000000    2.51999998
   14.00472260  149.52099609    0.34000000    2.51999998
   14.00805569  153.64700317    0.36000001    2.51999998
   14.01111126  152.99699402    0.36000001    2.51999998
   14.01444435  155.22099304    0.40000001    2.51999998
   14.01749992  144.95899963    0.44000000    2.51999998
   14.02083302  148.85800171    0.47999999    2.51999998
   14.02416611  147.30400085    0.51999998    2.50000000
   14.02722168  142.09599304    0.51999998    2.51999998
   14.03055573  136.13600159    0.51999998    2.51999998
   14.03305531  136.52000427    0.51999998    2.51999998
   14.03416729  138.06799316    0.50000000    2.50000000
   14.03750038  141.38099670    0.50000000    2.50000000
   14.04083347  151.51300049    0.47999999    2.51999998
   14.04388905  150.88699341    0.47999999    2.51999998
   14.04722309  148.06500244    0.52999997    2.50000000
   14.05027771  140.24499512    0.55000001    2.51999998
   14.05388927  133.17799377    0.55000001    2.51999998
   14.05694485  139.57899475    0.52999997    2.51999998
   14.06027794  137.36300659    0.52999997    2.51999998
   14.06333351  148.34899902    0.51999998    2.51999998
   14.06638908  145.04400635    0.47999999    2.51999998
   14.06694412  147.18899536    0.47999999    2.51999998
   14.07027817  142.97300720    0.47999999    2.51999998
   14.07361126  145.55599976    0.47999999    2.51999998
   14.07666683  147.31700134    0.46000001    2.51999998
   14.07999992  150.23199463    0.44000000    2.51999998
   14.08305550  154.21099854    0.40000001    2.51999998
   14.08638859  150.31700134    0.40000001    2.51999998
   14.08972168  155.23100281    0.38000000    2.51999998
   14.09277725  151.22799683    0.40000001    2.51999998
   14.09611034  157.36599731    0.41999999    2.51999998
   14.09944439  155.23300171    0.41999999    2.51999998
   14.10000038  153.74899292    0.44000000    2.51999998
   14.10305595  147.78900146    0.47999999    2.51999998
   14.10638905  159.42100525    0.47999999    2.51999998
   14.10944462  156.36799622    0.47999999    2.51999998
   14.11277771  149.11199951    0.46000001    2.51999998
   14.11611176  146.94599915    0.46000001    2.51999998
   14.11944485  150.26800537    0.44000000    2.53999996
   14.12277794  150.22700500    0.44000000    2.51999998
   14.12583351  148.98500061    0.44000000    2.51999998
   14.12916660  152.46699524    0.44000000    2.51999998
   14.13222218  151.80000305    0.46000001    2.51999998
   14.13305569  149.45599365    0.46000001    2.53999996
   14.13583279  146.64799500    0.46000001    2.53999996
   14.13916683  141.15100098    0.44000000    2.53999996
   14.14222240  148.82499695    0.44000000    2.53999996
   14.14555550  138.42500305    0.40000001    2.53999996
   14.14888859  144.53599548    0.38000000    2.53999996
   14.15194416  143.94999695    0.38000000    2.53999996
   14.15527725  146.78199768    0.34000000    2.53999996
   14.15861034  143.76600647    0.34000000    2.51999998
   14.16166592  149.51899719    0.34000000    2.53999996
   14.16499996  144.73300171    0.31999999    2.53999996
   14.18249989  147.75700378    0.30000001    2.53999996
   14.18500042  149.00999451    0.30000001    2.53999996
   14.18805599  144.87399292    0.28000000    2.53999996
   14.19138908  151.92100525    0.28000000    2.53999996
   14.19444466  146.74600220    0.28000000    2.53999996
   14.19777775  132.27099609    0.28000000    2.55999994
   14.20111084  148.81599426    0.28000000    2.55999994
   14.20416641  144.01899719    0.28000000    2.53999996
   14.20749950  148.19099426    0.28000000    2.53999996
   14.21083355  152.47000122    0.28000000    2.53999996
   14.21388912  150.37800598    0.28000000    2.53999996
   14.21583271  144.43899536    0.28000000    2.53999996
   14.21749973  154.46099854    0.28000000    2.53999996
   14.22083282  154.06500244    0.25999999    2.53999996
   14.22416592  156.36300659    0.25999999    2.53999996
   14.22722149  160.90699768    0.25999999    2.53999996
   14.23055553  170.35800171    0.25999999    2.53999996
   14.23361111  162.63499451    0.25999999    2.53999996
   14.23694515  163.52600098    0.25999999    2.53999996
   14.24027824  159.80400085    0.25999999    2.53999996
   14.24333382  153.94700623    0.25999999    2.53999996
   14.24666691  158.64300537    0.25999999    2.53999996
   14.24916649  151.57600403    0.25999999    2.53999996
   14.25055599  154.27699280    0.25999999    2.53999996
   14.25361156  154.58999634    0.28000000    2.53999996
   14.25694466  146.32099915    0.25999999    2.55999994
   14.26000023  148.89999390    0.25999999    2.55999994
   14.26333332  152.05499268    0.25999999    2.55999994
   14.26666641  152.45899963    0.28000000    2.55999994
   14.26972198  150.24200439    0.25999999    2.55999994
   14.27305508  156.10400391    0.25999999    2.53999996
   14.27638817  154.05700684    0.25999999    2.53999996
   14.27944374  153.88099670    0.25999999    2.55999994
   14.28249931  158.94500732    0.25999999    2.55999994
   14.28305531  150.08299255    0.25999999    2.55999994
   14.28638935  152.26699829    0.25999999    2.53999996
   14.28972244  151.87399292    0.25999999    2.55999994
   14.29277802  152.48599243    0.25999999    2.53999996
   14.29611111  150.18400574    0.25999999    2.55999994
   14.29944515  152.60200500    0.25999999    2.55999994
   14.30249977  152.00599670    0.25999999    2.55999994
   14.30583382  146.90800476    0.25999999    2.55999994
   14.30888939  142.85099792    0.25999999    2.55999994
   14.31222248  142.84100342    0.25999999    2.55999994
   14.31555557  146.13999939    0.25999999    2.55999994
   14.31611156  147.46699524    0.25999999    2.55999994
   14.31916618  151.66200256    0.25999999    2.55999994
   14.32250023  144.58399963    0.25999999    2.55999994
   14.32583332  146.83299255    0.25999999    2.55999994
   14.32888889  143.65400696    0.25999999    2.55999994
   14.33222198  147.95199585    0.25999999    2.55999994
   14.33555508  144.16499329    0.25999999    2.55999994
   14.33861065  141.86300659    0.25999999    2.55999994
   14.34194374  143.50500488    0.25999999    2.55999994
   14.34527779  143.85499573    0.25999999    2.53999996
   14.34833336  139.72300720    0.25999999    2.55999994
   14.34944439  148.77900696    0.25999999    2.55999994
   14.35194492  149.25500488    0.25999999    2.55999994
   14.35527802  145.13600159    0.25999999    2.55999994
   14.35861111  140.32099915    0.25999999    2.55999994
   14.36166668  140.82200623    0.25999999    2.55999994
   14.36500072  145.86799622    0.25999999    2.55999994
   14.36805534  135.80499268    0.25999999    2.55999994
   14.37138939  145.89599609    0.25999999    2.55999994
   14.37472248  143.02900696    0.25999999    2.55999994
   14.37777805  144.91299438    0.25999999    2.55999994
   14.38111115  142.39999390    0.25999999    2.53999996
   14.38277817  141.77999878    0.25999999    2.53999996
   14.38472176  137.49400330    0.25999999    2.55999994
   14.38805580  141.84300232    0.25999999    2.55999994
   14.39138889  143.06300354    0.25999999    2.55999994
   14.39444447  140.19700623    0.25999999    2.55999994
   14.39777756  143.84399414    0.25999999    2.55999994
   14.40083313  138.28399658    0.25999999    2.55999994
   14.40416622  144.25999451    0.25999999    2.55999994
   14.40749931  137.24200439    0.25999999    2.55999994
   14.41055489  153.24800110    0.25999999    2.55999994
   14.41388893  140.69099426    0.25999999    2.55999994
   14.41611099  141.73399353    0.25999999    2.55999994
   14.41750050  142.90400696    0.25000000    2.55999994
   14.42083359  152.36999512    0.25000000    2.55999994
   14.42416668  137.40899658    0.25000000    2.55999994
   14.42722225  142.12800598    0.25999999    2.55999994
   14.43055630  137.52600098    0.25000000    2.55999994
   14.43361092  139.71499634    0.25000000    2.55999994
   14.43694496  139.37899780    0.25000000    2.55999994
   14.44027805  141.88099670    0.25000000    2.55999994
   14.44333363  135.74499512    0.25000000    2.55999994
   14.44666672  141.10499573    0.25000000    2.55999994
   14.44944477  147.35200500    0.25999999    2.57999992
   14.45027733  137.21000671    0.25999999    2.57999992
   14.45361137  142.28199768    0.25999999    2.55999994
   14.45694447  139.30000305    0.25999999    2.55999994
   14.46000004  144.50000000    0.25999999    2.55999994
   14.46333313  133.81500244    0.25999999    2.55999994
   14.46638870  135.19799805    0.25999999    2.57999992
   14.46972179  138.05000305    0.25999999    2.57999992
   14.47305489  142.61700439    0.28000000    2.55999994
   14.47611046  136.31300354    0.34000000    2.57999992
   14.47944355  140.68099976    0.34000000    2.55999994
   14.48277760  134.41999817    0.31999999    2.57999992
   14.48333359  142.77699280    0.31999999    2.57999992
   14.48638916  153.76100159    0.34000000    2.57999992
   14.48972225  142.90600586    0.34000000    2.55999994
   14.49277782  156.53399658    0.34000000    2.55999994
   14.49611092  137.53799438    0.36000001    2.57999992
   14.49944496  147.53300476    0.38000000    2.55999994
   14.50249958  140.84399414    0.38000000    2.55999994
   14.50583363  142.37899780    0.38000000    2.57999992
   14.50916672  143.97900391    0.36000001    2.57999992
   14.51222229  151.48500061    0.34000000    2.57999992
   14.51555538  140.82800293    0.34000000    2.57999992
   14.51611137  148.11500549    0.34000000    2.57999992
   14.51888847  141.52699280    0.34000000    2.57999992
   14.52222157  139.41900635    0.34000000    2.57999992
   14.52555561  151.20399475    0.31999999    2.57999992
   14.52861118  148.18800354    0.31999999    2.55999994
   14.53194427  137.79800415    0.31999999    2.57999992
   14.53527832  142.97799683    0.31999999    2.55999994
   14.53833389  142.07400513    0.31999999    2.55999994
   14.54166698  143.45100403    0.31999999    2.57999992
   14.54472256  149.92199707    0.31999999    2.57999992
   14.54805565  158.36199951    0.31999999    2.57999992
   14.54944515  146.70100403    0.31999999    2.57999992
   14.55194473  135.13900757    0.31999999    2.57999992
   14.55500031  143.84100342    0.31999999    2.57999992
   14.55833340  147.43800354    0.31999999    2.57999992
   14.56138897  141.59399414    0.31999999    2.57999992
   14.56472206  151.32499695    0.31999999    2.57999992
   14.56805515  153.58099365    0.31999999    2.57999992
   14.57111073  134.17999268    0.30000001    2.57999992
   14.57444477  141.60499573    0.31999999    2.57999992
   14.57777786  163.01300049    0.31999999    2.57999992
   14.58083344  151.59599304    0.31999999    2.57999992
   14.58277798  153.15899658    0.31999999    2.57999992
   14.58472157  149.52799988    0.31999999    2.59999990
   14.58805561  152.92100525    0.31999999    2.57999992
   14.59111118  154.29299927    0.31999999    2.57999992
   14.59444427  147.91200256    0.31999999    2.59999990
   14.59777737  147.95199585    0.31999999    2.57999992
   14.60083389  154.24400330    0.31999999    2.57999992
   14.60416698  144.07099915    0.30000001    2.57999992
   14.60750008  154.30700684    0.30000001    2.57999992
   14.61055565  142.72799683    0.30000001    2.57999992
   14.61388969  152.84300232    0.30000001    2.57999992
   14.61611176  150.21499634    0.30000001    2.57999992
   14.61750031  141.66900635    0.30000001    2.57999992
   14.62083340  147.05299377    0.30000001    2.57999992
   14.62416649  139.10299683    0.30000001    2.57999992
   14.62722206  146.59599304    0.30000001    2.59999990
   14.63055611  140.74099731    0.30000001    2.59999990
   14.63388920  142.49699402    0.28000000    2.57999992
   14.63694477  141.39100647    0.28000000    2.57999992
   14.64027786  141.38400269    0.28000000    2.57999992
   14.64333344  151.06799316    0.28000000    2.57999992
   14.64666653  142.91600037    0.25999999    2.59999990
   14.64944458  142.82499695    0.25999999    2.57999992
   14.65055561  142.38400269    0.25999999    2.57999992
   14.65388870  150.63200378    0.25999999    2.57999992
   14.65694427  151.98199463    0.25999999    2.57999992
   14.66027737  166.40899658    0.25999999    2.59999990
   14.66361046  149.25599670    0.25999999    2.59999990
   14.66666698  150.43400574    0.25999999    2.59999990
   14.67000008  148.79100037    0.25000000    2.57999992
   14.67333412  150.81399536    0.25000000    2.59999990
   14.67638874  155.19900513    0.25000000    2.59999990
   14.67972279  152.39199829    0.25000000    2.57999992
   14.68277836  151.00900269    0.25999999    2.57999992
   14.68333340  153.50700378    0.25999999    2.57999992
   14.68666649  153.45500183    0.25999999    2.59999990
   14.69000053  170.39700317    0.25999999    2.59999990
   14.69305515  150.35000610    0.25999999    2.59999990
   14.69638920  151.95100403    0.25999999    2.59999990
   14.69972229  151.82800293    0.25000000    2.59999990
   14.70277786  145.25599670    0.25000000    2.59999990
   14.70611095  161.10600281    0.25000000    2.59999990
   14.70944405  169.13200378    0.25000000    2.59999990
   14.71249962  145.57099915    0.25000000    2.59999990
   14.71583271  178.64500427    0.25000000    2.57999992
   14.71638870  146.21899414    0.25000000    2.59999990
   14.71944427  143.50000000    0.25000000    2.57999992
   14.72277737  157.93299866    0.25000000    2.59999990
   14.72611046  164.00399780    0.25000000    2.59999990
   14.72916603  156.66000366    0.25000000    2.59999990
   14.73249912  180.77200317    0.25000000    2.59999990
   14.73583317  173.65499878    0.25000000    2.59999990
   14.73888874  165.43200684    0.25000000    2.59999990
   14.74222279  166.01699829    0.25000000    2.59999990
   14.74555588  142.81900024    0.25000000    2.59999990
   14.74861145  153.06599426    0.25000000    2.59999990
   14.74972248  145.15699768    0.25000000    2.59999990
   14.75249958  141.37399292    0.25000000    2.59999990
   14.75583363  160.85400391    0.25000000    2.59999990
   14.75888920  147.52499390    0.25000000    2.59999990
   14.76222229  149.75100708    0.25000000    2.59999990
   14.76555538  157.93200684    0.25000000    2.59999990
   14.76861095  175.16299438    0.25999999    2.59999990
   14.77194405  150.17500305    0.25999999    2.59999990
   14.77499962  154.56399536    0.25999999    2.59999990
   14.77833271  147.22200012    0.25999999    2.59999990
   14.78166676  156.75500488    0.25999999    2.57999992
   14.78305531  140.03799438    0.25999999    2.59999990
   14.78500080  152.72799683    0.25999999    2.59999990
   14.78833389  142.49200439    0.25999999    2.59999990
   14.79166698  163.84100342    0.25999999    2.59999990
   14.79472256  158.61099243    0.28000000    2.57999992
   14.79805565  158.08200073    0.28000000    2.57999992
   14.80111122  197.35099792    0.28000000    2.59999990
   14.80444431  165.20500183    0.28000000    2.59999990
   14.80777836  159.60699463    0.28000000    2.59999990
   14.81083393  154.55299377    0.30000001    2.59999990
   14.81416702  175.68200684    0.28000000    2.59999990
   14.81638908  162.72599792    0.28000000    2.59999990
   14.81777763  155.20300293    0.28000000    2.59999990
   14.82111073  160.28199768    0.28000000    2.59999990
   14.82444477  156.35400391    0.28000000    2.59999990
   14.82750034  149.96800232    0.28000000    2.59999990
   14.83083344  150.39599609    0.28000000    2.59999990
   14.83416653  158.61599731    0.28000000    2.59999990
   14.83749962  156.15100098    0.28000000    2.59999990
   14.84055519  148.37800598    0.28000000    2.59999990
   14.84388828  156.43400574    0.28000000    2.61999989
   14.84722233  160.55400085    0.25999999    2.59999990
   14.84972191  162.47200012    0.25999999    2.59999990
   14.85055637  154.38099670    0.25999999    2.59999990
   14.85388947  162.38699341    0.25999999    2.59999990
   14.85722256  149.39700317    0.25999999    2.59999990
   14.86027813  182.16000366    0.25999999    2.59999990
   14.86361122  175.86300659    0.25999999    2.61999989
   14.86694431  167.89700317    0.25999999    2.61999989
   14.86999989  150.74499512    0.28000000    2.61999989
   14.87333393  158.69500732    0.28000000    2.59999990
   14.87638855  149.65499878    0.28000000    2.59999990
   14.87972260  153.71899414    0.28000000    2.59999990
   14.88305569  172.61199951    0.28000000    2.59999990
   14.88333321  155.97399902    0.28000000    2.59999990
   14.88666630  148.73699951    0.30000001    2.59999990
   14.89000034  144.93899536    0.30000001    2.61999989
   14.89305496  162.94999695    0.30000001    2.61999989
   14.89638901  144.39900208    0.30000001    2.61999989
   14.89944458  157.02900696    0.31999999    2.59999990
   14.90277767  142.70700073    0.34000000    2.59999990
   14.90611076  151.34700012    0.34000000    2.59999990
   14.90916634  152.73599243    0.31999999    2.59999990
   14.91249943  159.09700012    0.28000000    2.59999990
   14.91583252  149.41400146    0.25999999    2.61999989
   14.91638851  162.20399475    0.25999999    2.61999989
   14.91916656  166.53700256    0.28000000    2.61999989
   14.92277813  161.72000122    0.28000000    2.61999989
   14.92583370  162.24600220    0.28000000    2.61999989
   14.92916679  149.61399841    0.28000000    2.59999990
   14.93249989  157.03900146    0.28000000    2.59999990
   14.93555546  152.22099304    0.28000000    2.61999989
   14.93888855  169.21099854    0.28000000    2.61999989
   14.94194412  165.21200562    0.28000000    2.59999990
   14.94527817  157.78900146    0.28000000    2.59999990
   14.94888878  151.34599304    0.28000000    2.61999989
   14.94972229  151.58500671    0.28000000    2.61999989
   14.95249939  148.28100586    0.28000000    2.61999989
   14.95583344  156.57699585    0.28000000    2.61999989
   14.95888901  156.78500366    0.28000000    2.61999989
   14.96222210  150.78900146    0.28000000    2.59999990
   14.96527767  142.84599304    0.28000000    2.61999989
   14.96861076  146.26699829    0.28000000    2.61999989
   14.97194386  148.38299561    0.28000000    2.61999989
   14.97527695  139.10200500    0.25999999    2.61999989
   14.97833252  144.88200378    0.28000000    2.59999990
   14.98166656  144.11399841    0.28000000    2.59999990
   14.98305511  138.59700012    0.28000000    2.61999989
   14.98527813  136.04699707    0.28000000    2.61999989
   14.98861122  140.40299988    0.28000000    2.61999989
   14.99194431  144.89599609    0.30000001    2.61999989
   14.99499989  149.66999817    0.30000001    2.59999990
   14.99833393  138.05200195    0.28000000    2.61999989
   15.00166702  142.48300171    0.28000000    2.61999989
   15.00472260  148.83200073    0.28000000    2.59999990
   15.00805569  154.21800232    0.28000000    2.61999989
   15.01138878  143.77900696    0.30000001    2.61999989
   15.01444435  149.35299683    0.31999999    2.61999989
   15.01638889  140.69000244    0.31999999    2.61999989
   15.01805496  162.50100708    0.31999999    2.61999989
   15.02138901  150.31900024    0.31999999    2.61999989
   15.02472210  162.35600281    0.31999999    2.61999989
   15.02777767  155.41799927    0.30000001    2.61999989
   15.03111076  150.63600159    0.30000001    2.61999989
   15.03444481  156.33999634    0.30000001    2.61999989
   15.03750038  158.75100708    0.31999999    2.61999989
   15.04083347  148.15800476    0.30000001    2.61999989
   15.04388905  150.38900757    0.30000001    2.61999989
   15.04722309  147.29800415    0.30000001    2.61999989
   15.04972267  152.44900513    0.30000001    2.61999989
   15.05083370  151.16099548    0.30000001    2.61999989
   15.05416679  144.65299988    0.30000001    2.61999989
   15.05749989  159.07099915    0.30000001    2.61999989
   15.06055546  158.74499512    0.28000000    2.61999989
   15.06388950  147.92399597    0.28000000    2.61999989
   15.06722260  166.86900330    0.28000000    2.61999989
   15.07027817  155.03199768    0.28000000    2.61999989
   15.07361126  170.17300415    0.28000000    2.61999989
   15.07666683  159.10499573    0.28000000    2.61999989
   15.07999992  170.09199524    0.28000000    2.61999989
   15.08305550  172.40600586    0.28000000    2.61999989
   15.08361053  166.96800232    0.28000000    2.61999989
   15.08694458  160.31900024    0.28000000    2.61999989
   15.09027767  176.44500732    0.28000000    2.61999989
   15.09333324  166.08299255    0.30000001    2.61999989
   15.09666634  173.92500305    0.30000001    2.61999989
   15.10000038  178.85600281    0.30000001    2.61999989
   15.10305595  164.32400513    0.30000001    2.61999989
   15.10638905  161.13000488    0.30000001    2.61999989
   15.10972214  155.01199341    0.30000001    2.61999989
   15.11277771  154.78799438    0.30000001    2.61999989
   15.11611176  158.04899597    0.30000001    2.61999989
   15.11666679  149.62500000    0.30000001    2.61999989
   15.11999989  158.77999878    0.30000001    2.64000010
   15.12305546  160.03999329    0.30000001    2.64000010
   15.12638855  146.03599548    0.30000001    2.61999989
   15.12972260  162.64399719    0.30000001    2.61999989
   15.13277817  166.67199707    0.28000000    2.61999989
   15.13611126  153.29699707    0.28000000    2.61999989
   15.13944435  149.63299561    0.30000001    2.61999989
   15.14249992  157.23800659    0.30000001    2.61999989
   15.14583302  151.80900574    0.30000001    2.61999989
   15.14888859  158.73500061    0.28000000    2.61999989
   15.14999962  147.40800476    0.28000000    2.61999989
   15.15249920  157.60600281    0.28000000    2.61999989
   15.15583324  151.78300476    0.30000001    2.61999989
   15.15916634  135.05099487    0.30000001    2.64000010
   15.16222191  132.43400574    0.30000001    2.61999989
   15.16555500  138.56399536    0.30000001    2.61999989
   15.16888905  127.72599792    0.30000001    2.61999989
   15.17194462  140.35000610    0.30000001    2.64000010
   15.17527771  144.47799683    0.30000001    2.64000010
   15.17861176  135.85400391    0.31999999    2.64000010
   15.18166733  150.01499939    0.30000001    2.64000010
   15.19916630  149.16499329    0.34000000    2.61999989
   15.20166683  153.75599670    0.34000000    2.64000010
   15.20472240  156.13699341    0.34000000    2.64000010
   15.20805550  159.16499329    0.34000000    2.61999989
   15.21138859  141.72799683    0.34000000    2.61999989
   15.21444416  148.41600037    0.34000000    2.64000010
   15.21777725  142.48500061    0.36000001    2.64000010
   15.22083282  151.54200745    0.38000000    2.64000010
   15.22416592  144.42500305    0.38000000    2.64000010
   15.22749996  143.47700500    0.38000000    2.64000010
   15.23055553  147.75300598    0.38000000    2.64000010
   15.23249912  152.07400513    0.38000000    2.64000010
   15.23416710  150.75900269    0.38000000    2.64000010
   15.23750019  142.72399902    0.38000000    2.61999989
   15.24083328  150.62100220    0.38000000    2.61999989
   15.24388885  140.10600281    0.38000000    2.64000010
   15.24722290  155.71699524    0.38000000    2.61999989
   15.25027752  146.96499634    0.38000000    2.61999989
   15.25361156  157.48399353    0.38000000    2.64000010
   15.25694466  146.76400757    0.40000001    2.64000010
   15.26000023  148.83399963    0.41999999    2.61999989
   15.26333332  151.70199585    0.41999999    2.61999989
   15.26583290  147.47099304    0.46000001    2.64000010
   15.26722240  146.71400452    0.46000001    2.64000010
   15.27027798  147.70899963    0.47999999    2.64000010
   15.27361107  149.59700012    0.47999999    2.64000010
   15.27694416  149.51100159    0.47999999    2.64000010
   15.27999973  151.21899414    0.47999999    2.61999989
   15.28333378  152.80099487    0.47999999    2.64000010
   15.28638935  146.33399963    0.47999999    2.64000010
   15.28972244  147.79400635    0.41999999    2.64000010
   15.29305553  142.57600403    0.41999999    2.61999989
   15.29611111  132.19299316    0.41999999    2.64000010
   15.29916668  137.59100342    0.40000001    2.64000010
   15.30000019  150.25999451    0.40000001    2.64000010
   15.30305576  148.19200134    0.40000001    2.64000010
   15.30638885  141.64599609    0.38000000    2.64000010
   15.30944443  137.82899475    0.38000000    2.64000010
   15.31277752  135.38400269    0.38000000    2.64000010
   15.31611156  143.97799683    0.38000000    2.61999989
   15.31916618  144.80000305    0.38000000    2.64000010
   15.32250023  139.14700317    0.38000000    2.64000010
   15.32583332  144.52799988    0.38000000    2.64000010
   15.32888889  139.46200562    0.40000001    2.64000010
   15.33222198  141.05599976    0.41999999    2.64000010
   15.33277798  143.97700500    0.41999999    2.64000010
   15.33583260  155.01400757    0.41999999    2.64000010
   15.33916664  143.33000183    0.41999999    2.61999989
   15.34249973  148.25300598    0.44000000    2.64000010
   15.34555531  152.07499695    0.44000000    2.64000010
   15.34888840  141.67799377    0.44000000    2.64000010
   15.35222244  145.23199463    0.44000000    2.64000010
   15.35555553  148.15400696    0.44000000    2.64000010
   15.35861111  146.06100464    0.44000000    2.61999989
   15.36194515  145.99099731    0.44000000    2.61999989
   15.36500072  149.33200073    0.44000000    2.61999989
   15.36611176  150.20199585    0.46000001    2.64000010
   15.36888885  143.49000549    0.46000001    2.64000010
   15.37222195  151.48300171    0.46000001    2.61999989
   15.37527752  149.85099792    0.46000001    2.64000010
   15.37861156  152.14700317    0.47999999    2.61999989
   15.38166714  147.11399841    0.46000001    2.64000010
   15.38500023  142.76600647    0.47999999    2.64000010
   15.38833332  138.69000244    0.47999999    2.64000010
   15.39138889  149.85800171    0.47999999    2.64000010
   15.39472198  144.16400146    0.47999999    2.64000010
   15.39805508  133.51499939    0.46000001    2.64000010
   15.39944458  138.41999817    0.46000001    2.64000010
   15.40138817  133.68099976    0.46000001    2.66000009
   15.40472221  129.16600037    0.46000001    2.66000009
   15.40805531  133.15299988    0.46000001    2.66000009
   15.41111088  139.24899292    0.46000001    2.66000009
   15.41444397  131.68099976    0.44000000    2.64000010
   15.41777802  133.89599609    0.44000000    2.64000010
   15.42083359  138.96800232    0.44000000    2.64000010
   15.42416668  145.36999512    0.41999999    2.64000010
   15.42750072  146.24699402    0.41999999    2.64000010
   15.43083382  148.30000305    0.41999999    2.64000010
   15.43277836  135.46299744    0.41999999    2.64000010
   15.43416691  135.58999634    0.41999999    2.64000010
   15.43750000  160.73199463    0.41999999    2.64000010
   15.44083309  159.07000732    0.41999999    2.64000010
   15.44388866  148.08000183    0.44000000    2.64000010
   15.44722271  140.33399963    0.44000000    2.64000010
   15.45055580  140.63200378    0.44000000    2.64000010
   15.45361137  138.47399902    0.44000000    2.64000010
   15.45694447  148.68699646    0.41999999    2.64000010
   15.46000004  135.21499634    0.41999999    2.64000010
   15.46333313  142.03599548    0.40000001    2.64000010
   15.46611118  137.71600342    0.40000001    2.64000010
   15.46722221  139.54299927    0.40000001    2.64000010
   15.47055531  139.05900574    0.40000001    2.64000010
   15.47361088  128.71299744    0.40000001    2.64000010
   15.47694397  125.43599701    0.40000001    2.64000010
   15.47999954  154.76300049    0.40000001    2.64000010
   15.48333359  137.84399414    0.38000000    2.66000009
   15.48666668  143.32400513    0.38000000    2.64000010
   15.48972225  134.60200500    0.38000000    2.64000010
   15.49305534  128.46200562    0.38000000    2.64000010
   15.49638939  137.28100586    0.38000000    2.64000010
   15.49944496  137.08200073    0.38000000    2.64000010
   15.49972248  138.56599426    0.38000000    2.64000010
   15.50305557  145.40899658    0.38000000    2.64000010
   15.50638866  141.38099670    0.36000001    2.64000010
   15.50972176  123.46900177    0.36000001    2.64000010
   15.51277733  130.99699402    0.36000001    2.64000010
   15.51611137  148.39100647    0.36000001    2.64000010
   15.51944447  157.50199890    0.38000000    2.64000010
   15.52277756  153.84399414    0.38000000    2.64000010
   15.52583313  138.29400635    0.38000000    2.64000010
   15.52916622  146.07699585    0.38000000    2.64000010
   15.53222179  148.74600220    0.38000000    2.64000010
   15.53277779  156.70899963    0.38000000    2.64000010
   15.53583336  140.25399780    0.38000000    2.64000010
   15.53916740  170.71699524    0.36000001    2.64000010
   15.54222298  148.42500305    0.36000001    2.64000010
   15.54555607  143.77299500    0.36000001    2.66000009
   15.54888916  147.50199890    0.36000001    2.66000009
   15.55194473  161.77699280    0.36000001    2.64000010
   15.55527782  159.93400574    0.36000001    2.64000010
   15.55861092  148.22599792    0.34000000    2.64000010
   15.56166649  176.11700439    0.34000000    2.64000010
   15.56500053  132.94299316    0.34000000    2.64000010
   15.56611156  131.03199768    0.34000000    2.66000009
   15.56861115  145.74299622    0.34000000    2.64000010
   15.57194424  132.10200500    0.34000000    2.66000009
   15.57499981  143.09100342    0.34000000    2.66000009
   15.57833290  154.44900513    0.34000000    2.64000010
   15.58166695  138.62600708    0.34000000    2.64000010
   15.58472157  145.33000183    0.34000000    2.64000010
   15.58805561  141.67900085    0.34000000    2.66000009
   15.59111118  140.35400391    0.34000000    2.66000009
   15.59444427  136.81900024    0.34000000    2.66000009
   15.59777737  145.95599365    0.34000000    2.66000009
   15.59944439  143.78199768    0.34000000    2.64000010
   15.60138893  142.51800537    0.34000000    2.66000009
   15.60472298  134.16600037    0.34000000    2.66000009
   15.60777855  146.71499634    0.31999999    2.66000009
   15.61111164  153.57899475    0.31999999    2.64000010
   15.61444473  137.71299744    0.31999999    2.64000010
   15.61750031  136.03700256    0.31999999    2.66000009
   15.62083340  137.66000366    0.31999999    2.66000009
   15.62416649  138.60299683    0.31999999    2.66000009
   15.62722206  145.94999695    0.31999999    2.66000009
   15.63055611  134.21200562    0.31999999    2.64000010
   15.63277817  145.30799866    0.31999999    2.64000010
   15.63416672  139.28700256    0.31999999    2.66000009
   15.63749981  139.39500427    0.31999999    2.66000009
   15.64055538  144.64300537    0.31999999    2.66000009
   15.64388847  139.64300537    0.31999999    2.66000009
   15.64722252  132.23699951    0.31999999    2.64000010
   15.65027714  134.20899963    0.34000000    2.66000009
   15.65361118  142.65199280    0.34000000    2.66000009
   15.65666676  144.92500305    0.34000000    2.66000009
   15.65999985  140.73599243    0.34000000    2.66000009
   15.66333294  143.56799316    0.34000000    2.64000010
   15.66611099  142.05099487    0.34000000    2.64000010
   15.66694450  148.85299683    0.34000000    2.64000010
   15.67027855  153.44200134    0.34000000    2.66000009
   15.67333412  146.33200073    0.31999999    2.64000010
   15.67666721  145.35899353    0.34000000    2.66000009
   15.68000031  140.06100464    0.34000000    2.66000009
   15.68305588  147.60299683    0.34000000    2.66000009
   15.68638897  138.97500610    0.34000000    2.66000009
   15.68972206  137.27299500    0.34000000    2.66000009
   15.69277763  144.57699585    0.34000000    2.66000009
   15.69611073  149.30700684    0.34000000    2.66000009
   15.69944477  147.31500244    0.34000000    2.66000009
   15.69999981  148.60499573    0.34000000    2.66000009
   15.70305538  141.41400146    0.36000001    2.66000009
   15.70638847  142.49000549    0.36000001    2.64000010
   15.70944405  143.22500610    0.36000001    2.64000010
   15.71277714  139.17300415    0.36000001    2.66000009
   15.71611118  153.02499390    0.36000001    2.66000009
   15.71916580  151.37699890    0.38000000    2.66000009
   15.72249985  147.07200623    0.38000000    2.67000008
   15.72583294  154.13000488    0.38000000    2.66000009
   15.72888851  166.31599426    0.38000000    2.66000009
   15.73222160  149.84199524    0.40000001    2.66000009
   15.73333359  147.36000061    0.40000001    2.66000009
   15.73583317  141.14300537    0.41999999    2.66000009
   15.73916721  148.05200195    0.44000000    2.64000010
   15.74222279  157.66499329    0.46000001    2.67000008
   15.74555588  139.40899658    0.46000001    2.64000010
   15.74888897  161.98199463    0.46000001    2.66000009
   15.75194454  148.91299438    0.46000001    2.66000009
   15.75527763  140.57600403    0.46000001    2.66000009
   15.75861073  146.16299438    0.46000001    2.66000009
   15.76166630  143.93600464    0.46000001    2.66000009
   15.76500034  153.03100586    0.46000001    2.64000010
   15.76666641  149.39199829    0.46000001    2.66000009
   15.76861095  146.10899353    0.46000001    2.66000009
   15.77194405  142.97700500    0.47999999    2.66000009
   15.77527714  136.64799500    0.47999999    2.66000009
   15.77833271  149.32099915    0.47999999    2.66000009
   15.78166676  145.83599854    0.47999999    2.67000008
   15.78472233  146.22900391    0.47999999    2.66000009
   15.78805637  146.88699341    0.47999999    2.66000009
   15.79138947  159.45899963    0.47999999    2.66000009
   15.79444504  153.10600281    0.47999999    2.66000009
   15.79777813  144.01300049    0.47999999    2.66000009
   15.80000019  150.96800232    0.47999999    2.64000010
   15.80138874  145.88600159    0.47999999    2.64000010
   15.80472279  158.20700073    0.47999999    2.66000009
   15.80777836  142.77600098    0.47999999    2.66000009
   15.81111145  148.97000122    0.50000000    2.66000009
   15.81444454  144.66299438    0.51999998    2.66000009
   15.81750011  167.01100159    0.51999998    2.66000009
   15.82083321  161.41299438    0.50000000    2.66000009
   15.82416630  155.54600525    0.50000000    2.64000010
   15.82722187  151.92300415    0.50000000    2.66000009
   15.83055592  185.25100708    0.47999999    2.66000009
   15.83333302  158.94500732    0.47999999    2.66000009
   15.83416653  159.49400330    0.47999999    2.66000009
   15.83749962  147.81300354    0.46000001    2.66000009
   15.84083271  175.06900024    0.46000001    2.66000009
   15.84388828  172.41400146    0.44000000    2.66000009
   15.84722233  173.04899597    0.44000000    2.66000009
   15.85027790  145.88699341    0.41999999    2.64000010
   15.85361195  174.74200439    0.41999999    2.64000010
   15.85694504  148.63999939    0.41999999    2.66000009
   15.86000061  145.33000183    0.41999999    2.66000009
   15.86333370  159.55999756    0.44000000    2.66000009
   15.86666679  156.13900757    0.44000000    2.66000009
   15.86694431  149.14799500    0.44000000    2.66000009
   15.87027836  137.94599915    0.46000001    2.66000009
   15.87361145  140.79899597    0.44000000    2.66000009
   15.87666702  134.75599670    0.44000000    2.66000009
   15.88000011  138.81300354    0.44000000    2.66000009
   15.88333321  140.22799683    0.44000000    2.64000010
   15.88638878  142.75599670    0.44000000    2.66000009
   15.88972187  135.75300598    0.44000000    2.66000009
   15.89277744  136.60699463    0.44000000    2.66000009
   15.89611053  134.26899719    0.46000001    2.66000009
   15.89944458  139.13200378    0.46000001    2.66000009
   15.89999962  135.36000061    0.46000001    2.66000009
   15.90277767  144.86599731    0.46000001    2.66000009
   15.90611076  145.72500610    0.47999999    2.66000009
   15.90944386  142.80099487    0.47999999    2.66000009
   15.91249943  154.68499756    0.47999999    2.66000009
   15.91583252  140.99600220    0.46000001    2.66000009
   15.91888905  152.69299316    0.46000001    2.66000009
   15.92222214  144.14900208    0.47999999    2.66000009
   15.92555618  149.37600708    0.47999999    2.66000009
   15.92861176  139.33399963    0.46000001    2.64000010
   15.93194485  145.26499939    0.47999999    2.66000009
   15.93333340  145.28599548    0.47999999    2.66000009
   15.93583298  147.09500122    0.47999999    2.66000009
   15.93888855  146.15199280    0.47999999    2.66000009
   15.94222260  150.42599487    0.47999999    2.66000009
   15.94527817  154.88499451    0.47999999    2.66000009
   15.94861126  149.76199341    0.47999999    2.66000009
   15.95194435  140.75100708    0.47999999    2.66000009
   15.95527744  142.45599365    0.47999999    2.66000009
   15.95833302  144.97000122    0.47999999    2.66000009
   15.96166611  150.60600281    0.47999999    2.66000009
   15.96500015  138.94500732    0.47999999    2.66000009
   15.96666622  152.75900269    0.47999999    2.64000010
   15.96833324  151.73899841    0.47999999    2.64000010
   15.97166634  143.77999878    0.44000000    2.66000009
   15.97499943  146.04600525    0.44000000    2.66000009
   15.97805500  138.82400513    0.44000000    2.66000009
   15.98138809  140.69299316    0.41999999    2.66000009
   15.98472214  143.33200073    0.41999999    2.66000009
   15.98777771  140.60299683    0.40000001    2.66000009
   15.99111176  150.13400269    0.40000001    2.67000008
   15.99416733  148.23100281    0.40000001    2.66000009
   15.99750042  140.75100708    0.40000001    2.66000009
   16.00000000  138.97000122    0.38000000    2.66000009
   16.00111198  136.55099487    0.38000000    2.66000009
   16.00444412  140.25900269    0.38000000    2.66000009
   16.00777817  137.66000366    0.38000000    2.66000009
   16.01083374  147.02900696    0.36000001    2.66000009
   16.01416588  141.84100342    0.38000000    2.66000009
   16.01722145  143.97200012    0.38000000    2.66000009
   16.02055550  151.72900391    0.38000000    2.66000009
   16.02388954  156.90800476    0.38000000    2.66000009
   16.02722168  153.29100037    0.41999999    2.66000009
   16.03027725  147.23699951    0.40000001    2.66000009
   16.03333282  159.96000671    0.44000000    2.66000009
   16.03416634  158.37699890    0.44000000    2.66000009
   16.03750038  153.86999512    0.44000000    2.66000009
   16.04055595  149.49400330    0.44000000    2.66000009
   16.04388809  141.51199341    0.38000000    2.66000009
   16.04722214  152.72399902    0.38000000    2.66000009
   16.05027771  151.69700623    0.36000001    2.66000009
   16.05360985  147.03100586    0.36000001    2.66000009
   16.05694389  143.89300537    0.36000001    2.66000009
   16.05999947  148.24099731    0.36000001    2.66000009
   16.06333351  141.85099792    0.34000000    2.66000009
   16.06666756  139.08599854    0.36000001    2.64000010
   16.06694603  138.60299683    0.36000001    2.66000009
   16.07027817  142.36000061    0.36000001    2.66000009
   16.07361221  139.00199890    0.38000000    2.66000009
   16.07666779  143.30400085    0.38000000    2.66000009
   16.08000183  135.72399902    0.38000000    2.66000009
   16.08333397  147.13699341    0.38000000    2.66000009
   16.08638954  143.95700073    0.38000000    2.66000009
   16.08972359  145.25300598    0.38000000    2.67000008
   16.09305573  135.15699768    0.36000001    2.66000009
   16.09611130  148.96600342    0.36000001    2.66000009
   16.09944534  140.83799744    0.34000000    2.66000009
   16.10000038  141.53500366    0.34000000    2.66000009
   16.10277748  149.33799744    0.34000000    2.67000008
   16.10611153  136.48699951    0.34000000    2.67000008
   16.10944557  150.20700073    0.34000000    2.66000009
   16.11250114  149.93600464    0.34000000    2.66000009
   16.11583328  155.32000732    0.34000000    2.66000009
   16.11916733  151.50300598    0.36000001    2.66000009
   16.12222290  150.42300415    0.34000000    2.66000009
   16.12555504  157.93200684    0.36000001    2.66000009
   16.12861061  153.72900391    0.36000001    2.66000009
   16.13194466  144.96899414    0.34000000    2.66000009
   16.13333321  141.74299622    0.34000000    2.66000009
   16.13583374  156.75999451    0.34000000    2.66000009
   16.13888931  147.00799561    0.31999999    2.66000009
   16.14222145  145.04800415    0.31999999    2.66000009
   16.14527702  140.77600098    0.31999999    2.66000009
   16.14861107  140.27099609    0.31999999    2.66000009
   16.15194321  143.06700134    0.31999999    2.67000008
   16.15499878  142.66200256    0.31999999    2.66000009
   16.15833282  143.19500732    0.31999999    2.66000009
   16.16166687  142.80799866    0.31999999    2.66000009
   16.16472244  140.69900513    0.31999999    2.66000009
   16.16666603  138.85099792    0.31999999    2.66000009
   16.16860962  140.37100220    0.31999999    2.66000009
   16.17166519  136.55499268    0.34000000    2.66000009
   16.17499924  141.61799622    0.34000000    2.67000008
   16.17833328  146.75500488    0.31999999    2.66000009
   16.18166542  139.50100708    0.31999999    2.66000009
   16.18472099  144.57200623    0.31999999    2.66000009
   16.18805504  145.14500427    0.31999999    2.66000009
   16.19138718  141.39799500    0.31999999    2.66000009
   16.19444275  138.57800293    0.31999999    2.66000009
   16.19777679  138.79800415    0.31999999    2.66000009
   16.21583366  142.40400696    0.36000001    2.66000009
   16.21750069  138.12100220    0.36000001    2.66000009
   16.22083473  139.60499573    0.34000000    2.66000009
   16.22416687  143.94700623    0.36000001    2.66000009
   16.22722244  140.87300110    0.34000000    2.66000009
   16.23055649  146.78700256    0.34000000    2.66000009
   16.23388863  145.39199829    0.34000000    2.66000009
   16.23694420  142.85099792    0.34000000    2.66000009
   16.24027824  148.94299316    0.31999999    2.66000009
   16.24333382  143.65699768    0.31999999    2.66000009
   16.24666786  143.74699402    0.34000000    2.66000009
   16.24888992  146.23599243    0.34000000    2.66000009
   16.25027847  145.21200562    0.34000000    2.66000009
   16.25361061  140.74499512    0.31999999    2.66000009
   16.25666618  145.37199402    0.31999999    2.66000009
   16.26000023  146.43200684    0.31999999    2.66000009
   16.26333427  143.35699463    0.31999999    2.66000009
   16.26638794  145.10299683    0.31999999    2.66000009
   16.26972198  143.81199646    0.31999999    2.66000009
   16.27277756  143.69000244    0.34000000    2.66000009
   16.27611160  144.54299927    0.34000000    2.66000009
   16.27944374  145.41299438    0.34000000    2.66000009
   16.28249931  144.22300720    0.34000000    2.66000009
   16.28305435  147.37800598    0.34000000    2.66000009
   16.28638840  145.07299805    0.34000000    2.66000009
   16.28944397  140.86500549    0.31999999    2.66000009
   16.29277802  139.61500549    0.30000001    2.66000009
   16.29611015  142.96800232    0.30000001    2.66000009
   16.29916573  143.06100464    0.30000001    2.66000009
   16.30249977  137.91600037    0.30000001    2.66000009
   16.30583191  147.52999878    0.31999999    2.66000009
   16.30888748  145.27400208    0.31999999    2.66000009
   16.31222153  143.39199829    0.31999999    2.66000009
   16.31527710  145.33099365    0.31999999    2.66000009
   16.31583214  141.18600464    0.31999999    2.66000009
   16.31916809  143.26699829    0.30000001    2.67000008
   16.32250023  137.33299255    0.30000001    2.66000009
   16.32555580  144.21899414    0.30000001    2.66000009
   16.32888985  141.63099670    0.30000001    2.66000009
   16.33222389  144.55599976    0.30000001    2.66000009
   16.33527756  141.77000427    0.28000000    2.66000009
   16.33861160  142.86199951    0.30000001    2.66000009
   16.34166718  142.38400269    0.30000001    2.66000009
   16.34500122  141.62899780    0.31999999    2.66000009
   16.34833336  139.58799744    0.30000001    2.66000009
   16.34916687  141.76899719    0.30000001    2.66000009
   16.35194397  142.47399902    0.36000001    2.67000008
   16.35527802  140.09599304    0.36000001    2.67000008
   16.35833359  138.51600647    0.31999999    2.66000009
   16.36166763  144.95199585    0.30000001    2.66000009
   16.36499977  140.66000366    0.28000000    2.66000009
   16.36805534  143.78799438    0.25999999    2.66000009
   16.37138939  144.46299744    0.28000000    2.66000009
   16.37472153  149.55400085    0.31999999    2.66000009
   16.37777710  143.87800598    0.31999999    2.66000009
   16.38111115  147.37500000    0.28000000    2.66000009
   16.38249969  143.67199707    0.25000000    2.66000009
   16.38472176  139.15299988    0.25000000    2.66000009
   16.38805580  138.79800415    0.30000001    2.66000009
   16.39111137  145.63900757    0.30000001    2.66000009
   16.39444351  143.30599976    0.28000000    2.66000009
   16.39777756  142.48300171    0.28000000    2.66000009
   16.40083313  143.32099915    0.28000000    2.66000009
   16.40416718  142.10000610    0.28000000    2.66000009
   16.40722275  143.72900391    0.30000001    2.67000008
   16.41055489  141.49099731    0.28000000    2.66000009
   16.41416550  145.96600342    0.25000000    2.66000009
   16.41583252  145.26600647    0.25000000    2.66000009
   16.41777802  141.71899414    0.25000000    2.67000008
   16.42111015  144.25900269    0.25000000    2.67000008
   16.42416573  144.46200562    0.28000000    2.66000009
   16.42749977  143.18499756    0.30000001    2.66000009
   16.43083191  142.10299683    0.30000001    2.66000009
   16.43388748  136.06599426    0.25999999    2.66000009
   16.43722153  143.57299805    0.25000000    2.67000008
   16.44083214  150.55599976    0.23000000    2.66000009
   16.44416618  139.91000366    0.25000000    2.66000009
   16.44749832  143.59800720    0.23000000    2.66000009
   16.44916534  142.89500427    0.23000000    2.66000009
   16.45111275  147.24800110    0.23000000    2.66000009
   16.45444489  146.43299866    0.25000000    2.66000009
   16.45750046  145.97700500    0.25999999    2.66000009
   16.46083450  143.94599915    0.25000000    2.67000008
   16.46416664  152.13699341    0.23000000    2.66000009
   16.46722221  140.36799622    0.23000000    2.67000008
   16.47055626  142.63200378    0.23000000    2.66000009
   16.47389030  146.35299683    0.23000000    2.66000009
   16.47722244  144.90899658    0.23000000    2.66000009
   16.48055649  151.01899719    0.25000000    2.67000008
   16.48250008  147.64700317    0.25000000    2.67000008
   16.48416710  141.10000610    0.25000000    2.67000008
   16.48750114  146.93899536    0.25000000    2.67000008
   16.49055672  137.80799866    0.25000000    2.66000009
   16.49388885  145.37399292    0.25999999    2.66000009
   16.49722290  139.91999817    0.34000000    2.67000008
   16.50027847  143.47599792    0.34000000    2.66000009
   16.50361061  144.04100037    0.34000000    2.67000008
   16.50694466  143.59599304    0.34000000    2.67000008
   16.51000023  152.78900146    0.34000000    2.66000009
   16.51333427  148.54200745    0.30000001    2.66000009
   16.51583290  143.99899292    0.25000000    2.66000009
   16.51694489  146.56700134    0.23000000    2.67000008
   16.52027702  152.09300232    0.23000000    2.66000009
   16.52333260  145.99600220    0.23000000    2.66000009
   16.52666664  159.02900696    0.23000000    2.67000008
   16.53000069  154.19299316    0.23000000    2.67000008
   16.53305435  154.38800049    0.25000000    2.66000009
   16.53638840  150.42100525    0.25000000    2.67000008
   16.53972244  143.66000366    0.25000000    2.67000008
   16.54277802  147.16900635    0.28000000    2.66000009
   16.54611015  139.03100586    0.31999999    2.67000008
   16.54944420  144.29400635    0.34000000    2.66000009
   16.54999924  153.49099731    0.34000000    2.66000009
   16.55305481  140.74800110    0.30000001    2.66000009
   16.55638885  150.18499756    0.30000001    2.67000008
   16.55972099  149.24800110    0.30000001    2.67000008
   16.56277657  156.74400330    0.31999999    2.66000009
   16.56611061  144.71600342    0.34000000    2.66000009
   16.56944466  159.74899292    0.34000000    2.67000008
   16.57250023  146.52000427    0.31999999    2.66000009
   16.57583427  144.69700623    0.30000001    2.66000009
   16.57888985  149.41999817    0.28000000    2.66000009
   16.58222389  141.39199829    0.28000000    2.66000009
   16.58277893  144.21400452    0.28000000    2.66000009
   16.58583450  141.63400269    0.25000000    2.67000008
   16.58889008  139.25799561    0.25000000    2.67000008
   16.59222221  136.01600647    0.25999999    2.66000009
   16.59555626  137.33399963    0.25999999    2.66000009
   16.59861183  137.66799927    0.25999999    2.66000009
   16.60194397  141.26400757    0.28000000    2.67000008
   16.60499954  147.14599609    0.28000000    2.66000009
   16.60833359  147.56900024    0.28000000    2.67000008
   16.61166763  149.92399597    0.30000001    2.67000008
   16.61472321  142.58999634    0.31999999    2.66000009
   16.61611176  138.06799316    0.31999999    2.66000009
   16.61861038  143.35200500    0.31999999    2.67000008
   16.62166595  137.85099792    0.31999999    2.67000008
   16.62500000  151.36500549    0.31999999    2.67000008
   16.62833405  139.14799500    0.30000001    2.66000009
   16.63138962  146.46099854    0.30000001    2.66000009
   16.63472176  147.00900269    0.30000001    2.67000008
   16.63777733  137.67599487    0.30000001    2.67000008
   16.64111137  147.97399902    0.30000001    2.67000008
   16.64444351  140.27999878    0.31999999    2.67000008
   16.64749908  142.56599426    0.30000001    2.67000008
   16.65027809  144.96400452    0.34000000    2.67000008
   16.65222168  140.75399780    0.34000000    2.67000008
   16.65527725  138.56100464    0.31999999    2.67000008
   16.65861130  135.17599487    0.34000000    2.66000009
   16.66194344  146.46000671    0.30000001    2.67000008
   16.66499901  133.84500122    0.30000001    2.67000008
   16.66833305  135.80999756    0.30000001    2.67000008
   16.67138863  136.89700317    0.31999999    2.66000009
   16.67472076  138.66099548    0.30000001    2.67000008
   16.67805481  137.79100037    0.25999999    2.66000009
   16.68111038  138.36999512    0.25999999    2.67000008
   16.68277740  131.96699524    0.25999999    2.67000008
   16.68499947  134.28599548    0.25999999    2.66000009
   16.68805504  147.03100586    0.25999999    2.66000009
   16.69138718  145.33000183    0.25999999    2.66000009
   16.69472122  139.98399353    0.25000000    2.67000008
   16.69777679  137.24499512    0.25999999    2.67000008
   16.70111275  141.23199463    0.25999999    2.66000009
   16.70444489  135.95199585    0.25999999    2.66000009
   16.70750046  136.11300659    0.25999999    2.67000008
   16.71083450  138.05999756    0.25999999    2.67000008
   16.71416664  140.25599670    0.25999999    2.66000009
   16.71611214  137.34399414    0.25000000    2.67000008
   16.71777916  135.21200562    0.25000000    2.67000008
   16.72083473  140.38900757    0.25000000    2.67000008
   16.72416687  137.07299805    0.25000000    2.67000008
   16.72750092  132.71200562    0.23000000    2.67000008
   16.73055649  141.33000183    0.23000000    2.67000008
   16.73388863  138.60899353    0.20999999    2.67000008
   16.73694420  139.21899414    0.20999999    2.67000008
   16.74027824  139.49099731    0.25000000    2.66000009
   16.74361229  139.71899414    0.28000000    2.67000008
   16.74666786  138.37100220    0.36000001    2.67000008
   16.74972153  132.94299316    0.40000001    2.66000009
   16.75055504  138.33900452    0.40000001    2.66000009
   16.75388908  134.47799683    0.40000001    2.67000008
   16.75722313  139.81900024    0.38000000    2.66000009
   16.76027870  145.14100647    0.38000000    2.67000008
   16.76361084  132.01699829    0.38000000    2.67000008
   16.76694489  141.75399780    0.38000000    2.66000009
   16.77000046  142.24699402    0.34000000    2.67000008
   16.77333260  142.16799927    0.34000000    2.67000008
   16.77638817  137.70899963    0.34000000    2.67000008
   16.77972221  144.67300415    0.30000001    2.66000009
   16.78277779  152.83299255    0.25999999    2.66000009
   16.78333282  138.46000671    0.25999999    2.66000009
   16.78666687  150.72200012    0.25000000    2.67000008
   16.78972244  157.43400574    0.25000000    2.67000008
   16.79305458  146.14599609    0.25000000    2.66000009
   16.79611015  150.87600708    0.20999999    2.66000009
   16.79944420  153.26300049    0.20999999    2.66000009
   16.80277634  148.27900696    0.23000000    2.67000008
   16.80583191  140.20799255    0.23000000    2.67000008
   16.80916595  161.27099609    0.23000000    2.67000008
   16.81250000  158.27099609    0.25000000    2.67000008
   16.81555557  151.99099731    0.25000000    2.66000009
   16.81611061  147.70599365    0.25000000    2.66000009
   16.81916809  162.41700745    0.25000000    2.67000008
   16.82250023  153.06300354    0.25000000    2.67000008
   16.82555580  157.20199585    0.20999999    2.67000008
   16.82888985  153.47900391    0.20999999    2.67000008
   16.83194542  168.07899475    0.20999999    2.66000009
   16.83527756  163.52999878    0.20999999    2.66000009
   16.83861160  156.92100525    0.20999999    2.67000008
   16.84166718  166.70300293    0.20999999    2.67000008
   16.84527779  181.64399719    0.20999999    2.67000008
   16.84861183  167.29299927    0.20999999    2.67000008
   16.84944534  166.89700317    0.20999999    2.67000008
   16.85222244  178.02999878    0.23000000    2.67000008
   16.85555649  172.35000610    0.23000000    2.66000009
   16.85861206  177.94299316    0.23000000    2.67000008
   16.86194420  171.36799622    0.23000000    2.67000008
   16.86499977  184.40800476    0.25000000    2.67000008
   16.86833382  157.45599365    0.25000000    2.67000008
   16.87166595  155.83900452    0.23000000    2.66000009
   16.87472153  140.76600647    0.23000000    2.66000009
   16.87805557  150.03599548    0.23000000    2.66000009
   16.88138962  151.23800659    0.23000000    2.67000008
   16.88277817  154.03199768    0.23000000    2.67000008
   16.88500023  154.54299927    0.20999999    2.66000009
   16.88833237  156.33399963    0.20999999    2.67000008
   16.89138794  150.57499695    0.20999999    2.67000008
   16.89472198  157.41999817    0.19000000    2.67000008
   16.89777756  150.52499390    0.19000000    2.67000008
   16.90111160  151.68299866    0.19000000    2.67000008
   16.90444374  143.60099792    0.20999999    2.67000008
   16.90749931  160.04200745    0.20999999    2.67000008
   16.91083336  145.88600159    0.19000000    2.67000008
   16.91416550  148.34300232    0.19000000    2.67000008
   16.91611099  144.50900269    0.19000000    2.67000008
   16.91777802  144.38000488    0.19000000    2.67000008
   16.92111015  146.47700500    0.20999999    2.67000008
   16.92416573  149.49899292    0.20999999    2.67000008
   16.92749977  150.64999390    0.20999999    2.67000008
   16.93055534  136.60600281    0.20999999    2.66000009
   16.93388748  149.96899414    0.20999999    2.66000009
   16.93722153  132.22000122    0.20999999    2.67000008
   16.94027710  142.14399719    0.20999999    2.66000009
   16.94361115  133.58900452    0.20999999    2.66000009
   16.94694328  142.24200439    0.20999999    2.67000008
   16.94944382  136.75599670    0.20999999    2.66000009
   16.95055580  135.36599731    0.20999999    2.66000009
   16.95388985  142.54100037    0.20999999    2.67000008
   16.95694542  139.88400269    0.20999999    2.67000008
   16.96027946  136.34599304    0.20999999    2.67000008
   16.96333504  149.17599487    0.23000000    2.66000009
   16.96666718  145.47999573    0.23000000    2.66000009
   16.97000122  134.21099854    0.19000000    2.67000008
   16.97305679  143.40400696    0.20999999    2.67000008
   16.97638893  147.91700745    0.23000000    2.67000008
   16.97972298  143.90199280    0.23000000    2.67000008
   16.98277855  150.05900574    0.25000000    2.67000008
   16.98333359  139.31799316    0.25000000    2.67000008
   16.98666763  134.45700073    0.25000000    2.67000008
   16.98972321  134.02699280    0.25000000    2.67000008
   16.99305534  145.49299622    0.25000000    2.67000008
   16.99638939  144.52900696    0.25000000    2.67000008
   16.99944496  150.38900757    0.25000000    2.67000008
   17.00277710  154.16200256    0.25000000    2.67000008
   17.00583267  144.56799316    0.23000000    2.67000008
   17.00916672  140.71099854    0.23000000    2.66000009
   17.01250076  145.57099915    0.19000000    2.67000008
   17.01555634  139.02799988    0.19000000    2.66000009
   17.01611137  152.17799377    0.19000000    2.66000009
   17.01916695  152.19400024    0.19000000    2.67000008
   17.02249908  150.13000488    0.19000000    2.67000008
   17.02555466  153.53700256    0.19000000    2.67000008
   17.02888870  149.16299438    0.19000000    2.66000009
   17.03194427  135.01600647    0.19000000    2.67000008
   17.03527641  141.27499390    0.19000000    2.67000008
   17.03861046  152.56900024    0.19000000    2.67000008
   17.04166603  148.23100281    0.19000000    2.67000008
   17.04500008  140.36399841    0.19000000    2.67000008
   17.04833221  148.41700745    0.19000000    2.67000008
   17.04944420  146.96000671    0.19000000    2.67000008
   17.05194283  151.56599426    0.19000000    2.67000008
   17.05527687  145.16799927    0.19000000    2.67000008
   17.05833244  139.08900452    0.19000000    2.66000009
   17.06166649  140.52499390    0.19000000    2.66000009
   17.06499863  143.66499329    0.19000000    2.67000008
   17.06805611  143.65299988    0.19000000    2.66000009
   17.07139015  143.59599304    0.19000000    2.66000009
   17.07444572  146.98500061    0.19000000    2.67000008
   17.07777786  141.63499451    0.19000000    2.67000008
   17.08111191  145.02799988    0.19000000    2.66000009
   17.08277893  145.81700134    0.19000000    2.66000009
   17.08472252  143.46099854    0.19000000    2.66000009
   17.08805656  139.21899414    0.19000000    2.66000009
   17.09111214  147.24699402    0.19000000    2.67000008
   17.09444427  149.53799438    0.19000000    2.66000009
   17.09777832  137.67700195    0.19000000    2.66000009
   17.10083389  136.44999695    0.19000000    2.66000009
   17.10416794  138.60499573    0.19000000    2.66000009
   17.10722351  149.44599915    0.19000000    2.67000008
   17.11055565  147.40800476    0.20999999    2.67000008
   17.11388969  146.22300720    0.19000000    2.67000008
   17.11611176  141.65299988    0.19000000    2.67000008
   17.11750031  143.62300110    0.19000000    2.67000008
   17.12083435  143.27999878    0.19000000    2.67000008
   17.12388992  138.07899475    0.19000000    2.67000008
   17.12722206  144.36399841    0.19000000    2.67000008
   17.13055611  138.92900085    0.19000000    2.67000008
   17.13361168  144.99699402    0.19000000    2.67000008
   17.13694382  141.25900269    0.19000000    2.67000008
   17.13999939  158.48699951    0.19000000    2.67000008
   17.14333344  155.14199829    0.19000000    2.66000009
   17.14666748  141.37899780    0.19000000    2.67000008
   17.14944458  151.42700195    0.19000000    2.67000008
   17.15027809  157.99400330    0.19000000    2.67000008
   17.15361023  153.51699829    0.19000000    2.67000008
   17.15666580  149.84899902    0.20999999    2.67000008
   17.15999985  159.91799927    0.20999999    2.67000008
   17.16333389  152.49200439    0.20999999    2.66000009
   17.16666603  152.75900269    0.20999999    2.67000008
   17.16972160  143.22200012    0.20999999    2.67000008
   17.17305565  147.50900269    0.20999999    2.67000008
   17.17638779  146.01300049    0.25000000    2.66000009
   17.17944336  166.52099609    0.25000000    2.66000009
   17.18277740  156.19299316    0.25000000    2.66000009
   17.18333244  151.69200134    0.25000000    2.66000009
   17.18666649  161.73500061    0.25000000    2.66000009
   17.18999863  151.79899597    0.25000000    2.67000008
   17.19305420  154.01499939    0.25000000    2.66000009
   17.19638824  169.39799500    0.23000000    2.66000009
   17.19972038  160.05200195    0.23000000    2.66000009
   17.20277786  176.17500305    0.23000000    2.67000008
   17.20611191  177.95300293    0.20999999    2.66000009
   17.20944595  180.84500122    0.20999999    2.66000009
   17.21250153  179.06799316    0.19000000    2.66000009
   17.21583366  175.05200195    0.19000000    2.66000009
   17.23277855  168.37899780    0.20999999    2.66000009
   17.23583412  161.86099243    0.20999999    2.67000008
   17.23888969  163.96200562    0.20999999    2.67000008
   17.24222183  161.42300415    0.20999999    2.66000009
   17.24555588  163.51800537    0.20999999    2.67000008
   17.24861145  163.10499573    0.20999999    2.67000008
   17.25194359  173.41299438    0.19000000    2.66000009
   17.25527763  170.71400452    0.19000000    2.66000009
   17.25833321  174.60200500    0.20999999    2.66000009
   17.26166725  173.27099609    0.20999999    2.67000008
   17.26472282  188.64500427    0.20999999    2.67000008
   17.26611137  165.16000366    0.20999999    2.67000008
   17.26833344  170.88299561    0.19000000    2.67000008
   17.27166557  177.05900574    0.20999999    2.67000008
   17.27499962  159.93099976    0.20999999    2.67000008
   17.27805519  168.20799255    0.20999999    2.67000008
   17.28138924  165.95100403    0.20999999    2.67000008
   17.28472137  158.73899841    0.20999999    2.67000008
   17.28777695  149.43800354    0.20999999    2.66000009
   17.29111099  166.93600464    0.20999999    2.67000008
   17.29416656  165.82600403    0.20999999    2.66000009
   17.29749870  157.10699463    0.20999999    2.66000009
   17.29944420  161.68899536    0.20999999    2.66000009
   17.30138779  168.53300476    0.20999999    2.66000009
   17.30444336  169.91600037    0.20999999    2.67000008
   17.30777740  164.02299500    0.20999999    2.67000008
   17.31110954  176.34100342    0.20999999    2.66000009
   17.31416512  171.92500305    0.20999999    2.66000009
   17.31750107  170.88099670    0.20999999    2.66000009
   17.32055664  160.84800720    0.20999999    2.66000009
   17.32389069  155.29400635    0.20999999    2.66000009
   17.32722282  158.22399902    0.20999999    2.67000008
   17.33027840  164.86799622    0.20999999    2.66000009
   17.33277893  155.57699585    0.19000000    2.66000009
   17.33416748  159.48300171    0.19000000    2.66000009
   17.33722305  154.52699280    0.20999999    2.66000009
   17.34055710  155.75300598    0.20999999    2.66000009
   17.34388924  162.36000061    0.20999999    2.66000009
   17.34694481  160.05599976    0.20999999    2.66000009
   17.35027885  155.58099365    0.20999999    2.66000009
   17.35333443  157.11700439    0.20999999    2.66000009
   17.35666656  155.94599915    0.20999999    2.66000009
   17.36000061  159.91400146    0.20999999    2.67000008
   17.36305618  160.78300476    0.20999999    2.66000009
   17.36611176  155.16000366    0.20999999    2.66000009
   17.36694527  160.66700745    0.20999999    2.66000009
   17.37000084  163.56900024    0.20999999    2.66000009
   17.37333298  158.54100037    0.20999999    2.66000009
   17.37666702  166.91799927    0.20999999    2.66000009
   17.37972260  167.76699829    0.20999999    2.67000008
   17.38305473  160.28900146    0.20999999    2.66000009
   17.38638878  170.03199768    0.20999999    2.66000009
   17.38944435  153.31399536    0.20999999    2.66000009
   17.39277840  169.13800049    0.20999999    2.67000008
   17.39583397  161.97399902    0.19000000    2.66000009
   17.39944458  158.88000488    0.20999999    2.66000009
   17.39999962  167.05700684    0.20999999    2.66000009
   17.40305519  171.87100220    0.19000000    2.66000009
   17.40638924  164.23899841    0.19000000    2.67000008
   17.40972137  160.20599365    0.19000000    2.66000009
   17.41277695  161.79499817    0.20999999    2.66000009
   17.41611099  155.37899780    0.20999999    2.66000009
   17.41916656  169.60299683    0.20999999    2.66000009
   17.42249870  162.57200623    0.19000000    2.67000008
   17.42583275  165.62699890    0.19000000    2.67000008
   17.42888832  158.39300537    0.19000000    2.66000009
   17.43222237  160.09500122    0.19000000    2.66000009
   17.43333244  164.81199646    0.19000000    2.66000009
   17.43583298  162.00399780    0.19000000    2.67000008
   17.43916512  165.15600586    0.19000000    2.66000009
   17.44249916  159.63699341    0.19000000    2.67000008
   17.44555473  161.55299377    0.19000000    2.67000008
   17.44888878  160.12800598    0.19000000    2.66000009
   17.45194435  150.64500427    0.19000000    2.66000009
   17.45527840  157.47399902    0.19000000    2.66000009
   17.45861244  156.89900208    0.19000000    2.66000009
   17.46166801  149.34300232    0.19000000    2.66000009
   17.46500015  159.44000244    0.19000000    2.66000009
   17.46666718  150.46600342    0.19000000    2.66000009
   17.46861076  164.30900574    0.19000000    2.66000009
   17.47194481  164.35600281    0.19000000    2.66000009
   17.47527885  153.23199463    0.19000000    2.66000009
   17.47833443  149.93499756    0.19000000    2.67000008
   17.48166656  155.70899963    0.19000000    2.67000008
   17.48500061  152.28300476    0.19000000    2.66000009
   17.48805618  159.22099304    0.19000000    2.66000009
   17.49138832  158.55499268    0.19000000    2.67000008
   17.49444389  164.90600586    0.19000000    2.67000008
   17.49777794  161.33700562    0.19000000    2.67000008
   17.50000000  157.60099792    0.19000000    2.66000009
   17.50138855  159.72000122    0.19000000    2.66000009
   17.50472260  161.36199951    0.19000000    2.66000009
   17.50805473  159.16900635    0.19000000    2.67000008
   17.51111031  156.00100708    0.19000000    2.66000009
   17.51444435  161.90100098    0.19000000    2.66000009
   17.51777840  153.96099854    0.19000000    2.67000008
   17.52083397  155.91600037    0.19000000    2.67000008
   17.52416611  148.22599792    0.19000000    2.67000008
   17.52722168  154.48599243    0.19000000    2.66000009
   17.53055573  149.10200500    0.19000000    2.67000008
   17.53333282  155.08799744    0.19000000    2.67000008
   17.53416634  152.00300598    0.19000000    2.67000008
   17.53750038  157.22999573    0.19000000    2.67000008
   17.54055595  146.61000061    0.19000000    2.67000008
   17.54388809  159.17100525    0.19000000    2.67000008
   17.54722214  156.36199951    0.19000000    2.66000009
   17.55027771  165.66299438    0.19000000    2.66000009
   17.55360985  153.05000305    0.19000000    2.66000009
   17.55694389  152.19900513    0.19000000    2.66000009
   17.55999947  166.94700623    0.19000000    2.66000009
   17.56333351  147.88200378    0.19000000    2.66000009
   17.56666756  153.87300110    0.19000000    2.66000009
   17.56694603  146.33999634    0.19000000    2.66000009
   17.57027817  153.87600708    0.19000000    2.66000009
   17.57361221  155.75599670    0.19000000    2.67000008
   17.57666779  155.28399658    0.19000000    2.67000008
   17.58000183  152.00599670    0.19000000    2.67000008
   17.58305550  147.08999634    0.19000000    2.66000009
   17.58638954  149.83599854    0.19000000    2.66000009
   17.58972359  155.57200623    0.19000000    2.67000008
   17.59277916  162.39799500    0.19000000    2.66000009
   17.59611130  149.95399475    0.19000000    2.67000008
   17.59916687  150.05599976    0.19000000    2.67000008
   17.60000038  145.23199463    0.19000000    2.67000008
   17.60277748  150.45500183    0.19000000    2.66000009
   17.60611153  155.47099304    0.19000000    2.66000009
   17.60944557  157.15199280    0.19000000    2.66000009
   17.61250114  153.90499878    0.19000000    2.66000009
   17.61583328  153.77699280    0.19000000    2.66000009
   17.61888885  148.99099731    0.25000000    2.66000009
   17.62222290  153.65699768    0.25000000    2.66000009
   17.62555504  153.36000061    0.20999999    2.66000009
   17.62861061  151.47300720    0.23000000    2.66000009
   17.63194466  148.23399353    0.23000000    2.66000009
   17.63333321  162.40499878    0.19000000    2.66000009
   17.63583374  164.49499512    0.19000000    2.66000009
   17.63888931  164.40400696    0.19000000    2.67000008
   17.64222145  161.27799988    0.19000000    2.66000009
   17.64527702  160.29400635    0.20999999    2.66000009
   17.64861107  187.56799316    0.20999999    2.66000009
   17.65194321  193.13400269    0.19000000    2.66000009
   17.65499878  202.69500732    0.20999999    2.66000009
   17.65833282  181.30900574    0.20999999    2.66000009
   17.66138840  192.46000671    0.20999999    2.67000008
   17.66472244  178.11000061    0.20999999    2.67000008
   17.66666603  187.75999451    0.20999999    2.66000009
   17.66833305  188.44799805    0.20999999    2.66000009
   17.67166519  185.20599365    0.20999999    2.66000009
   17.67499924  195.21000671    0.20999999    2.66000009
   17.67805481  189.95899963    0.20999999    2.66000009
   17.68138885  180.23500061    0.20999999    2.66000009
   17.68444443  168.23899841    0.20999999    2.66000009
   17.68777657  174.71499634    0.20999999    2.66000009
   17.69111061  180.96699524    0.20999999    2.66000009
   17.69416618  178.87899780    0.20999999    2.66000009
   17.69749832  172.80299377    0.19000000    2.67000008
   17.70000076  179.12100220    0.19000000    2.66000009
   17.70111275  182.97099304    0.19000000    2.66000009
   17.70444489  181.08599854    0.19000000    2.66000009
   17.70777893  180.48399353    0.19000000    2.66000009
   17.71083450  173.69700623    0.19000000    2.66000009
   17.71416664  164.70300293    0.19000000    2.66000009
   17.71750069  165.31799316    0.19000000    2.66000009
   17.72055626  167.85600281    0.20999999    2.66000009
   17.72389030  167.37899780    0.20999999    2.66000009
   17.72722244  162.58999634    0.20999999    2.66000009
   17.73027802  161.34100342    0.20999999    2.67000008
   17.73333359  167.53799438    0.20999999    2.66000009
   17.73388863  170.68699646    0.20999999    2.66000009
   17.73722267  158.25399780    0.25000000    2.66000009
   17.74055672  165.62500000    0.25000000    2.66000009
   17.74361229  171.51400757    0.25000000    2.66000009
   17.74694443  168.75500488    0.23000000    2.66000009
   17.75027847  182.81900024    0.23000000    2.66000009
   17.75333405  188.97900391    0.23000000    2.66000009
   17.75666618  193.61099243    0.23000000    2.66000009
   17.75972176  194.15199280    0.23000000    2.66000009
   17.76305580  193.63800049    0.25000000    2.66000009
   17.76638794  181.76800537    0.25000000    2.66000009
   17.76694489  179.53999329    0.25000000    2.66000009
   17.77000046  183.20100403    0.25000000    2.66000009
   17.77333260  195.59800720    0.25000000    2.66000009
   17.77666664  199.02299500    0.25000000    2.66000009
   17.77972221  183.11199951    0.23000000    2.66000009
   17.78305435  189.98199463    0.23000000    2.66000009
   17.78638840  190.84599304    0.23000000    2.66000009
   17.78944397  189.12300110    0.20999999    2.66000009
   17.79277802  193.52400208    0.20999999    2.66000009
   17.79583359  200.93499756    0.20999999    2.66000009
   17.79916573  209.88200378    0.20999999    2.66000009
   17.80027771  201.94299316    0.20999999    2.66000009
   17.80277634  190.85699463    0.20999999    2.66000009
   17.80611038  194.32000732    0.23000000    2.66000009
   17.80944443  209.66799927    0.23000000    2.66000009
   17.81250000  202.18499756    0.23000000    2.66000009
   17.81583214  204.00000000    0.20999999    2.66000009
   17.81916809  203.15899658    0.20999999    2.66000009
   17.82222366  192.02699280    0.20999999    2.66000009
   17.82555580  195.55900574    0.20999999    2.66000009
   17.82861137  185.70399475    0.20999999    2.66000009
   17.83194542  196.27699280    0.20999999    2.66000009
   17.83361244  198.38600159    0.20999999    2.66000009
   17.83555603  196.06799316    0.20999999    2.66000009
   17.83889008  187.42500305    0.20999999    2.66000009
   17.84222221  175.63400269    0.20999999    2.66000009
   17.84527779  170.56700134    0.23000000    2.66000009
   17.84861183  173.28500366    1.21000004    2.64000010
   17.85166740  161.33599854    1.14999998    2.66000009
   17.85499954  164.82600403    1.14999998    2.66000009
   17.85833359  153.19400024    1.05999994    2.66000009
   17.86138916  143.79200745    0.34000000    2.66000009
   17.86472321  147.68899536    0.34000000    2.66000009
   17.86694527  148.83000183    0.34000000    2.66000009
   17.86833382  145.05499268    0.34000000    2.66000009
   17.87166595  146.62100220    0.31999999    2.64000010
   17.87500000  149.43800354    0.28000000    2.66000009
   17.87805557  154.66700745    0.25999999    2.66000009
   17.88138962  152.18299866    0.25999999    2.66000009
   17.88444519  148.48399353    0.25999999    2.66000009
   17.88777733  150.44500732    0.25000000    2.66000009
   17.89111137  142.94400024    0.31999999    2.66000009
   17.89444351  146.99099731    0.30000001    2.66000009
   17.89749908  150.54100037    0.25999999    2.66000009
   17.90027809  153.33200073    0.25999999    2.66000009
   17.90111160  150.11399841    0.25000000    2.66000009
   17.90444374  151.92300415    0.25000000    2.66000009
   17.90777779  145.80700684    0.25000000    2.66000009
   17.91083336  153.29899597    0.25000000    2.66000009
   17.91416550  157.53900146    0.20999999    2.66000009
   17.91749954  148.67199707    0.23000000    2.66000009
   17.92055511  148.63800049    0.23000000    2.66000009
   17.92388916  155.58999634    0.20999999    2.66000009
   17.92694473  149.08399963    0.20999999    2.66000009
   17.93027687  150.82899475    0.20999999    2.66000009
   17.93361092  157.21099854    0.20999999    2.64000010
   17.93388748  147.32099915    0.20999999    2.64000010
   17.93722153  144.72599792    0.20999999    2.66000009
   17.94055557  147.75199890    0.20999999    2.66000009
   17.94361115  147.37800598    0.20999999    2.66000009
   17.94694328  145.85400391    0.20999999    2.66000009
   17.95055580  148.38000488    0.19000000    2.67000008
   17.95361137  143.96299744    0.19000000    2.64000010
   17.95694542  143.34100342    0.20999999    2.66000009
   17.96000099  155.48800659    0.20999999    2.66000009
   17.96333504  145.43200684    0.20999999    2.66000009
   17.96666718  148.90800476    0.20999999    2.66000009
   17.96722221  144.75000000    0.20999999    2.66000009
   17.97027779  150.97599792    0.20999999    2.64000010
   17.97361183  151.69099426    0.20999999    2.66000009
   17.97694588  153.13099670    0.20999999    2.66000009
   17.98000145  150.17599487    0.20999999    2.64000010
   17.98333359  143.62600708    0.20999999    2.66000009
   17.98666763  149.46800232    0.20999999    2.66000009
   17.98972321  148.34500122    0.20999999    2.66000009
   17.99305534  141.40199280    0.20999999    2.64000010
   17.99611092  143.57400513    0.20999999    2.64000010
   17.99944496  144.46699524    0.20999999    2.66000009
   18.00055504  154.70100403    0.20999999    2.66000009
   18.00305557  152.95100403    0.20999999    2.66000009
   18.00638962  154.11099243    0.20999999    2.64000010
   18.00972176  147.46400452    0.20999999    2.64000010
   18.01277733  151.84199524    0.20999999    2.64000010
   18.01611137  135.50599670    0.23000000    2.64000010
   18.01916695  151.62399292    0.23000000    2.64000010
   18.02249908  145.67900085    0.23000000    2.64000010
   18.02583313  149.95599365    0.23000000    2.64000010
   18.02888870  148.06599426    0.23000000    2.66000009
   18.03222275  143.87899780    0.23000000    2.64000010
   18.03388786  147.59599304    0.23000000    2.64000010
   18.03583336  154.71299744    0.23000000    2.64000010
   18.03916550  151.91600037    0.23000000    2.66000009
   18.04249954  153.29200745    0.23000000    2.64000010
   18.04555511  149.38699341    0.23000000    2.64000010
   18.04888916  153.83000183    0.23000000    2.64000010
   18.05194283  150.18600464    0.23000000    2.66000009
   18.05527687  142.30599976    0.23000000    2.66000009
   18.05861092  141.71499634    0.23000000    2.66000009
   18.06166649  142.78900146    0.23000000    2.64000010
   18.06499863  148.65600586    0.23000000    2.66000009
   18.06722260  153.36199951    0.23000000    2.66000009
   18.06861115  146.37100220    0.23000000    2.64000010
   18.07194519  146.36099243    0.23000000    2.64000010
   18.07527924  143.85699463    0.23000000    2.66000009
   18.07833481  140.20700073    0.23000000    2.66000009
   18.08166695  137.70899963    0.25000000    2.64000010
   18.08472252  144.47799683    0.25000000    2.64000010
   18.08805656  141.52200317    0.25000000    2.66000009
   18.09138870  141.46499634    0.23000000    2.64000010
   18.09444427  146.87699890    0.23000000    2.64000010
   18.09805679  149.04699707    0.25000000    2.66000009
   18.10055542  148.07000732    0.25000000    2.66000009
   18.10138893  148.15699768    0.23000000    2.66000009
   18.10472298  147.79800415    0.23000000    2.66000009
   18.10805511  142.73800659    0.23000000    2.64000010
   18.11111069  145.61399841    0.23000000    2.66000009
   18.11444473  145.01800537    0.23000000    2.64000010
   18.11750031  145.86399841    0.23000000    2.64000010
   18.12083435  150.11500549    0.23000000    2.64000010
   18.12416649  150.06300354    0.23000000    2.66000009
   18.12722206  149.11999512    0.23000000    2.64000010
   18.13055611  143.64700317    0.23000000    2.64000010
   18.13388824  147.38600159    0.23000000    2.66000009
   18.13416672  149.17300415    0.23000000    2.66000009
   18.13750076  152.13200378    0.23000000    2.66000009
   18.14083290  148.80000305    0.23000000    2.66000009
   18.14388847  144.32899475    0.20999999    2.66000009
   18.14722252  155.62899780    0.23000000    2.66000009
   18.15055466  144.26899719    0.23000000    2.66000009
   18.15361023  152.66400146    0.23000000    2.66000009
   18.15694427  160.49699402    0.23000000    2.64000010
   18.15999985  155.13699341    0.23000000    2.66000009
   18.16333389  155.36999512    0.23000000    2.66000009
   18.16666603  155.00799561    0.23000000    2.66000009
   18.16722107  153.94599915    0.23000000    2.66000009
   18.17000008  153.47099304    0.23000000    2.66000009
   18.17333221  148.62100220    0.23000000    2.66000009
   18.17666626  149.59300232    0.23000000    2.66000009
   18.17972183  154.80400085    0.23000000    2.66000009
   18.18305397  149.99899292    0.23000000    2.66000009
   18.18610954  152.99899292    0.23000000    2.64000010
   18.18944359  151.76600647    0.23000000    2.66000009
   18.19277763  155.08200073    0.23000000    2.64000010
   18.19583321  160.66000366    0.23000000    2.64000010
   18.19916534  154.71600342    0.23000000    2.64000010
   18.20055580  161.12600708    0.23000000    2.64000010
   18.20277786  155.15699768    0.23000000    2.66000009
   18.20611191  147.69400024    0.23000000    2.66000009
   18.20944595  160.32699585    0.23000000    2.64000010
   18.21250153  148.36700439    0.23000000    2.64000010
   18.21583366  145.67500305    0.23000000    2.64000010
   18.21916771  149.77900696    0.23000000    2.66000009
   18.22222328  146.41600037    0.20999999    2.64000010
   18.22555542  153.27900696    0.20999999    2.64000010
   18.22888947  147.22399902    0.23000000    2.66000009
   18.23194504  150.82699585    0.20999999    2.64000010
   18.24944496  148.29699707    0.20999999    2.66000009
   18.25166702  151.65899658    0.20999999    2.64000010
   18.25499916  150.72900391    0.20999999    2.64000010
   18.25833321  148.86999512    0.20999999    2.64000010
   18.26138878  159.51699829    0.20999999    2.64000010
   18.26472282  149.42399597    0.20999999    2.64000010
   18.26777840  150.28199768    0.20999999    2.66000009
   18.27111053  151.80400085    0.20999999    2.64000010
   18.27444458  154.73899841    0.20999999    2.64000010
   18.27750015  154.93699646    0.20999999    2.64000010
   18.28083229  152.26600647    0.20999999    2.64000010
   18.28249931  147.19900513    0.20999999    2.64000010
   18.28444481  146.55599976    0.20999999    2.64000010
   18.28777695  156.66999817    0.20999999    2.64000010
   18.29083252  146.38600159    0.20999999    2.64000010
   18.29416656  147.79800415    0.20999999    2.64000010
   18.29722214  146.08700562    0.20999999    2.64000010
   18.30055428  152.21899414    0.20999999    2.64000010
   18.30388832  147.38200378    0.20999999    2.64000010
   18.30694389  145.74099731    0.20999999    2.64000010
   18.31027794  148.67199707    0.20999999    2.64000010
   18.31361008  145.14599609    0.20999999    2.64000010
   18.31611061  158.89799500    0.20999999    2.64000010
   18.31722260  146.41799927    0.20999999    2.64000010
   18.32055664  148.18699646    0.20999999    2.64000010
   18.32361221  153.13600159    0.20999999    2.64000010
   18.32694626  144.65400696    0.23000000    2.64000010
   18.33027840  153.03799438    0.23000000    2.64000010
   18.33333397  151.36599731    0.23000000    2.64000010
   18.33666801  149.59599304    0.23000000    2.64000010
   18.34000015  144.89799500    0.23000000    2.64000010
   18.34305573  147.98100281    0.20999999    2.64000010
   18.34638977  142.13900757    0.20999999    2.64000010
   18.34944534  150.42799377    0.23000000    2.64000010
   18.35000038  153.22200012    0.23000000    2.64000010
   18.35333443  146.88600159    0.23000000    2.64000010
   18.35639000  148.15899658    0.23000000    2.61999989
   18.35972214  156.21699524    0.23000000    2.64000010
   18.36305618  146.82899475    0.23000000    2.64000010
   18.36611176  149.39100647    0.23000000    2.64000010
   18.36944389  142.65699768    0.23000000    2.64000010
   18.37277794  151.29499817    0.23000000    2.64000010
   18.37583351  147.06799316    0.23000000    2.64000010
   18.37916756  145.38200378    0.23000000    2.64000010
   18.38222313  150.60699463    0.23000000    2.64000010
   18.38277817  151.57699585    0.23000000    2.64000010
   18.38611031  154.33299255    0.23000000    2.64000010
   18.38944435  150.16999817    0.23000000    2.64000010
   18.39249992  154.66200256    0.23000000    2.64000010
   18.39583397  150.59500122    0.23000000    2.64000010
   18.39916611  150.03199768    0.23000000    2.64000010
   18.40222168  151.41299438    0.23000000    2.64000010
   18.40555573  154.10400391    0.25000000    2.64000010
   18.40888786  149.42500305    0.25000000    2.64000010
   18.41194344  150.32200623    0.25000000    2.64000010
   18.41527748  153.46299744    0.23000000    2.64000010
   18.41611099  148.29200745    0.23000000    2.64000010
   18.41888809  143.25300598    0.25000000    2.64000010
   18.42222214  149.38999939    0.25000000    2.64000010
   18.42527771  143.47999573    0.25000000    2.64000010
   18.42860985  152.25199890    0.25000000    2.64000010
   18.43194389  145.28300476    0.25000000    2.64000010
   18.43499947  148.77900696    0.25000000    2.64000010
   18.43833160  149.16499329    0.25000000    2.64000010
   18.44138718  148.13099670    0.25000000    2.64000010
   18.44472122  134.90699768    0.25000000    2.64000010
   18.44805527  143.73399353    0.25000000    2.64000010
   18.44944382  142.77600098    0.25000000    2.64000010
   18.45166779  149.16499329    0.25000000    2.64000010
   18.45499992  146.82800293    0.25000000    2.64000010
   18.45805550  136.49499512    0.25000000    2.64000010
   18.46138954  140.62600708    0.23000000    2.64000010
   18.46472359  144.60899353    0.23000000    2.64000010
   18.46777916  146.78500366    0.25000000    2.64000010
   18.47111130  149.26300049    0.23000000    2.64000010
   18.47416687  141.53199768    0.23000000    2.64000010
   18.47750092  149.27600098    0.23000000    2.64000010
   18.48083305  144.22300720    0.25000000    2.64000010
   18.48277855  146.73899841    0.23000000    2.64000010
   18.48444557  148.61399841    0.23000000    2.64000010
   18.48777771  143.92700195    0.25000000    2.64000010
   18.49111176  144.89999390    0.25000000    2.64000010
   18.49416733  146.20599365    0.25000000    2.64000010
   18.49749947  145.23899841    0.23000000    2.64000010
   18.50055504  145.58999634    0.25000000    2.64000010
   18.50388908  150.78199768    0.25000000    2.64000010
   18.50722313  150.86599731    0.25000000    2.64000010
   18.51027870  155.27099609    0.25000000    2.64000010
   18.51361084  149.62800598    0.25000000    2.61999989
   18.51611137  155.87300110    0.25000000    2.61999989
   18.51722145  152.41099548    0.25000000    2.64000010
   18.52055550  145.05299377    0.25000000    2.64000010
   18.52361107  142.00399780    0.25000000    2.64000010
   18.52694511  142.36999512    0.25000000    2.64000010
   18.53027725  144.55599976    0.25000000    2.64000010
   18.53333282  143.63099670    0.25000000    2.64000010
   18.53666687  158.92599487    0.25000000    2.64000010
   18.53999901  153.12600708    0.25000000    2.64000010
   18.54333305  146.65800476    0.25000000    2.64000010
   18.54638863  144.95899963    0.25000000    2.64000010
   18.54944420  145.40800476    0.25000000    2.64000010
   18.54999924  145.79600525    0.25000000    2.64000010
   18.55333328  151.83700562    0.25000000    2.64000010
   18.55638885  154.17500305    0.25000000    2.64000010
   18.55972099  156.52900696    0.25000000    2.61999989
   18.56305504  143.21099854    0.25000000    2.64000010
   18.56611061  142.22200012    0.25000000    2.64000010
   18.56944466  139.82400513    0.25000000    2.64000010
   18.57277870  145.81300354    0.25000000    2.64000010
   18.57583427  140.18499756    0.25000000    2.64000010
   18.57916832  149.40400696    0.25000000    2.61999989
   18.58250046  148.21400452    0.25000000    2.61999989
   18.58305550  145.03399658    0.25000000    2.61999989
   18.58583450  147.95199585    0.25000000    2.61999989
   18.58916664  148.41099548    0.25000000    2.64000010
   18.59222221  141.57099915    0.25000000    2.61999989
   18.59555626  140.90699768    0.25000000    2.61999989
   18.59889030  149.62399292    0.25000000    2.64000010
   18.60194397  144.27799988    0.25000000    2.64000010
   18.60527802  153.66999817    0.25000000    2.61999989
   18.60861206  146.19999695    0.25000000    2.64000010
   18.61166763  153.63299561    0.25000000    2.61999989
   18.61499977  141.91600037    0.25000000    2.61999989
   18.61638832  146.00700378    0.25000000    2.64000010
   18.61861038  137.31599426    0.25000000    2.64000010
   18.62194443  142.28599548    0.25000000    2.61999989
   18.62500000  148.33099365    0.25000000    2.61999989
   18.62833405  151.02999878    0.25000000    2.61999989
   18.63166618  152.22399902    0.25000000    2.61999989
   18.63472176  142.26400757    0.25000000    2.61999989
   18.63805580  138.35499573    0.25000000    2.64000010
   18.64138794  142.01300049    0.25000000    2.64000010
   18.64444351  146.13299561    0.25000000    2.61999989
   18.64777756  150.42799377    0.25000000    2.64000010
   18.64972115  140.12199402    0.25000000    2.64000010
   18.65138817  144.92799377    0.25000000    2.64000010
   18.65472221  145.79100037    0.25000000    2.64000010
   18.65805435  143.86599731    0.25000000    2.61999989
   18.66110992  138.25799561    0.25000000    2.61999989
   18.66444397  144.23800659    0.25000000    2.61999989
   18.66749954  153.62500000    0.25000000    2.61999989
   18.67083359  147.36799622    0.25000000    2.61999989
   18.67416573  149.49499512    0.25000000    2.61999989
   18.67722130  149.74200439    0.25000000    2.61999989
   18.68055534  141.75999451    0.25000000    2.61999989
   18.68305397  138.06399536    0.25000000    2.61999989
   18.68416595  143.21299744    0.25000000    2.61999989
   18.68750000  145.47099304    0.25000000    2.61999989
   18.69055557  142.30099487    0.25000000    2.61999989
   18.69388771  138.49400330    0.25000000    2.61999989
   18.69722176  143.82400513    0.25000000    2.61999989
   18.70027924  142.29499817    0.25000000    2.61999989
   18.70361137  138.99200439    0.25000000    2.61999989
   18.70694542  149.70899963    0.25999999    2.61999989
   18.71000099  137.73199463    0.25999999    2.61999989
   18.71333504  138.90199280    0.25999999    2.61999989
   18.71638870  148.41200256    0.25999999    2.61999989
   18.71694565  143.60200500    0.25999999    2.61999989
   18.72027779  149.07000732    0.25999999    2.61999989
   18.72333336  145.21699524    0.25999999    2.61999989
   18.72666740  141.31500244    0.25999999    2.61999989
   18.73000145  149.10600281    0.25999999    2.61999989
   18.73305511  145.25500488    0.25999999    2.61999989
   18.73638916  144.85200500    0.25999999    2.61999989
   18.73972321  152.30000305    0.25999999    2.61999989
   18.74277878  149.02699280    0.25999999    2.61999989
   18.74611092  158.98599243    0.25999999    2.61999989
   18.74944496  152.27299500    0.25999999    2.61999989
   18.75000000  150.41200256    0.25999999    2.61999989
   18.75305557  152.92700195    0.25000000    2.61999989
   18.75638962  152.78399658    0.25000000    2.61999989
   18.75972176  153.80499268    0.25000000    2.61999989
   18.76277733  151.35499573    0.25000000    2.61999989
   18.76611137  146.19500732    0.25000000    2.61999989
   18.76944351  142.20500183    0.25000000    2.61999989
   18.77249908  145.46299744    0.25000000    2.61999989
   18.77583313  144.03500366    0.25000000    2.61999989
   18.77888870  144.32699585    0.25000000    2.61999989
   18.78222275  149.47999573    0.25000000    2.61999989
   18.78333282  148.58799744    0.25000000    2.61999989
   18.78583336  152.18899536    0.25000000    2.59999990
   18.78916550  142.03799438    0.25000000    2.61999989
   18.79249954  148.99400330    0.25000000    2.61999989
   18.79555511  153.01199341    0.25000000    2.61999989
   18.79888916  145.56300354    0.25000000    2.61999989
   18.80194283  154.27600098    0.25000000    2.61999989
   18.80527687  149.53399658    0.25999999    2.61999989
   18.80861092  156.20199585    0.25999999    2.61999989
   18.81166649  155.03700256    0.25999999    2.61999989
   18.81499863  154.77699280    0.25999999    2.61999989
   18.81666756  159.40899658    0.25999999    2.61999989
   18.81861115  152.58700562    0.25999999    2.61999989
   18.82194519  154.25999451    0.25999999    2.59999990
   18.82527924  147.66999817    0.25999999    2.61999989
   18.82833481  152.36099243    0.25999999    2.61999989
   18.83166695  143.64100647    0.28000000    2.61999989
   18.83500099  141.06799316    0.28000000    2.59999990
   18.83805656  151.47700500    0.25999999    2.61999989
   18.84138870  155.91999817    0.25999999    2.61999989
   18.84472275  142.70599365    0.28000000    2.61999989
   18.84777832  143.53399658    0.28000000    2.61999989
   18.85000038  145.49299622    0.28000000    2.59999990
   18.85138893  153.57600403    0.28000000    2.59999990
   18.85472298  146.76499939    0.28000000    2.59999990
   18.85805511  146.92999268    0.28000000    2.59999990
   18.86111069  147.11599731    0.28000000    2.59999990
   18.86444473  149.04100037    0.28000000    2.59999990
   18.86750031  153.86900330    0.28000000    2.59999990
   18.87083435  148.31300354    0.28000000    2.61999989
   18.87416649  143.21299744    0.28000000    2.61999989
   18.87722206  149.64199829    0.28000000    2.59999990
   18.88083267  154.33200073    0.28000000    2.59999990
   18.88333321  156.36999512    0.28000000    2.59999990
   18.88416672  147.60299683    0.28000000    2.59999990
   18.88750076  153.21000671    0.28000000    2.59999990
   18.89083290  159.89700317    0.28000000    2.59999990
   18.89388847  152.86399841    0.28000000    2.61999989
   18.89722252  149.31599426    0.28000000    2.59999990
   18.90027809  148.71400452    0.30000001    2.59999990
   18.90361023  147.35800171    0.30000001    2.59999990
   18.90694427  139.68099976    0.28000000    2.59999990
   18.90999985  148.17199707    0.30000001    2.59999990
   18.91333389  146.45700073    0.30000001    2.59999990
   18.91666603  141.13299561    0.30000001    2.59999990
   18.91694450  143.70199585    0.30000001    2.59999990
   18.92027664  154.47700500    0.30000001    2.59999990
   18.92361069  144.36900330    0.30000001    2.59999990
   18.92666626  154.32899475    0.31999999    2.59999990
   18.93000031  146.72999573    0.30000001    2.59999990
   18.93305397  144.67199707    0.30000001    2.59999990
   18.93638802  152.85299683    0.30000001    2.59999990
   18.93972206  147.46299744    0.31999999    2.59999990
   18.94277763  157.01100159    0.31999999    2.59999990
   18.94610977  149.42999268    0.31999999    2.59999990
   18.94944382  154.45700073    0.30000001    2.59999990
   18.95000076  153.82200623    0.30000001    2.59999990
   18.95277786  148.76699829    0.30000001    2.59999990
   18.95611191  139.66400146    0.30000001    2.59999990
   18.95972252  153.81100464    0.30000001    2.59999990
   18.96305656  146.86700439    0.30000001    2.59999990
   18.96611214  147.84899902    0.28000000    2.57999992
   18.96944427  137.59300232    0.28000000    2.57999992
   18.97249985  143.09599304    0.28000000    2.59999990
   18.97583389  135.23100281    0.30000001    2.59999990
   18.97916794  142.00500488    0.30000001    2.59999990
   18.98222351  144.93600464    0.30000001    2.59999990
   18.98333359  141.50500488    0.30000001    2.59999990
   18.98583412  139.13200378    0.28000000    2.59999990
   18.98916626  144.00599670    0.30000001    2.59999990
   18.99250031  149.19900513    0.31999999    2.59999990
   18.99555588  141.22099304    0.31999999    2.59999990
   18.99888992  141.21000671    0.31999999    2.59999990
   19.00222206  145.13999939    0.31999999    2.59999990
   19.00527763  143.25100708    0.38000000    2.57999992
   19.00861168  152.49299622    0.36000001    2.59999990
   19.01166725  144.87500000    0.36000001    2.59999990
   19.01499939  156.87100220    0.44000000    2.59999990
   19.01666641  148.23199463    0.44000000    2.59999990
   19.01861000  149.62899780    0.44000000    2.57999992
   19.02194405  149.20599365    0.44000000    2.57999992
   19.02527809  149.69599915    0.44000000    2.57999992
   19.02833366  154.13699341    0.41999999    2.59999990
   19.03166580  153.81399536    0.52999997    2.59999990
   19.03499985  154.58999634    0.52999997    2.59999990
   19.03805542  151.11099243    0.52999997    2.57999992
   19.04138756  154.41600037    0.50000000    2.57999992
   19.04444313  149.66799927    0.41999999    2.59999990
   19.04777718  148.81700134    0.40000001    2.57999992
   19.04999924  146.96000671    0.40000001    2.57999992
   19.05138779  146.27799988    0.40000001    2.57999992
   19.05472183  142.00799561    0.40000001    2.59999990
   19.05805397  140.24600220    0.40000001    2.59999990
   19.06110954  146.04100037    0.36000001    2.59999990
   19.06444359  149.55599976    0.36000001    2.57999992
   19.06777954  147.29400635    0.38000000    2.57999992
   19.07083511  146.92100525    0.36000001    2.59999990
   19.07416725  145.88099670    0.36000001    2.57999992
   19.07722282  152.47799683    0.36000001    2.59999990
   19.08055687  143.29600525    0.36000001    2.57999992
   19.08333397  144.89999390    0.36000001    2.57999992
   19.08444595  148.50599670    0.40000001    2.57999992
   19.08777809  148.41799927    0.41999999    2.57999992
   19.09083366  154.84100342    0.41999999    2.57999992
   19.09416771  152.55499268    0.40000001    2.57999992
   19.09722328  156.29200745    0.38000000    2.57999992
   19.10055542  161.30400085    0.36000001    2.59999990
   19.10388947  149.94900513    0.34000000    2.57999992
   19.10694504  151.70199585    0.34000000    2.57999992
   19.11027908  145.93800354    0.31999999    2.57999992
   19.11361122  147.92700195    0.31999999    2.57999992
   19.11666679  148.17900085    0.30000001    2.57999992
   19.11694527  146.61799622    0.30000001    2.57999992
   19.12027740  148.68600464    0.30000001    2.57999992
   19.12361145  141.00799561    0.31999999    2.59999990
   19.12666702  150.56300354    0.38000000    2.57999992
   19.13000107  147.90199280    0.47999999    2.57999992
   19.13333321  148.69299316    0.47999999    2.57999992
   19.13638878  146.51199341    0.47999999    2.57999992
   19.13972282  149.97999573    0.44000000    2.57999992
   19.14305496  144.79200745    0.36000001    2.57999992
   19.14611053  145.20100403    0.28000000    2.57999992
   19.14944458  146.75300598    0.28000000    2.57999992
   19.14999962  142.92399597    0.28000000    2.57999992
   19.15305519  153.25999451    0.28000000    2.57999992
   19.15611076  150.82499695    0.30000001    2.57999992
   19.15944481  148.47599792    0.30000001    2.57999992
   19.16250038  151.83399963    0.30000001    2.57999992
   19.16583252  150.57600403    0.28000000    2.57999992
   19.16916656  147.11799622    0.28000000    2.57999992
   19.17222214  146.69900513    0.30000001    2.57999992
   19.17555428  148.21299744    0.30000001    2.57999992
   19.17888832  146.92799377    0.31999999    2.57999992
   19.18194389  145.03199768    0.31999999    2.57999992
   19.18333244  147.96800232    0.31999999    2.57999992
   19.18555450  147.72300720    0.31999999    2.57999992
   19.18888855  138.73500061    0.34000000    2.55999994
   19.19222069  148.87300110    0.31999999    2.57999992
   19.19527626  144.37800598    0.31999999    2.57999992
   19.19861031  138.78999329    0.34000000    2.55999994
   19.20194435  139.59399414    0.34000000    2.55999994
   19.20499992  143.27200317    0.36000001    2.55999994
   19.20833397  147.21600342    0.36000001    2.55999994
   19.21138954  146.14100647    0.36000001    2.57999992
   19.21472359  150.10299683    0.34000000    2.55999994
   19.21666718  157.15699768    0.34000000    2.55999994
   19.21833420  151.58399963    0.34000000    2.55999994
   19.22166634  152.85699463    0.31999999    2.57999992
   19.22500038  157.34700012    0.31999999    2.57999992
   19.22805595  148.18499756    0.31999999    2.55999994
   19.23139000  151.11999512    0.31999999    2.55999994
   19.23472214  145.83900452    0.31999999    2.57999992
   19.23805618  157.69799805    0.31999999    2.57999992
   19.24111176  154.83999634    0.31999999    2.57999992
   19.24444389  152.48300171    0.31999999    2.55999994
   19.24749947  150.24600220    0.31999999    2.55999994
   19.26611137  145.63699341    0.30000001    2.55999994
   19.26749992  140.89399719    0.30000001    2.55999994
   19.27083397  143.00900269    0.30000001    2.55999994
   19.27416611  149.92900085    0.31999999    2.57999992
   19.27722168  143.30599976    0.31999999    2.55999994
   19.28055573  133.71000671    0.34000000    2.55999994
   19.28388786  140.23500061    0.30000001    2.55999994
   19.28694344  142.33799744    0.30000001    2.55999994
   19.29027748  138.21899414    0.28000000    2.57999992
   19.29333305  144.36700439    0.28000000    2.57999992
   19.29666710  148.11799622    0.28000000    2.55999994
   19.29916573  146.31500244    0.25999999    2.55999994
   19.30027771  143.62100220    0.25999999    2.55999994
   19.30360985  142.67300415    0.28000000    2.55999994
   19.30666542  144.16999817    0.25999999    2.55999994
   19.30999947  143.07800293    0.25999999    2.55999994
   19.31333351  142.55900574    0.25999999    2.55999994
   19.31638718  141.58999634    0.28000000    2.55999994
   19.31972313  144.49000549    0.28000000    2.55999994
   19.32305717  143.47999573    0.28000000    2.55999994
   19.32611275  140.67399597    0.30000001    2.55999994
   19.32944489  140.60699463    0.30000001    2.55999994
   19.33277893  130.49400330    0.38000000    2.55999994
   19.33305550  134.57499695    0.38000000    2.55999994
   19.33638954  145.28500366    0.38000000    2.55999994
   19.33944511  150.21000671    0.38000000    2.55999994
   19.34277916  142.33999634    0.38000000    2.55999994
   19.34611130  142.64599609    0.34000000    2.55999994
   19.34916687  144.79499817    0.31999999    2.55999994
   19.35250092  139.81900024    0.30000001    2.55999994
   19.35583305  139.52000427    0.30000001    2.55999994
   19.35888863  146.86099243    0.30000001    2.55999994
   19.36222267  155.82699585    0.30000001    2.55999994
   19.36527824  143.67799377    0.31999999    2.55999994
   19.36611176  145.72500610    0.31999999    2.55999994
   19.36888885  145.90899658    0.28000000    2.55999994
   19.37222290  145.76199341    0.28000000    2.55999994
   19.37527847  152.48599243    0.28000000    2.55999994
   19.37861061  144.18899536    0.25999999    2.55999994
   19.38194466  145.59700012    0.25999999    2.55999994
   19.38500023  137.16299438    0.25999999    2.55999994
   19.38833237  146.64900208    0.25999999    2.55999994
   19.39166641  148.35899353    0.25999999    2.55999994
   19.39472198  150.80599976    0.25999999    2.55999994
   19.39805603  146.98199463    0.25999999    2.55999994
   19.39944458  146.63000488    0.25999999    2.55999994
   19.40166664  148.01300049    0.25999999    2.55999994
   19.40499878  143.22900391    0.25999999    2.55999994
   19.40833282  148.56799316    0.25999999    2.55999994
   19.41138840  145.81300354    0.25999999    2.55999994
   19.41472244  149.51499939    0.25999999    2.55999994
   19.41805458  143.47999573    0.25999999    2.55999994
   19.42138863  147.76199341    0.25999999    2.55999994
   19.42444420  145.55099487    0.25999999    2.55999994
   19.42777634  144.51800537    0.25999999    2.53999996
   19.43111038  144.62800598    0.25999999    2.55999994
   19.43277740  149.95199585    0.25999999    2.55999994
   19.43444443  145.87699890    0.25999999    2.55999994
   19.43777657  150.93099976    0.25999999    2.55999994
   19.44111061  150.71899414    0.25999999    2.55999994
   19.44416618  152.31199646    0.25999999    2.55999994
   19.44749832  144.56300354    0.25999999    2.53999996
   19.45055580  144.58099365    0.25999999    2.53999996
   19.45388985  141.85099792    0.25999999    2.53999996
   19.45722389  148.40100098    0.25999999    2.53999996
   19.46027946  145.97200012    0.25999999    2.53999996
   19.46361160  138.57299805    0.28000000    2.55999994
   19.46611214  145.84500122    0.28000000    2.55999994
   19.46722221  143.94000244    0.28000000    2.55999994
   19.47055626  152.57400513    0.30000001    2.55999994
   19.47389030  145.52299500    0.30000001    2.53999996
   19.47694588  141.53799438    0.30000001    2.53999996
   19.48027802  144.64399719    0.31999999    2.53999996
   19.48361206  146.18899536    0.31999999    2.53999996
   19.48666763  143.50700378    0.34000000    2.53999996
   19.48999977  144.23500061    0.34000000    2.53999996
   19.49305534  151.18600464    0.36000001    2.53999996
   19.49749947  149.13999939    0.34000000    2.53999996
   19.49944496  157.97300720    0.34000000    2.53999996
   19.50194359  147.30700684    0.34000000    2.53999996
   19.50499916  158.75999451    0.30000001    2.53999996
   19.50833321  150.90699768    0.28000000    2.53999996
   19.51166725  150.86999512    0.28000000    2.53999996
   19.51472282  141.11700439    0.28000000    2.53999996
   19.51805496  150.71699524    0.28000000    2.53999996
   19.52138901  154.56599426    0.30000001    2.53999996
   19.52444458  156.68800354    0.28000000    2.53999996
   19.52777672  155.95700073    0.28000000    2.53999996
   19.53194427  149.13999939    0.28000000    2.53999996
   19.53277779  149.44200134    0.28000000    2.53999996
   19.53555489  154.19000244    0.28000000    2.53999996
   19.53944397  145.58700562    0.28000000    2.53999996
