    HOUR (UT)   FLARE FACTOR    SKY TESTER    SUN TESTER
   10.46249962   -1.00000000   -1.00000000   -1.00000000
   10.50055599  104.90899658    0.94000000    1.83000004
   10.50361156   99.96019745    0.92000002    1.83000004
   10.50694466   98.00360107    0.92000002    1.85000002
   10.51027775  102.46800232    0.92000002    1.83000004
   10.51333332  101.57900238    0.92000002    1.85000002
   10.51666641   94.05650330    0.92000002    1.85000002
   10.52083302   94.05650330    0.92000002    1.85000002
   10.52472210   99.09529877    0.89999998    1.85000002
   10.52805519   98.53359985    0.89999998    1.86000001
   10.53138828   98.96179962    0.89999998    1.85000002
   10.53361130   97.34729767    0.89999998    1.86000001
   10.53500080   99.21009827    0.89999998    1.86000001
   10.53833389   96.63770294    0.89999998    1.86000001
   10.54138947   95.43129730    0.89999998    1.86000001
   10.54472256   95.44640350    0.88000000    1.86000001
   10.54805565  103.48400116    0.89999998    1.86000001
   10.55111122   95.13950348    0.88000000    1.86000001
   10.55444431   99.59519958    0.88000000    1.88000000
   10.55749989  102.83100128    0.88000000    1.88000000
   10.56361103  102.83100128    0.88000000    1.89999998
   10.56777763  103.19100189    0.88000000    1.89999998
   10.57083321  101.64700317    0.86000001    1.88000000
   10.57416630   97.13259888    0.86000001    1.88000000
   10.57750034   99.51280212    0.86000001    1.89999998
   10.58055592  108.30599976    0.86000001    1.89999998
   10.58388901  100.79100037    0.86000001    1.89999998
   10.58722210   96.91889954    0.86000001    1.89999998
   10.59027767  100.71600342    0.86000001    1.89999998
   10.59361076   95.54519653    0.86000001    1.91999996
   10.59694386   98.42189789    0.86000001    1.91999996
   10.60027790   99.29080200    0.86000001    1.91999996
   10.60055637   98.26889801    0.86000001    1.91999996
   10.60638905   98.26889801    0.83999997    1.91999996
   10.61055565   98.86419678    0.83999997    1.91999996
   10.61388969   99.38369751    0.83999997    1.94000006
   10.61694431  102.30100250    0.83999997    1.91999996
   10.62027836  104.91200256    0.83999997    1.91999996
   10.62361145  109.34400177    0.81999999    1.91999996
   10.62666702   95.71029663    0.81999999    1.94000006
   10.63000011   98.65450287    0.81999999    1.94000006
   10.63305569   96.14969635    0.81999999    1.94000006
   10.63416672   98.01589966    0.81999999    1.94000006
   10.63666630   99.92800140    0.81999999    1.94000006
   10.64000034  102.53199768    0.83999997    1.94000006
   10.64305496  101.76000214    0.83999997    1.96000004
   10.64916611  101.76000214    0.81999999    1.96000004
   10.65333271   93.77300262    0.81999999    1.98000002
   10.65666676   96.34549713    0.81999999    1.98000002
   10.65972137  100.29900360    0.81999999    1.98000002
   10.66305542   97.94280243    0.80000001    1.98000002
   10.66638851   94.70680237    0.80000001    1.98000002
   10.66722298   97.82900238    0.80000001    1.98000002
   10.67000008   93.01540375    0.81999999    1.98000002
   10.67333412   93.41079712    0.80000001    2.00000000
   10.67638874   99.89910126    0.80000001    2.00000000
   10.67972279   97.96720123    0.80000001    2.00000000
   10.68277836   99.34500122    0.80000001    2.00000000
   10.68611145   97.02870178    0.80000001    2.00000000
   10.69222260   97.02870178    0.79000002    2.01999998
   10.69611073   99.59580231    0.80000001    2.01999998
   10.69944477   98.91079712    0.79000002    2.01999998
   10.70055580  100.44999695    0.79000002    2.01999998
   10.70305538  102.59899902    0.79000002    2.01999998
   10.70638847   97.91709900    0.79000002    2.01999998
   10.70944405   97.98950195    0.79000002    2.01999998
   10.71277714  100.45200348    0.79000002    2.03999996
   10.71611118  102.73200226    0.79000002    2.03999996
   10.71916580  104.09799957    0.79000002    2.03999996
   10.72249985   98.83580017    0.76999998    2.03999996
   10.72555542   99.76969910    0.76999998    2.03999996
   10.72888851   96.62750244    0.76999998    2.03999996
   10.73500061   96.62750244    0.79000002    2.05999994
   10.73916721   98.59459686    0.76999998    2.05999994
   10.74222279   99.11940002    0.76999998    2.05999994
   10.74555588   96.86399841    0.75000000    2.05999994
   10.74888897   94.95770264    0.75000000    2.05999994
   10.75194454   99.70600128    0.75000000    2.05999994
   10.75527763  102.51000214    0.76999998    2.07999992
   10.75833321   98.65460205    0.76999998    2.05999994
   10.76166630   95.44860077    0.75000000    2.07999992
   10.76500034  100.60900116    0.75000000    2.07999992
   10.76722240   99.53099823    0.75000000    2.07999992
   10.76861095   98.11990356    0.75000000    2.07999992
   10.77194405  102.84100342    0.75000000    2.07999992
   10.77777767  102.84100342    0.75000000    2.09999990
   10.78194427   98.33779907    0.75000000    2.09999990
   10.78527832  101.97799683    0.73000002    2.09999990
   10.78833389  101.91100311    0.73000002    2.09999990
   10.79166698  106.00399780    0.73000002    2.09999990
   10.79472256  104.44200134    0.73000002    2.09999990
   10.79805565   99.75000000    0.73000002    2.09999990
   10.80055618  100.32599640    0.73000002    2.11999989
   10.80166721  100.89099884    0.73000002    2.11999989
   10.80500031  101.90499878    0.73000002    2.09999990
   10.80805588  103.91899872    0.73000002    2.13000011
   10.81138897  103.17400360    0.73000002    2.11999989
   10.81472206  101.18499756    0.73000002    2.11999989
   10.82055569  101.18499756    0.73000002    2.11999989
   10.82472229  107.18900299    0.73000002    2.11999989
   10.82805538  102.34200287    0.73000002    2.11999989
   10.83138847   96.94280243    0.70999998    2.11999989
   10.83416653   95.34619904    0.70999998    2.13000011
   10.83500004  103.50700378    0.70999998    2.13000011
   10.83833313   98.91459656    0.70999998    2.13000011
   10.84138870   97.82520294    0.70999998    2.13000011
   10.84472179  100.17700195    0.70999998    2.13000011
   10.84805489  104.74900055    0.70999998    2.13000011
   10.85111141  102.47299957    0.70999998    2.13000011
   10.85444450  102.69799805    0.70999998    2.13000011
   10.85750008  102.16400146    0.70999998    2.13000011
   10.86361122  102.16400146    0.69000000    2.15000010
   10.86777782  100.81600189    0.69000000    2.15000010
   10.87083340  105.63300323    0.69000000    2.15000010
   10.87416649  100.83399963    0.69000000    2.15000010
   10.87722206  105.33000183    0.69000000    2.17000008
   10.88055611  109.87699890    0.67000002    2.15000010
   10.88388920  104.63500214    0.67000002    2.15000010
   10.88694477  106.93499756    0.67000002    2.17000008
   10.89027786  106.62799835    0.67000002    2.17000008
   10.89361095  107.24700165    0.67000002    2.17000008
   10.89666653  110.22899628    0.67000002    2.17000008
   10.89999962  105.80500031    0.67000002    2.17000008
   10.90083313  106.48500061    0.67000002    2.17000008
   10.90638828  106.48500061    0.69000000    2.17000008
   10.91055489  108.95700073    0.67000002    2.19000006
   10.91361046  110.30899811    0.67000002    2.19000006
   10.91694450  104.79000092    0.67000002    2.19000006
   10.92027855  112.18299866    0.67000002    2.19000006
   10.92333412  107.04799652    0.67000002    2.19000006
   10.92666721  110.06800079    0.67000002    2.19000006
   10.92972279  106.55899811    0.67000002    2.19000006
   10.93305588  110.69999695    0.67000002    2.19000006
   10.93388939  108.48999786    0.67000002    2.19000006
   10.93666649  111.46600342    0.67000002    2.19000006
   10.94000053  107.52300262    0.64999998    2.19000006
   10.94305515  109.84700012    0.64999998    2.21000004
   10.94916630  109.84700012    0.64999998    2.21000004
   10.95333290  113.13800049    0.64999998    2.21000004
   10.95666695  107.67199707    0.64999998    2.21000004
   10.95972157  105.48699951    0.64999998    2.21000004
   10.96305561  109.19200134    0.67000002    2.21000004
   10.96638870  111.32099915    0.67000002    2.21000004
   10.96749973  108.77500153    0.67000002    2.21000004
   10.96972179  118.37300110    0.67000002    2.21000004
   10.97305489  112.98200226    0.64999998    2.23000002
   10.97611046  112.31400299    0.64999998    2.23000002
   10.97944355  112.08000183    0.64999998    2.23000002
   10.98277760  115.84899902    0.64999998    2.23000002
   10.98583317  109.85600281    0.63000000    2.23000002
   10.99194431  109.85600281    0.63000000    2.23000002
   10.99611092  110.71700287    0.64999998    2.25000000
   10.99944496  112.86299896    0.64999998    2.25000000
   11.00083351  105.58100128    0.64999998    2.25000000
   11.00305557  115.00099945    0.63000000    2.25000000
   11.00638866  112.60399628    0.63000000    2.25000000
   11.00972176  116.94599915    0.63000000    2.25000000
   11.01277733  109.80799866    0.63000000    2.25000000
   11.01611137  106.58200073    0.63000000    2.25000000
   11.01916599  104.69599915    0.63000000    2.25000000
   11.02250004  114.94799805    0.63000000    2.25000000
   11.02583313  109.26999664    0.63000000    2.25000000
   11.02888870  107.10299683    0.63000000    2.25000000
   11.03500080  107.10299683    0.63000000    2.26999998
   11.03916740  109.98200226    0.63000000    2.26999998
   11.04222298  112.50399780    0.61000001    2.26999998
   11.04555607  111.75299835    0.61000001    2.26999998
   11.04861164  106.91699982    0.61000001    2.26999998
   11.05194473  108.85399628    0.61000001    2.28999996
   11.05527782  110.53199768    0.61000001    2.26999998
   11.05833340  113.97299957    0.61000001    2.26999998
   11.06194496  114.27400208    0.61000001    2.26999998
   11.06527805  112.16699982    0.61000001    2.26999998
   11.06750011  112.31900024    0.61000001    2.26999998
   11.06861115  114.99199677    0.61000001    2.26999998
   11.07194424  112.66300201    0.61000001    2.26999998
   11.07777786  112.66300201    0.61000001    2.28999996
   11.08194447  112.48500061    0.58999997    2.28999996
   11.08500004  111.69499969    0.61000001    2.28999996
   11.08833313  110.37999725    0.61000001    2.28999996
   11.09166622  109.87400055    0.61000001    2.28999996
   11.09472179  110.67700195    0.61000001    2.28999996
   11.09805489  111.86799622    0.58999997    2.28999996
   11.10083389  113.22899628    0.58999997    2.28999996
   11.10166740  113.83799744    0.58999997    2.28999996
   11.10500050  118.45500183    0.58999997    2.28999996
   11.10833359  115.19300079    0.58999997    2.28999996
   11.11138916  113.27500153    0.58999997    2.28999996
   11.11472225  118.50599670    0.58999997    2.28999996
   11.12055588  118.50599670    0.58999997    2.30999994
   11.12472248  109.31900024    0.58999997    2.30999994
   11.12805557  114.93099976    0.58999997    2.30999994
   11.13111115  117.41899872    0.58999997    2.30999994
   11.13416672  113.29100037    0.58999997    2.30999994
   11.13472176  112.26899719    0.58999997    2.30999994
   11.13805580  115.49600220    0.58999997    2.30999994
   11.14138889  114.41600037    0.58999997    2.30999994
   11.14444447  109.23200226    0.58999997    2.30999994
   11.14777756  110.35600281    0.58999997    2.30999994
   11.15083313  113.89299774    0.58999997    2.32999992
   11.15416622  111.62300110    0.58999997    2.32999992
   11.15749931  117.15899658    0.58999997    2.32999992
   11.16333294  117.15899658    0.58999997    2.32999992
   11.16750050  109.10199738    0.58999997    2.32999992
   11.17083359  112.69699860    0.58999997    2.32999992
   11.17388916  116.83200073    0.56999999    2.32999992
   11.17722225  115.81900024    0.58999997    2.32999992
   11.18055630  117.15499878    0.58999997    2.32999992
   11.18361092  117.69899750    0.58999997    2.32999992
   11.18694496  118.52400208    0.58999997    2.32999992
   11.19027805  116.37999725    0.58999997    2.32999992
   11.19333363  114.48000336    0.58999997    2.32999992
   11.19666672  110.20800018    0.58999997    2.34999990
   11.19972229  111.04299927    0.56999999    2.34999990
   11.20083332  113.89199829    0.56999999    2.34999990
   11.20638847  113.89199829    0.56999999    2.34999990
   11.21027756  113.50700378    0.56999999    2.34999990
   11.21361065  115.37699890    0.58999997    2.34999990
   11.21694374  117.55300140    0.56999999    2.34999990
   11.21999931  116.21900177    0.56999999    2.34999990
   11.22333336  118.62699890    0.58999997    2.34999990
   11.22666645  118.41300201    0.56999999    2.36999989
   11.22972202  112.79599762    0.56999999    2.36999989
   11.23305511  119.80999756    0.56999999    2.36999989
   11.23416710  119.22000122    0.56999999    2.36999989
   11.23638916  117.55799866    0.56999999    2.36999989
   11.23972225  117.50099945    0.56999999    2.34999990
   11.24305534  120.46800232    0.56999999    2.34999990
   11.24916649  120.46800232    0.55000001    2.36999989
   11.25333309  114.54399872    0.55000001    2.34999990
   11.25638866  113.60800171    0.55000001    2.36999989
   11.25972176  115.41300201    0.55000001    2.36999989
   11.26305580  119.09700012    0.55000001    2.36999989
   11.26611137  120.00599670    0.55000001    2.36999989
   11.26749992  113.07599640    0.55000001    2.36999989
   11.26972198  114.15799713    0.55000001    2.36999989
   11.27305508  114.13400269    0.55000001    2.36999989
   11.27638817  113.68599701    0.55000001    2.36999989
   11.27944374  119.84500122    0.55000001    2.36999989
   11.28277779  114.94899750    0.55000001    2.36999989
   11.28611183  117.60099792    0.55000001    2.39000010
   11.29194450  117.60099792    0.55000001    2.36999989
   11.29611111  116.63200378    0.55000001    2.36999989
   11.29944515  119.33699799    0.55000001    2.36999989
   11.30083370  119.85600281    0.55000001    2.36999989
   11.30277824  114.69200134    0.55000001    2.36999989
   11.30611134  118.46199799    0.55000001    2.39000010
   11.30944443  119.96399689    0.52999997    2.39000010
   11.31250000  121.44000244    0.55000001    2.39000010
   11.31583309  119.98300171    0.55000001    2.39000010
   11.31916618  120.23000336    0.55000001    2.39000010
   11.32222176  114.33100128    0.52999997    2.39000010
   11.32555580  116.00900269    0.52999997    2.39000010
   11.32861137  123.79699707    0.52999997    2.39000010
   11.33472157  123.79699707    0.52999997    2.40000010
   11.33888817  118.74600220    0.52999997    2.39000010
   11.34222221  116.87599945    0.52999997    2.39000010
   11.34527779  124.65799713    0.52999997    2.40000010
   11.34861088  119.65499878    0.52999997    2.40000010
   11.35194492  119.83399963    0.52999997    2.39000010
   11.35500050  121.46900177    0.52999997    2.39000010
   11.35833359  119.60700226    0.52999997    2.40000010
   11.36166668  122.44799805    0.52999997    2.40000010
   11.36472225  116.16799927    0.51999998    2.40000010
   11.36750031  127.14299774    0.51999998    2.40000010
   11.36833382  121.66899872    0.51999998    2.40000010
   11.37166691  122.61699677    0.51999998    2.40000010
   11.37777805  122.61699677    0.51999998    2.40000010
   11.38166714  126.50599670    0.52999997    2.40000010
   11.38500023  123.80400085    0.52999997    2.40000010
   11.38833332  121.79299927    0.52999997    2.40000010
   11.39138889  118.79599762    0.52999997    2.40000010
   11.39472198  121.25399780    0.52999997    2.40000010
   11.39805508  123.05000305    0.52999997    2.42000008
   11.40083313  120.85900116    0.52999997    2.42000008
   11.40138817  123.93499756    0.52999997    2.42000008
   11.40472221  119.74500275    0.52999997    2.40000010
   11.40805531  124.89600372    0.52999997    2.42000008
   11.41111088  122.81199646    0.52999997    2.42000008
   11.41444397  128.27900696    0.51999998    2.42000008
   11.42055607  128.27900696    0.52999997    2.42000008
   11.42472267  117.10600281    0.51999998    2.42000008
   11.42777824  115.86399841    0.52999997    2.42000008
   11.43111134  119.88600159    0.51999998    2.42000008
   11.43416691  120.90100098    0.51999998    2.42000008
   11.43444443  126.17500305    0.52999997    2.42000008
   11.43777752  129.32200623    0.51999998    2.44000006
   11.44111156  125.39600372    0.51999998    2.42000008
   11.44444466  125.37899780    0.51999998    2.42000008
   11.44750023  128.09899902    0.51999998    2.42000008
   11.45083332  139.52400208    0.51999998    2.42000008
   11.45388889  121.74700165    0.51999998    2.42000008
   11.45722198  127.80100250    0.51999998    2.42000008
   11.46333313  127.80100250    0.51999998    2.44000006
   11.46749973  128.29899597    0.51999998    2.42000008
   11.47083282  129.29299927    0.51999998    2.44000006
   11.47388840  134.24899292    0.51999998    2.44000006
   11.47722149  129.25100708    0.51999998    2.44000006
   11.48027706  128.76600647    0.51999998    2.44000006
   11.48361111  124.62400055    0.52999997    2.44000006
   11.48694515  126.83899689    0.52999997    2.44000006
   11.49000072  121.27100372    0.51999998    2.44000006
   11.49333382  125.49299622    0.51999998    2.44000006
   11.49666691  128.41099548    0.51999998    2.46000004
   11.49972248  122.92800140    0.51999998    2.44000006
   11.50111103  131.96899414    0.51999998    2.44000006
   11.52166653  131.96899414    0.51999998    2.46000004
   11.52583313  124.86100006    0.51999998    2.46000004
   11.52916622  125.45600128    0.51999998    2.46000004
   11.53222179  127.09200287    0.51999998    2.46000004
   11.53444481  121.46499634    0.51999998    2.46000004
   11.53583336  122.91899872    0.51999998    2.46000004
   11.53916740  120.49900055    0.51999998    2.46000004
   11.54250050  130.89300537    0.51999998    2.46000004
   11.54555607  129.38499451    0.50000000    2.46000004
   11.54888916  129.79400635    0.50000000    2.46000004
   11.55222225  125.68499756    0.50000000    2.46000004
   11.55527782  121.72299957    0.50000000    2.46000004
   11.55861092  124.56500244    0.50000000    2.46000004
   11.56444454  124.56500244    0.50000000    2.46000004
   11.56861115  135.01400757    0.50000000    2.46000004
   11.57194424  130.12199402    0.50000000    2.48000002
   11.57499981  130.94999695    0.50000000    2.48000002
   11.57833290  135.39599609    0.50000000    2.48000002
   11.58138847  129.31100464    0.50000000    2.46000004
   11.58472157  127.12999725    0.50000000    2.46000004
   11.58805561  126.66000366    0.50000000    2.48000002
   11.59111118  126.39800262    0.50000000    2.48000002
   11.59444427  134.08099365    0.50000000    2.48000002
   11.59777737  129.16400146    0.50000000    2.46000004
   11.60083389  136.90800476    0.50000000    2.46000004
   11.60138893  126.18099976    0.50000000    2.46000004
   11.60722256  126.18099976    0.47999999    2.48000002
   11.61138916  129.06700134    0.50000000    2.48000002
   11.61472225  131.78500366    0.47999999    2.48000002
   11.61777782  124.74700165    0.47999999    2.48000002
   11.62111092  127.13400269    0.47999999    2.48000002
   11.62444496  124.10099792    0.47999999    2.48000002
   11.62750053  136.32099915    0.50000000    2.48000002
   11.63083363  132.10200500    0.47999999    2.48000002
   11.63416672  138.63400269    0.47999999    2.48000002
   11.63472176  133.60400391    0.47999999    2.48000002
   11.63777733  128.81700134    0.47999999    2.48000002
   11.64083290  137.47099304    0.50000000    2.48000002
   11.64416695  135.39199829    0.50000000    2.48000002
   11.65027714  135.39199829    0.47999999    2.48000002
   11.65416622  127.56400299    0.47999999    2.48000002
   11.65749931  131.02099609    0.47999999    2.50000000
   11.66083336  137.97000122    0.47999999    2.50000000
   11.66388893  135.32000732    0.47999999    2.50000000
   11.66722298  135.09199524    0.47999999    2.50000000
   11.66833401  134.69500732    0.47999999    2.50000000
   11.67083359  137.47000122    0.47999999    2.50000000
   11.67416668  138.44000244    0.47999999    2.50000000
   11.67722225  129.57499695    0.47999999    2.50000000
   11.68055630  132.56300354    0.46000001    2.50000000
   11.68388939  137.46800232    0.46000001    2.50000000
   11.68694496  128.50799561    0.46000001    2.50000000
   11.69305515  128.50799561    0.46000001    2.50000000
   11.69722271  125.44799805    0.46000001    2.50000000
   11.70027733  131.91400146    0.46000001    2.50000000
   11.70138836  130.21899414    0.46000001    2.50000000
   11.70416641  138.63900757    0.46000001    2.50000000
   11.70722198  122.44499969    0.46000001    2.50000000
   11.71055508  130.82899475    0.46000001    2.51999998
   11.71388912  137.52099609    0.46000001    2.51999998
   11.71694374  128.89399719    0.46000001    2.50000000
   11.72027779  132.09599304    0.46000001    2.51999998
   11.72333336  138.91200256    0.46000001    2.50000000
   11.72666645  137.61999512    0.46000001    2.50000000
   11.72999954  135.43699646    0.46000001    2.51999998
   11.73583317  135.43699646    0.46000001    2.50000000
   11.74000072  132.42700195    0.46000001    2.51999998
   11.74333382  133.86000061    0.46000001    2.51999998
   11.74638939  134.04499817    0.46000001    2.51999998
   11.74972248  135.54400635    0.46000001    2.51999998
   11.75277805  133.50799561    0.46000001    2.51999998
   11.75611115  128.84100342    0.46000001    2.51999998
   11.75944424  128.00900269    0.46000001    2.51999998
   11.76249981  127.21900177    0.46000001    2.51999998
   11.76583290  129.21699524    0.46000001    2.51999998
   11.76805496  131.11599731    0.46000001    2.51999998
   11.76944447  130.79699707    0.46000001    2.51999998
   11.77250004  130.20599365    0.46000001    2.51999998
   11.77861118  130.20599365    0.46000001    2.51999998
   11.78277779  138.58399963    0.46000001    2.53999996
   11.78611183  131.84500122    0.46000001    2.53999996
   11.78916740  135.35800171    0.46000001    2.51999998
   11.79250050  141.18099976    0.46000001    2.53999996
   11.79583359  141.14199829    0.46000001    2.51999998
   11.79888916  146.53399658    0.46000001    2.51999998
   11.80138874  141.26899719    0.46000001    2.51999998
   11.80277824  135.89799500    0.46000001    2.53999996
   11.80583382  139.71400452    0.44000000    2.53999996
   11.80916691  166.07400513    0.44000000    2.51999998
   11.81250000  129.93200684    0.44000000    2.51999998
   11.81555557  151.76400757    0.46000001    2.53999996
   11.82166672  151.76400757    0.44000000    2.53999996
   11.82583332  126.61699677    0.44000000    2.51999998
   11.82916641  152.22799683    0.44000000    2.51999998
   11.83222198  137.86099243    0.44000000    2.53999996
   11.83472157  146.25599670    0.44000000    2.53999996
   11.83583260  133.33299255    0.44000000    2.53999996
   11.83888817  139.31500244    0.44000000    2.53999996
   11.84222221  134.75999451    0.44000000    2.53999996
   11.84555531  134.37100220    0.44000000    2.53999996
   11.84861088  140.38200378    0.44000000    2.53999996
   11.85194492  157.66799927    0.44000000    2.53999996
   11.85500050  133.01300049    0.44000000    2.53999996
   11.85833359  139.59800720    0.44000000    2.55999994
   11.86444473  139.59800720    0.44000000    2.53999996
   11.86861134  140.24400330    0.44000000    2.53999996
   11.87166691  133.93299866    0.44000000    2.53999996
   11.87500000  136.53399658    0.44000000    2.53999996
   11.87833309  134.14199829    0.44000000    2.53999996
   11.88138866  139.15400696    0.44000000    2.55999994
   11.88472176  134.25500488    0.44000000    2.55999994
   11.88777733  133.27799988    0.44000000    2.55999994
   11.89111137  133.11399841    0.44000000    2.55999994
   11.89444447  128.89500427    0.44000000    2.55999994
   11.89750004  135.50000000    0.44000000    2.55999994
   11.90083313  129.73800659    0.44000000    2.55999994
   11.90138817  128.95899963    0.44000000    2.55999994
   11.90722179  128.95899963    0.44000000    2.55999994
   11.91138840  137.86700439    0.44000000    2.55999994
   11.91472149  132.72500610    0.44000000    2.55999994
   11.91777802  137.26300049    0.44000000    2.55999994
   11.92111111  134.58099365    0.44000000    2.55999994
   11.92416668  137.45500183    0.44000000    2.53999996
   11.92750072  134.75599670    0.44000000    2.53999996
   11.93083382  134.86599731    0.44000000    2.55999994
   11.93388939  131.23800659    0.44000000    2.55999994
   11.93472195  135.08700562    0.44000000    2.55999994
   11.93750000  136.48100281    0.44000000    2.55999994
   11.94055557  140.67900085    0.44000000    2.55999994
   11.94388866  142.08299255    0.44000000    2.55999994
   11.94999981  142.08299255    0.44000000    2.55999994
   11.95416641  136.52299500    0.44000000    2.55999994
   11.95749950  131.64199829    0.44000000    2.55999994
   11.96055508  130.42999268    0.44000000    2.55999994
   11.96388912  131.95899963    0.44000000    2.55999994
   11.96722221  125.94899750    0.44000000    2.55999994
   11.96805477  132.26300049    0.44000000    2.55999994
   11.97083282  132.85499573    0.44000000    2.55999994
   11.97388840  132.15600586    0.44000000    2.55999994
   11.97722149  129.85499573    0.44000000    2.55999994
   11.98055553  134.84399414    0.44000000    2.55999994
   11.98361111  126.35399628    0.44000000    2.57999992
   11.98694515  124.78500366    0.41999999    2.57999992
   11.99305534  124.78500366    0.41999999    2.57999992
   11.99694443  130.74099731    0.41999999    2.55999994
   12.00027752  136.02499390    0.41999999    2.57999992
   12.00138855  140.22700500    0.41999999    2.57999992
   12.00388908  135.69000244    0.41999999    2.57999992
   12.00694466  133.67900085    0.41999999    2.57999992
   12.01027775  134.42999268    0.41999999    2.57999992
   12.01361084  140.40100098    0.41999999    2.57999992
   12.01666641  136.07000732    0.41999999    2.57999992
   12.01999950  134.88900757    0.41999999    2.57999992
   12.02333355  136.80299377    0.41999999    2.57999992
   12.02638817  132.38600159    0.41999999    2.57999992
   12.02972221  136.26100159    0.41999999    2.57999992
   12.03583336  136.26100159    0.41999999    2.57999992
   12.04000092  132.60600281    0.41999999    2.57999992
   12.04305553  131.98899841    0.41999999    2.57999992
   12.04638958  129.35099792    0.41999999    2.57999992
   12.04972267  127.05000305    0.41999999    2.57999992
   12.05277824  131.48500061    0.41999999    2.57999992
   12.05611134  136.10899353    0.41999999    2.57999992
   12.05916691  138.65600586    0.41999999    2.59999990
   12.06250000  140.58599854    0.41999999    2.57999992
   12.06583309  132.89999390    0.41999999    2.59999990
   12.06805515  138.06599426    0.41999999    2.59999990
   12.06944466  135.59800720    0.41999999    2.59999990
   12.07277775  137.82800293    0.41999999    2.57999992
   12.07861137  137.82800293    0.41999999    2.59999990
   12.08277798  136.71800232    0.41999999    2.59999990
   12.08611107  142.98500061    0.41999999    2.59999990
   12.08916664  134.65699768    0.41999999    2.59999990
   12.09249973  132.74800110    0.41999999    2.59999990
   12.09555531  124.33899689    0.41999999    2.59999990
   12.09888840  126.29599762    0.41999999    2.59999990
   12.10166740  134.38099670    0.41999999    2.59999990
   12.10249996  135.82699585    0.41999999    2.59999990
   12.10583401  136.97700500    0.41999999    2.59999990
   12.10916710  135.48500061    0.41999999    2.59999990
   12.11250019  131.76400757    0.40000001    2.59999990
   12.11555576  132.62100220    0.40000001    2.59999990
   12.12138939  132.62100220    0.41999999    2.59999990
   12.12555599  127.70500183    0.40000001    2.59999990
   12.12888908  128.99400330    0.40000001    2.59999990
   12.13194466  126.16200256    0.40000001    2.59999990
   12.13472176  125.78600311    0.40000001    2.59999990
   12.13583279  133.89599609    0.40000001    2.59999990
   12.13916683  135.57899475    0.41999999    2.59999990
   12.14222240  136.32000732    0.40000001    2.59999990
   12.14555550  135.33999634    0.40000001    2.59999990
   12.14861107  131.67500305    0.40000001    2.59999990
   12.15194416  138.08299255    0.40000001    2.59999990
   12.15527725  136.66200256    0.40000001    2.59999990
   12.15833282  139.11000061    0.40000001    2.59999990
   12.16444397  139.11000061    0.40000001    2.59999990
   12.16833401  140.06100464    0.40000001    2.59999990
   12.17166710  128.47700500    0.40000001    2.59999990
   12.17500019  134.86500549    0.40000001    2.59999990
   12.17805576  132.23399353    0.40000001    2.59999990
   12.18138885  126.70999908    0.41999999    2.59999990
   12.18472195  129.63800049    0.41999999    2.61999989
   12.18777752  134.06700134    0.41999999    2.61999989
   12.19111156  127.61199951    0.41999999    2.61999989
   12.19416714  131.67799377    0.40000001    2.61999989
   12.19777775  137.51100159    0.40000001    2.61999989
   12.20083332  136.85499573    0.40000001    2.61999989
   12.20138836  130.92199707    0.40000001    2.61999989
   12.20722198  130.92199707    0.40000001    2.61999989
   12.21138859  142.14100647    0.40000001    2.61999989
   12.21444416  140.81100464    0.40000001    2.61999989
   12.21777725  141.71800232    0.40000001    2.61999989
   12.22111034  143.17100525    0.40000001    2.61999989
   12.22416592  143.42300415    0.40000001    2.61999989
   12.22749996  139.46200562    0.40000001    2.61999989
   12.23083305  135.30299377    0.40000001    2.61999989
   12.23388958  137.16200256    0.40000001    2.61999989
   12.23472214  137.86199951    0.40000001    2.61999989
   12.23750019  138.02799988    0.38000000    2.61999989
   12.24083328  135.98500061    0.38000000    2.61999989
   12.24388885  141.88900757    0.40000001    2.61999989
   12.25000000  141.88900757    0.38000000    2.61999989
   12.25416660  138.41299438    0.38000000    2.64000010
   12.25749969  136.75900269    0.38000000    2.61999989
   12.26055527  136.79699707    0.38000000    2.61999989
   12.26388931  137.92999268    0.38000000    2.64000010
   12.26694393  140.45199585    0.40000001    2.61999989
   12.26805496  135.70700073    0.38000000    2.61999989
   12.27055550  135.43299866    0.40000001    2.61999989
   12.27388859  135.30999756    0.38000000    2.64000010
   12.27694416  134.33999634    0.38000000    2.64000010
   12.28027725  134.94999695    0.38000000    2.64000010
   12.28333378  137.11000061    0.38000000    2.64000010
   12.28666687  137.02499390    0.38000000    2.64000010
   12.29305553  137.02499390    0.38000000    2.64000010
   12.29722309  135.17100525    0.38000000    2.64000010
   12.30055618  138.12100220    0.38000000    2.64000010
   12.30138874  136.11799622    0.38000000    2.64000010
   12.30416679  137.75700378    0.38000000    2.64000010
   12.30749989  142.93200684    0.38000000    2.64000010
   12.31055546  137.18400574    0.38000000    2.64000010
   12.31388950  138.98899841    0.38000000    2.64000010
   12.31722260  135.60200500    0.38000000    2.64000010
   12.32027817  133.94599915    0.38000000    2.64000010
   12.32361126  138.95399475    0.38000000    2.64000010
   12.32694435  134.10699463    0.38000000    2.61999989
   12.32999992  138.30999756    0.40000001    2.64000010
   12.33583260  138.30999756    0.38000000    2.64000010
   12.33972168  133.48699951    0.38000000    2.64000010
   12.34305477  137.17300415    0.38000000    2.64000010
   12.34638882  134.44200134    0.38000000    2.64000010
   12.34944439  130.95300293    0.38000000    2.64000010
   12.35277843  131.60899353    0.38000000    2.64000010
   12.35611153  130.90299988    0.38000000    2.66000009
   12.35916710  130.75799561    0.38000000    2.64000010
   12.36250019  133.58799744    0.38000000    2.64000010
   12.36555576  143.11000061    0.38000000    2.64000010
   12.36805534  138.53700256    0.38000000    2.64000010
   12.36916637  141.45799255    0.38000000    2.64000010
   12.37250042  136.04800415    0.38000000    2.64000010
   12.37861156  136.04800415    0.38000000    2.64000010
   12.38277817  138.62600708    0.38000000    2.64000010
   12.38583279  136.79200745    0.38000000    2.66000009
   12.38916683  134.11599731    0.38000000    2.64000010
   12.39249992  136.68299866    0.38000000    2.66000009
   12.39555550  134.56599426    0.38000000    2.66000009
   12.39888859  135.64900208    0.36000001    2.66000009
   12.40138817  133.58299255    0.36000001    2.66000009
   12.40249920  132.87600708    0.36000001    2.66000009
   12.40583324  128.30200195    0.38000000    2.66000009
   12.40888882  131.15899658    0.38000000    2.66000009
   12.41222191  129.66099548    0.38000000    2.66000009
   12.41527748  131.94900513    0.36000001    2.66000009
   12.42138958  131.94900513    0.36000001    2.66000009
   12.42555618  135.21699524    0.38000000    2.64000010
   12.42888927  133.63200378    0.36000001    2.66000009
   12.43194485  130.55499268    0.36000001    2.66000009
   12.43472195  133.46099854    0.36000001    2.66000009
   12.43555546  130.61099243    0.36000001    2.66000009
   12.43888855  134.69900513    0.36000001    2.66000009
   12.44194412  139.13200378    0.38000000    2.66000009
   12.44527817  138.00700378    0.38000000    2.66000009
   12.44833374  133.92500305    0.36000001    2.66000009
   12.45166683  135.04400635    0.36000001    2.66000009
   12.45499992  144.91000366    0.38000000    2.66000009
   12.45805550  147.75900269    0.36000001    2.66000009
   12.46416664  147.75900269    0.36000001    2.67000008
   12.46833324  148.32000732    0.36000001    2.66000009
   12.47166634  158.00300598    0.36000001    2.66000009
   12.47499943  143.73599243    0.36000001    2.66000009
   12.47805500  158.07400513    0.36000001    2.66000009
   12.48138809  140.24600220    0.36000001    2.66000009
   12.48444462  142.45199585    0.36000001    2.66000009
   12.48777771  142.62899780    0.36000001    2.67000008
   12.49111176  141.07600403    0.36000001    2.66000009
   12.49444485  148.91000366    0.36000001    2.66000009
   12.49750042  128.68800354    0.36000001    2.66000009
   12.50083351  130.79400635    0.36000001    2.67000008
   12.50138855  129.87800598    0.36000001    2.67000008
   12.50722218  129.87800598    0.36000001    2.66000009
   12.51111126  136.05099487    0.36000001    2.67000008
   12.51444435  144.26499939    0.36000001    2.67000008
   12.51777744  137.72700500    0.36000001    2.67000008
   12.53527832  135.42599487    0.36000001    2.67000008
   12.53750038  143.80799866    0.36000001    2.67000008
   12.54083347  146.57899475    0.36000001    2.67000008
   12.54416752  150.57099915    0.36000001    2.67000008
   12.55000019  150.57099915    0.36000001    2.67000008
   12.55416679  134.56900024    0.36000001    2.67000008
   12.55749989  140.22399902    0.36000001    2.67000008
   12.56083393  145.88499451    0.36000001    2.67000008
   12.56388950  130.55299377    0.36000001    2.67000008
   12.56722260  128.81599426    0.36000001    2.67000008
   12.56833363  125.56300354    0.38000000    2.67000008
   12.57083321  135.34399414    0.38000000    2.67000008
   12.57416630  134.77099609    0.36000001    2.67000008
   12.57750034  136.44900513    0.36000001    2.67000008
   12.58055592  128.30400085    0.36000001    2.69000006
   12.58388901  131.50999451    0.36000001    2.67000008
   12.58722210  134.41700745    0.36000001    2.69000006
   12.59305477  134.41700745    0.36000001    2.67000008
   12.59722233  142.16099548    0.36000001    2.69000006
   12.60027790  131.10899353    0.36000001    2.69000006
   12.60166740  137.11500549    0.36000001    2.69000006
   12.60388947  135.05299377    0.36000001    2.69000006
   12.60722256  132.86399841    0.36000001    2.67000008
   12.61027813  140.02200317    0.36000001    2.67000008
   12.61361122  140.04600525    0.36000001    2.67000008
   12.61694431  131.54699707    0.34000000    2.67000008
   12.61999989  133.84300232    0.36000001    2.69000006
   12.62333393  137.84800720    0.36000001    2.69000006
   12.62666702  131.49899292    0.34000000    2.67000008
   12.62972260  136.07800293    0.34000000    2.69000006
   12.63583279  136.07800293    0.34000000    2.69000006
   12.64000034  138.54200745    0.36000001    2.69000006
   12.64333344  128.66299438    0.36000001    2.67000008
   12.64666653  132.41999817    0.36000001    2.67000008
   12.64999962  129.19999695    0.34000000    2.69000006
   12.65305519  132.03799438    0.34000000    2.69000006
   12.65638828  135.18699646    0.34000000    2.69000006
   12.65944386  127.76000214    0.34000000    2.69000006
   12.66277695  137.17100525    0.36000001    2.69000006
   12.66611099  136.98800659    0.34000000    2.69000006
   12.66833401  136.06599426    0.34000000    2.69000006
   12.66944504  131.38000488    0.34000000    2.69000006
   12.67277813  135.19799805    0.36000001    2.69000006
   12.67861176  135.19799805    0.36000001    2.69000006
   12.68277836  133.96499634    0.34000000    2.69000006
   12.68611145  141.54100037    0.34000000    2.69000006
   12.68916702  140.98899841    0.34000000    2.69000006
   12.69250011  142.19200134    0.34000000    2.69000006
   12.69583321  138.95599365    0.34000000    2.69000006
   12.69888878  133.11900330    0.34000000    2.71000004
   12.70194435  134.29200745    0.34000000    2.69000006
   12.70249939  133.64900208    0.34000000    2.69000006
   12.70583344  140.09899902    0.34000000    2.71000004
   12.70916653  132.98300171    0.34000000    2.71000004
   12.71249962  137.65100098    0.34000000    2.69000006
   12.71555519  135.27000427    0.34000000    2.69000006
   12.72138882  135.27000427    0.34000000    2.69000006
   12.72555542  137.11300659    0.34000000    2.69000006
   12.72888851  129.96000671    0.34000000    2.71000004
   12.73222160  133.53300476    0.34000000    2.69000006
   12.73527813  140.21299744    0.34000000    2.71000004
   12.73555565  131.27699280    0.34000000    2.71000004
   12.73888874  138.42599487    0.34000000    2.69000006
   12.74222279  141.79699707    0.34000000    2.69000006
   12.74527836  143.14700317    0.34000000    2.69000006
   12.74861145  134.05599976    0.34000000    2.69000006
   12.75194454  132.82499695    0.34000000    2.71000004
   12.75500011  128.37300110    0.34000000    2.71000004
   12.75833321  136.34199524    0.34000000    2.69000006
   12.76444435  136.34199524    0.34000000    2.69000006
   12.76861095  130.28199768    0.34000000    2.71000004
   12.76888847  132.75500488    0.34000000    2.71000004
   12.77222157  133.42300415    0.34000000    2.71000004
   12.77527714  133.40400696    0.34000000    2.71000004
   12.77861118  133.12300110    0.34000000    2.71000004
   12.78194427  132.02400208    0.34000000    2.71000004
   12.78500080  128.61900330    0.34000000    2.71000004
   12.78833389  129.12899780    0.34000000    2.71000004
   12.79166698  131.08399963    0.34000000    2.71000004
   12.79472256  127.96600342    0.34000000    2.71000004
   12.79805565  130.47799683    0.34000000    2.69000006
   12.80111122  132.61399841    0.34000000    2.71000004
   12.80194473  131.05999756    0.34000000    2.71000004
   12.80722237  131.05999756    0.34000000    2.71000004
   12.81138897  138.24600220    0.34000000    2.71000004
   12.81444454  130.88999939    0.34000000    2.71000004
   12.81777763  137.17599487    0.34000000    2.71000004
   12.82111073  138.54400635    0.34000000    2.71000004
   12.82416630  140.02799988    0.34000000    2.71000004
   12.82750034  137.63299561    0.31999999    2.71000004
   12.83083344  128.30099487    0.31999999    2.71000004
   12.83388901  135.93800354    0.31999999    2.71000004
   12.83527756  132.50199890    0.31999999    2.71000004
   12.83749962  133.83799744    0.31999999    2.69000006
   12.84083271  133.85400391    0.31999999    2.69000006
   12.84416676  138.31100464    0.34000000    2.71000004
   12.85000038  138.31100464    0.34000000    2.71000004
   12.85416698  144.21200562    0.31999999    2.71000004
   12.85750008  138.50500488    0.34000000    2.71000004
   12.86055565  137.55799866    0.31999999    2.71000004
   12.86388969  136.87600708    0.31999999    2.71000004
   12.86722279  139.05299377    0.31999999    2.73000002
   12.86861134  138.31300354    0.31999999    2.73000002
   12.87055588  139.99400330    0.31999999    2.71000004
   12.87388897  149.59599304    0.34000000    2.71000004
   12.87722206  132.21000671    0.31999999    2.71000004
   12.88027763  137.77000427    0.31999999    2.71000004
   12.88361073  149.90499878    0.31999999    2.71000004
   12.88666630  155.16299438    0.31999999    2.73000002
   12.89305496  155.16299438    0.31999999    2.73000002
   12.89694405  155.35000610    0.31999999    2.71000004
   12.90027714  146.53900146    0.31999999    2.71000004
   12.90194416  150.80000305    0.31999999    2.71000004
   12.90388870  147.50000000    0.31999999    2.71000004
   12.90722179  139.71800232    0.31999999    2.73000002
   12.91055489  147.11700439    0.31999999    2.73000002
   12.91361046  162.28500366    0.31999999    2.71000004
   12.91694450  156.56199646    0.31999999    2.71000004
   12.92000008  153.72399902    0.31999999    2.71000004
   12.92333412  147.12300110    0.31999999    2.71000004
   12.92694473  144.81700134    0.31999999    2.71000004
   12.93000031  152.20300293    0.31999999    2.71000004
   12.93583298  152.20300293    0.31999999    2.71000004
   12.94000053  147.16700745    0.31999999    2.73000002
   12.94305515  160.73100281    0.31999999    2.73000002
   12.94638920  150.13000488    0.31999999    2.73000002
   12.94972229  156.27099609    0.31999999    2.73000002
   12.95277786  150.33399963    0.31999999    2.73000002
   12.95611095  153.58200073    0.31999999    2.71000004
   12.95916653  164.90699768    0.31999999    2.71000004
   12.96277714  159.17599487    0.31999999    2.73000002
   12.96611118  161.80000305    0.31999999    2.73000002
   12.96861076  158.66499329    0.31999999    2.73000002
   12.96944427  166.28300476    0.31999999    2.73000002
   12.97277737  153.55000305    0.31999999    2.71000004
   12.97861099  153.55000305    0.31999999    2.71000004
   12.98277760  177.30700684    0.31999999    2.73000002
   12.98583317  168.30599976    0.31999999    2.73000002
   12.98916721  169.87600708    0.30000001    2.73000002
   12.99250031  156.72999573    0.31999999    2.73000002
   12.99555588  176.62699890    0.31999999    2.73000002
   12.99888897  162.94900513    0.30000001    2.71000004
   13.00194454  153.08700562    0.31999999    2.73000002
   13.00249958  185.19999695    0.31999999    2.73000002
   13.00583363  179.18499756    0.31999999    2.71000004
   13.00916672  169.24699402    0.31999999    2.73000002
   13.01222229  175.25599670    0.31999999    2.73000002
   13.01555538  187.15499878    0.31999999    2.71000004
   13.02138901  187.15499878    0.30000001    2.73000002
   13.02555561  158.77799988    0.30000001    2.73000002
   13.02888870  174.45599365    0.30000001    2.73000002
   13.03194427  166.24899292    0.30000001    2.73000002
   13.03527832  178.43699646    0.31999999    2.73000002
   13.03555584  174.60299683    0.31999999    2.73000002
   13.03888893  166.83299255    0.30000001    2.73000002
   13.04222298  178.22000122    0.30000001    2.73000002
   13.04527855  170.43899536    0.30000001    2.73000002
   13.04861164  170.52600098    0.31999999    2.75000000
   13.05166721  174.95799255    0.30000001    2.73000002
   13.05500031  172.78199768    0.30000001    2.73000002
   13.05833340  169.39700317    0.30000001    2.73000002
   13.06416702  169.39700317    0.30000001    2.73000002
   13.06833363  170.77499390    0.30000001    2.71000004
   13.06888866  172.63000488    0.30000001    2.71000004
   13.07222176  169.73100281    0.30000001    2.73000002
   13.07527733  169.46099854    0.30000001    2.73000002
   13.07888889  174.57800293    0.30000001    2.75000000
   13.08194447  170.23100281    0.31999999    2.73000002
   13.08527756  165.94999695    0.31999999    2.73000002
   13.08833313  166.50000000    0.30000001    2.73000002
   13.09166622  168.08999634    0.30000001    2.73000002
   13.09499931  164.32499695    0.30000001    2.73000002
   13.09805489  172.22999573    0.31999999    2.75000000
   13.10138893  166.60000610    0.30000001    2.75000000
   13.10222244  173.65199280    0.30000001    2.73000002
   13.10722256  173.65199280    0.30000001    2.75000000
   13.11138916  157.15699768    0.31999999    2.75000000
   13.11444473  172.50900269    0.30000001    2.75000000
   13.11777782  162.51499939    0.31999999    2.75000000
   13.12083340  158.46899414    0.31999999    2.75000000
   13.12416649  166.45799255    0.31999999    2.75000000
   13.12750053  161.95899963    0.30000001    2.73000002
   13.13055611  164.63699341    0.31999999    2.73000002
   13.13388920  156.59300232    0.31999999    2.73000002
   13.13555527  161.68800354    0.31999999    2.73000002
   13.13749981  160.39500427    0.31999999    2.73000002
   13.14055538  159.39199829    0.30000001    2.75000000
   13.14388847  160.91400146    0.30000001    2.75000000
   13.14999962  160.91400146    0.30000001    2.75000000
   13.15416622  159.85400391    0.30000001    2.73000002
   13.15749931  155.39100647    0.31999999    2.75000000
   13.16055489  160.12500000    0.30000001    2.73000002
   13.16388893  162.62300110    0.30000001    2.73000002
   13.16722298  162.00799561    0.31999999    2.73000002
   13.16888905  167.44799805    0.30000001    2.75000000
   13.17083359  165.57000732    0.30000001    2.75000000
   13.17388916  169.02699280    0.30000001    2.75000000
   13.17722225  153.28700256    0.30000001    2.75000000
   13.18055630  156.09599304    0.31999999    2.75000000
   13.18361092  157.82899475    0.30000001    2.75000000
   13.18694496  159.63600159    0.31999999    2.75000000
   13.19277763  159.63600159    0.30000001    2.75000000
   13.19694424  154.10299683    0.31999999    2.75000000
   13.20027733  157.59800720    0.30000001    2.73000002
   13.20222187  156.91200256    0.30000001    2.73000002
   13.20388889  158.73300171    0.30000001    2.75000000
   13.20694447  155.73500061    0.30000001    2.75000000
   13.21027756  158.35899353    0.30000001    2.75000000
   13.21361065  154.66099548    0.30000001    2.75000000
   13.21666622  160.86300659    0.30000001    2.75000000
   13.21999931  149.86199951    0.30000001    2.76999998
   13.22333336  155.39100647    0.30000001    2.75000000
   13.22638798  163.69099426    0.30000001    2.75000000
   13.22972202  152.62300110    0.30000001    2.75000000
   13.23555565  152.62300110    0.30000001    2.75000000
   13.23972225  174.64999390    0.30000001    2.75000000
   13.24305534  171.94799805    0.30000001    2.75000000
   13.24638939  166.77299500    0.30000001    2.76999998
   13.24944496  186.96699524    0.30000001    2.75000000
   13.25277805  191.50900269    0.30000001    2.75000000
   13.25583363  194.24200439    0.30000001    2.75000000
   13.25916672  182.39700317    0.30000001    2.75000000
   13.26249981  158.69999695    0.30000001    2.75000000
   13.26555538  197.57699585    0.30000001    2.75000000
   13.26888847  200.93800354    0.30000001    2.76999998
   13.26944447  206.29400635    0.30000001    2.76999998
   13.27250004  193.90899658    0.30000001    2.75000000
   13.27861118  193.90899658    0.30000001    2.75000000
   13.28277779  201.11300659    0.30000001    2.75000000
   13.28583336  195.44400024    0.30000001    2.75000000
   13.28916740  175.92900085    0.30000001    2.75000000
   13.29222298  159.24299622    0.30000001    2.75000000
   13.29555607  167.26800537    0.28000000    2.75000000
   13.29888916  164.40499878    0.30000001    2.75000000
   13.30194473  152.94000244    0.30000001    2.75000000
   13.30277824  159.37300110    0.30000001    2.75000000
   13.30555534  135.47500610    0.30000001    2.76999998
   13.30888939  150.65600586    0.30000001    2.76999998
   13.31222248  143.79200745    0.30000001    2.78999996
   13.31527805  144.75100708    0.30000001    2.75000000
   13.32138920  144.75100708    0.30000001    2.75000000
   13.32555580  143.98500061    0.30000001    2.75000000
   13.32888889  157.69799805    0.30000001    2.75000000
   13.33194447  141.89100647    0.30000001    2.75000000
   13.33527756  156.27799988    0.30000001    2.75000000
   13.33611107  153.76800537    0.30000001    2.75000000
   13.33861065  134.86900330    0.30000001    2.75000000
   13.34194374  148.24099731    0.30000001    2.75000000
   13.34527779  147.90699768    0.30000001    2.76999998
   13.34833336  145.47999573    0.30000001    2.76999998
   13.35166740  152.67199707    0.30000001    2.75000000
   13.35500050  149.79100037    0.30000001    2.75000000
   13.35805607  148.29899597    0.30000001    2.75000000
   13.36416721  148.29899597    0.30000001    2.75000000
   13.36833382  163.50999451    0.30000001    2.75000000
   13.36944485  153.94999695    0.30000001    2.75000000
   13.37194443  153.32400513    0.30000001    2.75000000
   13.37527752  155.94000244    0.31999999    2.76999998
   13.37861156  151.66099548    0.30000001    2.76999998
   13.38166714  146.61799622    0.30000001    2.76999998
   13.38500023  143.29400635    0.30000001    2.76999998
   13.38833332  145.40800476    0.30000001    2.76999998
   13.39138889  148.83799744    0.30000001    2.75000000
   13.39472198  144.77499390    0.30000001    2.76999998
   13.39777756  158.03399658    0.30000001    2.75000000
   13.40111065  145.12199402    0.30000001    2.76999998
   13.40277767  150.69700623    0.30000001    2.76999998
   13.40694427  150.69700623    0.31999999    2.76999998
   13.41111088  148.29800415    0.30000001    2.76999998
   13.41444397  148.23599243    0.30000001    2.76999998
   13.41750050  158.35600281    0.31999999    2.76999998
   13.42083359  151.43099976    0.30000001    2.76999998
   13.42416668  142.92100525    0.30000001    2.78999996
   13.42722225  143.05499268    0.30000001    2.75000000
   13.43055630  152.23699951    0.31999999    2.76999998
   13.43388939  139.84100342    0.30000001    2.75000000
   13.43611145  150.51199341    0.30000001    2.75000000
   13.43722248  153.56799316    0.30000001    2.76999998
   13.44055557  147.59599304    0.30000001    2.76999998
   13.44388866  154.14700317    0.30000001    2.76999998
   13.44999981  154.14700317    0.30000001    2.76999998
   13.45416641  143.94700623    0.30000001    2.76999998
   13.45722198  151.11700439    0.30000001    2.76999998
   13.46055508  152.89500427    0.30000001    2.76999998
   13.46361065  154.13600159    0.30000001    2.76999998
   13.46694374  159.13299561    0.30000001    2.76999998
   13.46944427  151.78999329    0.30000001    2.76999998
   13.47055531  153.71800232    0.30000001    2.76999998
   13.47388840  149.58200073    0.30000001    2.76999998
   13.47722149  149.87800598    0.30000001    2.76999998
   13.48027706  149.89300537    0.30000001    2.76999998
   13.48361111  142.93899536    0.30000001    2.76999998
   13.48666668  151.36300659    0.30000001    2.76999998
   13.49277782  151.36300659    0.30000001    2.76999998
   13.49694443  149.78500366    0.30000001    2.75000000
   13.50000000  146.24099731    0.30000001    2.76999998
   13.50277805  146.84100342    0.30000001    2.76999998
   13.50361156  151.23599243    0.30000001    2.76999998
   13.50694466  149.04100037    0.30000001    2.76999998
   13.51027775  155.34399414    0.30000001    2.76999998
   13.51361084  148.33999634    0.30000001    2.76999998
   13.51666641  150.66700745    0.30000001    2.76999998
   13.51999950  151.84199524    0.30000001    2.76999998
   13.52305508  153.29600525    0.30000001    2.76999998
   13.52638817  150.60299683    0.30000001    2.76999998
   13.52972221  153.98300171    0.30000001    2.76999998
   13.53555584  153.98300171    0.30000001    2.76999998
   13.55388927  148.88099670    0.30000001    2.78999996
   13.55722237  146.56599426    0.30000001    2.78999996
   13.56055546  149.20599365    0.30000001    2.78999996
   13.56361103  141.03100586    0.28000000    2.76999998
   13.56694412  148.41499329    0.28000000    2.78999996
   13.57027817  140.92199707    0.28000000    2.78999996
   13.57333374  149.94900513    0.28000000    2.76999998
   13.57861137  149.94900513    0.28000000    2.76999998
   13.58277798  129.99499512    0.28000000    2.76999998
   13.58611107  138.43600464    0.28000000    2.78999996
   13.58694458  144.01400757    0.28000000    2.78999996
   13.58972168  142.84100342    0.28000000    2.76999998
   13.59305477  149.80200195    0.28000000    2.78999996
   13.59611034  142.76699829    0.28000000    2.76999998
   13.59944439  147.52600098    0.28000000    2.76999998
   13.60249996  144.04499817    0.28000000    2.76999998
   13.60583401  146.13499451    0.28000000    2.76999998
   13.60916710  150.22999573    0.28000000    2.76999998
   13.61222267  145.42300415    0.28000000    2.76999998
   13.61555576  149.13200378    0.28000000    2.76999998
   13.62138939  149.13200378    0.30000001    2.78999996
   13.62555599  142.80599976    0.30000001    2.76999998
   13.62888908  139.07400513    0.28000000    2.78999996
   13.63194466  148.11700439    0.28000000    2.78999996
   13.63527775  141.33500671    0.28000000    2.76999998
   13.63861084  143.83500671    0.28000000    2.76999998
   13.64166641  141.77200317    0.28000000    2.78999996
   13.64499950  140.18699646    0.28000000    2.78999996
   13.64833355  134.14999390    0.28000000    2.76999998
   13.65138817  139.85899353    0.28000000    2.76999998
   13.65361118  144.75000000    0.28000000    2.76999998
   13.65499973  143.69999695    0.28000000    2.78999996
   13.65805531  137.63499451    0.28000000    2.78999996
   13.66444397  137.63499451    0.28000000    2.76999998
   13.66833401  140.55900574    0.28000000    2.76999998
   13.67166710  134.63299561    0.28000000    2.76999998
   13.67500019  140.06900024    0.28000000    2.76999998
   13.67805576  152.15299988    0.28000000    2.78999996
   13.68138885  146.68299866    0.28000000    2.78999996
   13.68472195  147.07800293    0.28000000    2.78999996
   13.68694496  146.04800415    0.28000000    2.78999996
   13.68833351  144.19900513    0.28000000    2.78999996
   13.69138908  146.68600464    0.28000000    2.76999998
   13.69472218  147.84399414    0.28000000    2.76999998
   13.69805527  153.53900146    0.25999999    2.76999998
   13.70111084  149.60200500    0.28000000    2.78999996
   13.70722198  149.60200500    0.28000000    2.78999996
   13.71138859  138.28199768    0.28000000    2.78999996
   13.71444416  132.92999268    0.28000000    2.78999996
   13.71777725  146.62100220    0.28000000    2.78999996
   13.72027779  134.95199585    0.28000000    2.78999996
   13.72138882  137.67999268    0.28000000    2.78999996
   13.72444439  141.65800476    0.28000000    2.78999996
   13.72777748  131.60000610    0.28000000    2.78999996
   13.73111057  132.97599792    0.28000000    2.78999996
   13.73416710  130.92199707    0.28000000    2.78999996
   13.73750019  129.52200317    0.28000000    2.78999996
   13.74083328  139.59700012    0.28000000    2.76999998
   13.74388885  141.14700317    0.28000000    2.78999996
   13.75000000  141.14700317    0.28000000    2.78999996
   13.75416660  136.81100464    0.28000000    2.78999996
   13.75749969  133.89900208    0.28000000    2.78999996
   13.76055527  134.52200317    0.28000000    2.78999996
   13.76388931  136.09800720    0.30000001    2.76999998
   13.76722240  133.54600525    0.28000000    2.78999996
   13.77027798  131.14300537    0.28000000    2.78999996
   13.77361107  137.68499756    0.28000000    2.78999996
   13.77694416  133.72900391    0.30000001    2.76999998
   13.78027725  131.68600464    0.30000001    2.76999998
   13.78333378  138.80599976    0.28000000    2.78999996
   13.78666687  133.09599304    0.28000000    2.78999996
   13.78722286  137.06900024    0.28000000    2.78999996
   13.79277802  137.06900024    0.28000000    2.78999996
   13.79694462  131.54200745    0.30000001    2.78999996
   13.80027771  128.71499634    0.28000000    2.78999996
   13.80333328  132.34399414    0.28000000    2.78999996
   13.80666733  130.87800598    0.28000000    2.78999996
   13.81000042  129.85899353    0.28000000    2.78999996
   13.81305599  135.10699463    0.28000000    2.80999994
   13.81638908  136.80900574    0.28000000    2.78999996
   13.81972218  135.97799683    0.28000000    2.78999996
   13.82055569  140.95799255    0.28000000    2.78999996
   13.82333374  141.78100586    0.28000000    2.78999996
   13.82638836  141.28999329    0.28000000    2.78999996
   13.82972240  142.58399963    0.28000000    2.80999994
   13.83583260  142.58399963    0.28000000    2.78999996
   13.84000015  144.88099670    0.28000000    2.78999996
   13.84305477  138.41900635    0.28000000    2.78999996
   13.84638882  139.63200378    0.30000001    2.78999996
   13.84944439  139.11999512    0.28000000    2.78999996
   13.85277843  141.99600220    0.28000000    2.78999996
   13.85388947  140.30299377    0.28000000    2.78999996
   13.85666752  137.53300476    0.28000000    2.80999994
   13.85972214  132.08099365    0.30000001    2.78999996
   13.86305618  146.29100037    0.30000001    2.76999998
   13.86611176  140.11099243    0.30000001    2.76999998
   13.86944485  141.47200012    0.28000000    2.78999996
   13.87277794  143.36700439    0.28000000    2.78999996
   13.87861156  143.36700439    0.30000001    2.80999994
   13.88277817  135.48899841    0.31999999    2.78999996
   13.88583279  136.28500366    0.28000000    2.78999996
   13.88722229  138.88200378    0.28000000    2.78999996
   13.88972187  138.02000427    0.28000000    2.78999996
   13.89277744  142.51600647    0.28000000    2.78999996
   13.89611053  135.97300720    0.28000000    2.78999996
   13.89916611  151.55799866    0.28000000    2.78999996
   13.90249920  140.12100220    0.28000000    2.76999998
   13.90583324  145.89700317    0.28000000    2.78999996
   13.90888882  145.08399963    0.28000000    2.78999996
   13.91222191  137.58999634    0.28000000    2.78999996
   13.91527748  138.59199524    0.28000000    2.78999996
   13.92138958  138.59199524    0.28000000    2.78999996
   13.92555618  144.36300659    0.28000000    2.78999996
   13.92888927  140.09899902    0.28000000    2.80999994
   13.93194485  135.14999390    0.28000000    2.80999994
   13.93527794  145.83900452    0.28000000    2.78999996
   13.93833351  135.04200745    0.25999999    2.78999996
   13.94166660  143.95300293    0.28000000    2.78999996
   13.94499969  132.54299927    0.28000000    2.78999996
   13.94833374  137.45300293    0.28000000    2.78999996
   13.95138836  140.17100525    0.28000000    2.78999996
   13.95388889  131.97999573    0.28000000    2.78999996
   13.95499992  132.42300415    0.28000000    2.78999996
   13.95833302  138.53500366    0.28000000    2.78999996
   13.96416664  138.53500366    0.28000000    2.80999994
   13.96833324  133.21200562    0.28000000    2.78999996
   13.97166634  147.10899353    0.28000000    2.78999996
   13.97472191  171.52400208    0.28000000    2.78999996
   13.97805500  162.74099731    0.28000000    2.80999994
   13.98138809  159.75399780    0.28000000    2.78999996
   13.98444462  164.83399963    0.28000000    2.78999996
   13.98722267  163.18800354    0.28000000    2.78999996
   13.98805618  158.36300659    0.28000000    2.80999994
   13.99138927  148.13800049    0.28000000    2.78999996
   13.99472237  143.10800171    0.28000000    2.78999996
   13.99777794  146.30999756    0.28000000    2.80999994
   14.00111103  154.74299622    0.28000000    2.78999996
   14.00722218  154.74299622    0.28000000    2.78999996
   14.01111126  138.42700195    0.28000000    2.80999994
   14.01444435  138.07000732    0.28000000    2.78999996
   14.01777744  139.40100098    0.28000000    2.78999996
   14.02055550  142.36700439    0.28000000    2.78999996
   14.02111053  129.63000488    0.28000000    2.78999996
   14.02444458  128.70899963    0.28000000    2.80999994
   14.02777767  132.89599609    0.28000000    2.80999994
   14.03083324  140.23100281    0.28000000    2.78999996
   14.03444481  133.66600037    0.28000000    2.78999996
   14.03750038  134.18699646    0.28000000    2.78999996
   14.04083347  139.63299561    0.28000000    2.78999996
   14.04388905  132.21899414    0.28000000    2.78999996
   14.05000019  132.21899414    0.28000000    2.80999994
   14.05416679  139.50700378    0.28000000    2.82999992
   14.05722237  131.51300049    0.28000000    2.82999992
   14.06055546  137.99299622    0.28000000    2.78999996
   14.06388950  143.86500549    0.28000000    2.82999992
   14.06694412  138.36399841    0.28000000    2.80999994
   14.07027817  136.64900208    0.28000000    2.80999994
   14.07333374  140.84199524    0.28000000    2.80999994
   14.07666683  141.05400085    0.28000000    2.80999994
   14.07999992  136.16299438    0.25999999    2.78999996
   14.08305550  135.93200684    0.25999999    2.78999996
   14.08638859  144.92100525    0.25999999    2.78999996
   14.08722210  141.02200317    0.25999999    2.80999994
   14.09277725  141.02200317    0.25999999    2.78999996
   14.09694386  141.52900696    0.25999999    2.80999994
   14.10027790  134.67500305    0.25999999    2.80999994
   14.10333347  135.11300659    0.25999999    2.80999994
   14.10666752  139.18800354    0.25999999    2.80999994
   14.11000061  133.29299927    0.31999999    2.82999992
   14.11305618  146.26499939    0.30000001    2.80999994
   14.11638927  134.65600586    0.28000000    2.80999994
   14.11972237  138.41900635    0.25999999    2.80999994
   14.12055588  138.89300537    0.25999999    2.80999994
   14.12333393  135.08500671    0.25999999    2.78999996
   14.12638855  146.56300354    0.25999999    2.80999994
   14.12972260  145.19299316    0.28000000    2.80999994
   14.13555527  145.19299316    0.28000000    2.80999994
   14.13972187  146.16000366    0.25999999    2.78999996
   14.14305496  141.88699341    0.28000000    2.80999994
   14.14611053  150.58799744    0.28000000    2.80999994
   14.14944458  152.58799744    0.28000000    2.78999996
   14.15277767  140.11199951    0.25999999    2.80999994
   14.15388870  138.41600037    0.25999999    2.80999994
   14.15638828  133.76400757    0.25999999    2.80999994
   14.15944386  147.14399719    0.28000000    2.82999992
   14.16277695  144.14199829    0.28000000    2.82999992
   14.16583252  135.91900635    0.28000000    2.80999994
   14.16916656  137.02099609    0.28000000    2.80999994
   14.17250061  128.30400085    0.28000000    2.78999996
   14.17861176  128.30400085    0.28000000    2.80999994
   14.18249989  137.74800110    0.28000000    2.80999994
   14.18583298  137.60800171    0.28000000    2.80999994
   14.18722248  140.66600037    0.28000000    2.80999994
   14.18944454  144.50500488    0.28000000    2.80999994
   14.19250011  136.31599426    0.28000000    2.80999994
   14.19583321  149.45599365    0.28000000    2.78999996
   14.19888878  147.71200562    0.28000000    2.80999994
   14.20222187  141.09199524    0.28000000    2.80999994
   14.20555496  138.42700195    0.28000000    2.80999994
   14.20861053  138.96299744    0.28000000    2.80999994
   14.21194458  144.74299622    0.28000000    2.80999994
   14.21527767  140.00300598    0.28000000    2.80999994
   14.22138882  140.00300598    0.28000000    2.80999994
   14.22555542  133.18499756    0.28000000    2.80999994
   14.22861099  133.91299438    0.28000000    2.80999994
   14.23194408  145.91499329    0.28000000    2.80999994
   14.23527813  141.16299438    0.28000000    2.80999994
   14.23833370  134.35499573    0.28000000    2.78999996
   14.24166679  133.11399841    0.28000000    2.80999994
   14.24472237  140.17700195    0.28000000    2.80999994
   14.24805546  131.94200134    0.28000000    2.78999996
   14.25138855  129.56199646    0.28000000    2.80999994
   14.25388908  129.93800354    0.28000000    2.80999994
   14.25500011  133.22799683    0.28000000    2.80999994
   14.25805569  135.47200012    0.28000000    2.82999992
   14.26416683  135.47200012    0.30000001    2.80999994
   14.26833344  133.21299744    0.28000000    2.80999994
   14.27138901  129.96099854    0.28000000    2.80999994
   14.27472210  134.52000427    0.28000000    2.80999994
   14.27805519  137.53999329    0.28000000    2.80999994
   14.28138828  134.56100464    0.28000000    2.80999994
   14.28444481  139.73399353    0.28000000    2.80999994
   14.28722286  140.22599792    0.28000000    2.80999994
   14.28833389  133.61599731    0.28000000    2.80999994
   14.29138947  139.77799988    0.28000000    2.80999994
   14.29472256  137.47399902    0.28000000    2.78999996
   14.29805565  140.06599426    0.28000000    2.80999994
   14.30111122  131.39500427    0.28000000    2.82999992
   14.30694485  131.39500427    0.28000000    2.80999994
   14.31111145  137.30400085    0.25999999    2.80999994
   14.31444454  132.76100159    0.28000000    2.80999994
   14.31750011  124.90599823    0.28000000    2.80999994
   14.32055569  133.70899963    0.28000000    2.80999994
   14.32138920  138.16799927    0.28000000    2.80999994
   14.32444477  132.99299622    0.25999999    2.80999994
   14.32777786  133.60099792    0.28000000    2.80999994
   14.33111095  137.33700562    0.25999999    2.82999992
   14.33416653  131.83399963    0.25999999    2.82999992
   14.33749962  129.86099243    0.25999999    2.82999992
   14.34055519  128.58099365    0.25999999    2.80999994
   14.34388828  133.30200195    0.25999999    2.80999994
   14.35000038  133.30200195    0.25999999    2.84999990
   14.35388947  135.79400635    0.25999999    2.80999994
   14.35722256  129.06599426    0.28000000    2.82999992
   14.36055565  130.95399475    0.28000000    2.82999992
   14.36361122  139.88200378    0.28000000    2.80999994
   14.36694431  138.44999695    0.25999999    2.80999994
   14.37027836  135.49400330    0.25999999    2.82999992
   14.37333393  131.57099915    0.28000000    2.82999992
   14.37666702  132.83000183    0.25999999    2.80999994
   14.38000011  133.33700562    0.25999999    2.80999994
   14.38305569  140.20799255    0.25999999    2.82999992
   14.38638878  127.55500031    0.25999999    2.82999992
   14.38722229  132.18899536    0.25999999    2.80999994
   14.39277744  132.18899536    0.25999999    2.80999994
   14.39694405  132.67500305    0.25999999    2.80999994
   14.39999962  134.22000122    0.25999999    2.82999992
   14.40333271  133.43099976    0.25999999    2.82999992
   14.40638828  130.99400330    0.25999999    2.82999992
   14.40972137  126.08599854    0.25999999    2.82999992
   14.41305542  130.32000732    0.25999999    2.80999994
   14.41611099  140.80999756    0.25999999    2.82999992
   14.41944504  128.88400269    0.25999999    2.82999992
   14.42055607  127.30699921    0.25999999    2.82999992
   14.42305565  133.03799438    0.28000000    2.80999994
   14.42611122  132.92700195    0.28000000    2.80999994
   14.42944431  135.78599548    0.28000000    2.80999994
   14.43555546  135.78599548    0.28000000    2.80999994
   14.43972206  134.29100037    0.28000000    2.82999992
   14.44305515  124.55799866    0.28000000    2.82999992
   14.44611073  131.51699829    0.28000000    2.80999994
   14.44944477  132.29899597    0.28000000    2.82999992
   14.45277786  130.56199646    0.25999999    2.82999992
   14.45388889  130.12300110    0.25999999    2.82999992
   14.45638847  134.75999451    0.28000000    2.80999994
   14.45944405  132.77999878    0.28000000    2.80999994
   14.46277714  133.22300720    0.28000000    2.80999994
   14.46611118  136.31700134    0.28000000    2.82999992
   14.46916580  136.10200500    0.28000000    2.82999992
   14.47249985  134.00000000    0.28000000    2.82999992
   14.47833252  134.00000000    0.28000000    2.82999992
   14.48249912  137.29299927    0.28000000    2.82999992
   14.48583317  131.05599976    0.30000001    2.80999994
   14.48722267  134.97099304    0.30000001    2.80999994
   14.58583260   -1.00000000   -1.00000000   -1.00000000
   14.80666733   -1.00000000   -1.00000000   -1.00000000
   15.03166676   -1.00000000   -1.00000000   -1.00000000
   15.12277794   89.71080017    0.31999999    2.84999990
   15.12611103  143.32699585    0.30000001    2.82999992
   15.12916660  143.35600281    0.30000001    2.84999990
   15.13249969  139.79899597    0.30000001    2.82999992
   15.13583279  139.38299561    0.30000001    2.84999990
   15.13888836  139.01499939    0.30000001    2.82999992
   15.14305496  139.01499939    0.30000001    2.84999990
   15.14722252  137.70399475    0.28000000    2.84999990
   15.15055561  141.47700500    0.28000000    2.82999992
   15.15361118  143.80700684    0.28000000    2.84999990
   15.15611076  142.88099670    0.28000000    2.84999990
   15.15749931  134.09899902    0.30000001    2.84999990
   15.16055489  142.62399292    0.30000001    2.84999990
   15.16388893  136.17100525    0.30000001    2.84999990
   15.16694450  133.64700317    0.31999999    2.82999992
   15.17027855  139.13499451    0.31999999    2.82999992
   15.17361164  137.32000732    0.34000000    2.84999990
   15.17666721  136.21099854    0.31999999    2.82999992
   15.18000031  136.35800171    0.31999999    2.86999989
   15.18583298  136.35800171    0.34000000    2.82999992
   15.19000053  138.25000000    0.34000000    2.84999990
   15.19333363  135.83700562    0.34000000    2.82999992
   15.19638920  136.04899597    0.34000000    2.82999992
   15.19972229  140.95799255    0.34000000    2.82999992
   15.20305538  137.02900696    0.34000000    2.82999992
   15.20611095  128.84100342    0.34000000    2.84999990
   15.20944405  131.48899841    0.34000000    2.82999992
   15.21277714  125.61799622    0.34000000    2.82999992
   15.21583271  135.77400208    0.31999999    2.82999992
   15.21916580  132.81500244    0.30000001    2.82999992
   15.22222137  137.61999512    0.31999999    2.82999992
   15.22277737  134.91900635    0.31999999    2.82999992
   15.22888851  134.91900635    0.31999999    2.82999992
   15.23277760  135.59100342    0.31999999    2.84999990
   15.23611164  136.67100525    0.31999999    2.84999990
   15.23944473  135.83700562    0.34000000    2.84999990
   15.24250031  137.88600159    0.34000000    2.82999992
   15.24583340  131.84599304    0.34000000    2.82999992
   15.24916649  138.95100403    0.34000000    2.82999992
   15.25222206  137.75300598    0.34000000    2.84999990
   15.25555515  134.67300415    0.34000000    2.84999990
   15.25611115  133.99400330    0.34000000    2.84999990
   15.25916672  139.60699463    0.34000000    2.82999992
   15.26222229  137.10499573    0.34000000    2.82999992
   15.26555538  130.28100586    0.34000000    2.82999992
   15.27166653  130.28100586    0.34000000    2.84999990
   15.27583313  138.18899536    0.31999999    2.84999990
   15.27888870  130.64399719    0.31999999    2.84999990
   15.28222179  134.34300232    0.31999999    2.84999990
   15.28555584  137.01699829    0.31999999    2.84999990
   15.28861141  133.25900269    0.31999999    2.84999990
   15.28944492  131.03900146    0.31999999    2.84999990
   15.29222298  138.28500366    0.31999999    2.84999990
   15.29555607  136.44599915    0.31999999    2.84999990
   15.29861164  129.54899597    0.31999999    2.82999992
   15.30194473  138.92300415    0.31999999    2.82999992
   15.30500031  131.73100281    0.31999999    2.84999990
   15.30833340  129.69599915    0.31999999    2.82999992
   15.31444454  129.69599915    0.34000000    2.84999990
   15.31861115  122.15399933    0.34000000    2.84999990
   15.32194424  129.72500610    0.34000000    2.84999990
   15.32277775  125.68900299    0.34000000    2.84999990
   15.32555580  130.41700745    0.36000001    2.84999990
   15.32888889  129.67500305    0.38000000    2.82999992
   15.33194447  130.26899719    0.40000001    2.82999992
   15.33527756  133.57600403    0.40000001    2.82999992
   15.33833313  132.10699463    0.36000001    2.82999992
   15.34166622  128.51199341    0.34000000    2.82999992
   15.34499931  135.46299744    0.36000001    2.84999990
   15.34805489  127.59700012    0.34000000    2.84999990
   15.35138893  132.07299805    0.36000001    2.84999990
   15.35722256  132.07299805    0.34000000    2.84999990
   15.36138916  129.21299744    0.34000000    2.82999992
   15.36472225  135.81900024    0.34000000    2.84999990
   15.36777782  122.13700104    0.36000001    2.84999990
   15.37111092  124.83000183    0.36000001    2.84999990
   15.37444496  125.45899963    0.40000001    2.84999990
   15.37750053  134.39300537    0.47999999    2.84999990
   15.38083363  132.37100220    0.36000001    2.84999990
   15.38416672  129.16600037    0.36000001    2.84999990
   15.38722229  128.49600220    0.40000001    2.84999990
   15.38944435  130.00100708    0.38000000    2.82999992
   15.39083290  132.88600159    0.38000000    2.82999992
   15.39416695  126.91699982    0.36000001    2.84999990
   15.40027714  126.91699982    0.36000001    2.82999992
   15.40416622  129.76300049    0.36000001    2.84999990
   15.40749931  135.75500488    0.34000000    2.84999990
   15.41083336  129.40299988    0.36000001    2.80999994
   15.41388893  131.35200500    0.34000000    2.84999990
   15.41722298  125.13200378    0.34000000    2.84999990
   15.42055607  131.19099426    0.34000000    2.82999992
   15.42277813  127.65599823    0.34000000    2.84999990
   15.42416668  121.96099854    0.34000000    2.84999990
   15.42750072  131.08700562    0.34000000    2.84999990
   15.43055630  128.23800659    0.34000000    2.82999992
   15.43388939  135.46600342    0.34000000    2.82999992
   15.43722248  128.92599487    0.34000000    2.82999992
   15.44305515  128.92599487    0.31999999    2.82999992
   15.44722271  134.00000000    0.31999999    2.84999990
   15.45027733  137.11999512    0.31999999    2.84999990
   15.45361137  130.60899353    0.31999999    2.84999990
   15.45611095  128.97700500    0.31999999    2.84999990
   15.45722198  130.11500549    0.31999999    2.84999990
   15.46055508  124.60299683    0.31999999    2.82999992
   15.46361065  134.91900635    0.31999999    2.82999992
   15.46694374  127.23999786    0.31999999    2.82999992
   15.47027779  131.39900208    0.31999999    2.84999990
   15.47333336  133.07200623    0.31999999    2.82999992
   15.47666645  131.87100220    0.31999999    2.84999990
   15.47999954  132.25999451    0.31999999    2.84999990
   15.48583317  132.25999451    0.31999999    2.82999992
   15.49000072  129.91400146    0.31999999    2.84999990
   15.49333382  133.16700745    0.31999999    2.84999990
   15.49638939  123.92099762    0.31999999    2.84999990
   15.49972248  134.14900208    0.31999999    2.82999992
   15.50277805  127.78099823    0.34000000    2.84999990
   15.50611115  125.23400116    0.34000000    2.84999990
   15.50944424  131.27999878    0.34000000    2.84999990
   15.51249981  130.94500732    0.31999999    2.84999990
   15.51583290  130.85800171    0.31999999    2.84999990
   15.51916599  131.61799622    0.34000000    2.84999990
   15.52222157  127.21900177    0.34000000    2.84999990
   15.52277756  126.77899933    0.34000000    2.84999990
   15.52861118  126.77899933    0.31999999    2.82999992
   15.53277779  132.19099426    0.31999999    2.84999990
   15.53611183  128.35899353    0.31999999    2.84999990
   15.53944492  129.66799927    0.31999999    2.84999990
   15.54250050  126.61699677    0.34000000    2.82999992
   15.54583359  131.86500549    0.34000000    2.82999992
   15.54916668  135.78700256    0.36000001    2.84999990
   15.55222225  131.13200378    0.40000001    2.82999992
   15.55555534  128.69999695    0.41999999    2.84999990
   15.55611134  129.49499512    0.41999999    2.84999990
   15.55916691  137.14100647    0.41999999    2.82999992
   15.56250000  132.76899719    0.41999999    2.82999992
   15.56555557  133.02499390    0.47999999    2.84999990
   15.57166672  133.02499390    0.64999998    2.82999992
   15.57555580  131.57000732    0.63000000    2.82999992
   15.57888889  128.91799927    0.51999998    2.82999992
   15.58222198  126.75700378    0.40000001    2.84999990
   15.58527756  127.22299957    0.40000001    2.84999990
   15.58861065  130.91900635    0.34000000    2.84999990
   15.58944416  130.24800110    0.34000000    2.84999990
   15.59222221  132.65199280    0.34000000    2.84999990
   15.59555531  137.75399780    0.34000000    2.82999992
   15.59861088  130.79499817    0.34000000    2.84999990
   15.60194492  137.65899658    0.36000001    2.82999992
   15.60527802  135.33299255    0.36000001    2.84999990
   15.60833359  135.10400391    0.36000001    2.82999992
   15.61444473  135.10400391    0.34000000    2.82999992
   15.61861134  133.98699951    0.31999999    2.84999990
   15.62166691  130.38999939    0.31999999    2.84999990
   15.62277794  128.21400452    0.34000000    2.84999990
   15.62527752  135.52600098    0.34000000    2.84999990
   15.62861156  132.64500427    0.34000000    2.82999992
   15.63166714  129.41200256    0.34000000    2.82999992
   15.63500023  123.04699707    0.31999999    2.82999992
   15.63833332  129.64999390    0.34000000    2.84999990
   15.64138889  135.52699280    0.34000000    2.84999990
   15.64472198  124.35700226    0.34000000    2.84999990
   15.64777756  131.01400757    0.36000001    2.82999992
   15.65111065  130.59500122    0.34000000    2.82999992
   15.65722179  130.59500122    0.36000001    2.82999992
   15.66138840  122.86199951    0.36000001    2.82999992
   15.66472149  131.43099976    0.36000001    2.82999992
   15.66777802  132.43600464    0.36000001    2.84999990
   15.67111111  131.70500183    0.36000001    2.84999990
   15.67416668  126.09300232    0.36000001    2.84999990
   15.67750072  127.38899994    0.36000001    2.84999990
   15.68083382  129.92799377    0.36000001    2.82999992
   15.68388939  130.08200073    0.36000001    2.82999992
   15.68722248  131.43099976    0.36000001    2.84999990
   15.68944454  125.67099762    0.36000001    2.84999990
   15.69083309  129.80299377    0.36000001    2.84999990
   15.69416714  128.40499878    0.36000001    2.84999990
   15.69999981  128.40499878    0.34000000    2.82999992
   15.70416641  130.51499939    0.34000000    2.84999990
   15.70749950  132.20100403    0.34000000    2.82999992
   15.71083355  128.51300049    0.34000000    2.84999990
   15.71388912  128.19799805    0.34000000    2.82999992
   15.71722221  127.38600159    0.34000000    2.82999992
   15.72055531  129.03500366    0.31999999    2.84999990
   15.72277737  129.73899841    0.31999999    2.82999992
   15.72416592  126.90699768    0.31999999    2.82999992
   15.72749996  128.90400696    0.30000001    2.84999990
   15.73055553  130.69299316    0.30000001    2.84999990
   15.73388958  131.41299438    0.30000001    2.84999990
   15.73722267  138.46600342    0.30000001    2.84999990
   15.74305534  138.46600342    0.30000001    2.82999992
   15.74694443  135.92700195    0.30000001    2.84999990
   15.75027752  136.30099487    0.31999999    2.84999990
   15.75361156  135.13699341    0.31999999    2.84999990
   15.75611115  132.38800049    0.31999999    2.84999990
   15.75722218  135.66000366    0.30000001    2.84999990
   15.76055527  133.04600525    0.30000001    2.84999990
   15.76361084  134.52200317    0.30000001    2.84999990
   15.76694393  131.64799500    0.30000001    2.84999990
   15.77027798  129.26100159    0.31999999    2.84999990
   15.77333355  135.16600037    0.31999999    2.84999990
   15.77666664  133.42500305    0.31999999    2.82999992
   15.77972221  131.61700439    0.31999999    2.84999990
   15.78583336  131.61700439    0.34000000    2.84999990
   15.79000092  131.72900391    0.31999999    2.82999992
   15.79305553  128.52099609    0.31999999    2.84999990
   15.79638958  132.48699951    0.34000000    2.82999992
   15.79972267  134.92799377    0.34000000    2.82999992
   15.80277824  133.89300537    0.34000000    2.82999992
   15.80611134  132.36199951    0.34000000    2.82999992
   15.80916691  131.83299255    0.34000000    2.82999992
   15.81250000  137.67799377    0.34000000    2.82999992
   15.81583309  133.55799866    0.34000000    2.82999992
   15.81888866  136.40699768    0.34000000    2.82999992
   15.82222176  130.55700684    0.34000000    2.82999992
   15.82277775  134.17100525    0.36000001    2.82999992
   15.82861137  134.17100525    0.34000000    2.82999992
   15.83277798  131.18699646    0.34000000    2.82999992
   15.83611107  132.37399292    0.34000000    2.82999992
   15.83916664  133.31100464    0.34000000    2.82999992
   15.84249973  134.93699646    0.31999999    2.82999992
   15.84555531  134.40800476    0.31999999    2.84999990
   15.84888840  135.38400269    0.31999999    2.82999992
   15.85222244  136.22000122    0.31999999    2.82999992
   15.85527802  136.12500000    0.34000000    2.82999992
   15.85611153  131.09399414    0.34000000    2.82999992
   15.85888958  133.36999512    0.34000000    2.82999992
   15.86222267  129.97399902    0.31999999    2.82999992
   15.86527824  134.15199280    0.31999999    2.82999992
   15.87138939  134.15199280    0.34000000    2.80999994
   15.87555599  136.06300354    0.34000000    2.82999992
   15.87888908  136.83299255    0.34000000    2.82999992
   15.88222218  136.05900574    0.34000000    2.82999992
   15.88527775  139.33399963    0.34000000    2.82999992
   15.88861084  139.32400513    0.34000000    2.80999994
   15.88972187  137.02099609    0.34000000    2.80999994
   15.89222240  137.58900452    0.34000000    2.82999992
   15.89555550  134.57499695    0.34000000    2.82999992
   15.89861107  132.88000488    0.34000000    2.82999992
   15.90194416  138.16499329    0.34000000    2.82999992
   15.90527725  130.80900574    0.34000000    2.82999992
   15.90833282  130.86099243    0.34000000    2.80999994
   15.91416645  130.86099243    0.34000000    2.82999992
   15.91833401  131.81900024    0.36000001    2.82999992
   15.92166710  129.34599304    0.36000001    2.82999992
   15.92277813  128.87199402    0.36000001    2.82999992
   15.92527771  138.85699463    0.36000001    2.82999992
   15.92861176  132.99200439    0.36000001    2.82999992
   15.93166733  134.23500061    0.36000001    2.82999992
   15.93500042  139.51699829    0.41999999    2.80999994
   15.93833351  133.70700073    0.36000001    2.82999992
   15.94138908  131.76499939    0.36000001    2.82999992
   15.94472218  134.61399841    0.38000000    2.82999992
   15.94805527  137.01300049    0.38000000    2.82999992
   15.95111084  135.87699890    0.38000000    2.82999992
   15.95722198  135.87699890    0.40000001    2.82999992
   15.96138859  135.71499634    0.44000000    2.82999992
   15.96444416  132.23899841    0.40000001    2.82999992
   15.96777725  131.92500305    0.38000000    2.82999992
   15.97111034  135.35400391    0.38000000    2.82999992
   15.97416592  130.82000732    0.38000000    2.82999992
   15.97749996  132.89399719    0.36000001    2.82999992
   15.98055553  133.05799866    0.36000001    2.82999992
   15.98388958  135.50500488    0.36000001    2.82999992
   15.98722267  128.72799683    0.36000001    2.82999992
   15.98972225  131.15800476    0.36000001    2.82999992
   15.99055576  133.20399475    0.36000001    2.82999992
   15.99388885  130.75000000    0.36000001    2.82999992
   16.00000000  130.75000000    0.36000001    2.82999992
   16.00416756  130.71699524    0.34000000    2.82999992
   16.00749969  131.02799988    0.34000000    2.82999992
   16.01055527  133.48699951    0.36000001    2.82999992
   16.01388931  137.37600708    0.38000000    2.82999992
   16.01722145  135.25799561    0.41999999    2.82999992
   16.02055550  133.09300232    0.38000000    2.82999992
   16.02305603  133.60200500    0.38000000    2.82999992
   16.02388954  133.54100037    0.38000000    2.82999992
   16.02722168  135.33999634    0.36000001    2.82999992
   16.03027725  129.52099609    0.36000001    2.82999992
   16.03361130  131.99299622    0.36000001    2.82999992
   16.03694344  131.81900024    0.36000001    2.82999992
   16.04277802  131.81900024    0.38000000    2.82999992
   16.04694366  130.59199524    0.38000000    2.82999992
   16.05027771  137.63800049    0.38000000    2.82999992
   16.05333328  132.53199768    0.38000000    2.82999992
   16.05638885  133.46400452    0.38000000    2.82999992
   16.05694389  134.34399414    0.38000000    2.82999992
   16.06027794  133.89700317    0.38000000    2.80999994
   16.06361008  143.08700562    0.38000000    2.80999994
   16.06666756  135.21299744    0.38000000    2.82999992
   16.07027817  144.16999817    0.38000000    2.82999992
   16.07333374  139.89500427    0.40000001    2.82999992
   16.07666779  135.28300476    0.40000001    2.82999992
   16.08000183  135.25799561    0.40000001    2.82999992
   16.08583450  135.25799561    0.41999999    2.82999992
   16.08972359  132.63400269    0.44000000    2.82999992
   16.09305573  136.12500000    0.44000000    2.82999992
   16.09638977  133.70399475    0.41999999    2.82999992
   16.09944534  134.04100037    0.44000000    2.82999992
   16.10277748  122.94200134    0.44000000    2.82999992
   16.10611153  132.30900574    0.44000000    2.82999992
   16.10916710  132.37100220    0.44000000    2.82999992
   16.11250114  130.70500183    0.44000000    2.82999992
   16.11583328  130.28700256    0.44000000    2.82999992
   16.11888885  139.65400696    0.44000000    2.82999992
   16.12222290  136.70100403    0.44000000    2.82999992
   16.12305641  131.17300415    0.44000000    2.82999992
   16.14361191  131.17300415    0.41999999    2.82999992
   16.14777756  136.14900208    0.40000001    2.82999992
   16.15111160  135.52999878    0.40000001    2.82999992
   16.15444374  133.13699341    0.40000001    2.82999992
   16.15638924  132.61300659    0.40000001    2.82999992
   16.15777779  135.56199646    0.40000001    2.82999992
   16.16110992  136.34700012    0.41999999    2.82999992
   16.16444397  132.01199341    0.44000000    2.82999992
   16.16749954  133.75599670    0.44000000    2.82999992
   16.17083359  138.32299805    0.44000000    2.82999992
   16.17388916  131.51199341    0.44000000    2.82999992
   16.17722130  132.95700073    0.41999999    2.82999992
   16.18055534  133.77200317    0.41999999    2.82999992
   16.18638802  133.77200317    0.41999999    2.82999992
   16.19055557  137.57200623    0.41999999    2.82999992
   16.19388771  134.77499390    0.40000001    2.82999992
   16.19694328  132.23899841    0.44000000    2.82999992
   16.20027924  131.40699768    0.44000000    2.82999992
   16.20361137  131.61500549    0.46000001    2.82999992
   16.20666695  138.45899963    0.44000000    2.82999992
   16.21000099  134.63999939    0.44000000    2.82999992
   16.21305656  130.83999634    0.44000000    2.82999992
   16.21638870  135.01499939    0.40000001    2.82999992
   16.21972275  134.54299927    0.40000001    2.82999992
   16.22277832  133.96899414    0.38000000    2.82999992
   16.22333336  134.92100525    0.38000000    2.82999992
   16.22916794  134.92100525    0.38000000    2.82999992
   16.23333359  129.86500549    0.38000000    2.80999994
   16.23666763  137.46000671    0.40000001    2.84999990
   16.23999977  137.18800354    0.41999999    2.82999992
   16.24305534  134.46400452    0.41999999    2.82999992
   16.24638939  132.82299805    0.41999999    2.82999992
   16.24944496  130.38200378    0.41999999    2.82999992
   16.25277710  136.71200562    0.41999999    2.82999992
   16.25611115  137.17599487    0.44000000    2.82999992
   16.25666618  138.26499939    0.44000000    2.82999992
   16.25972176  132.25399780    0.41999999    2.82999992
   16.26277733  138.92799377    0.41999999    2.82999992
   16.26611137  131.18099976    0.44000000    2.82999992
   16.27222252  131.18099976    0.44000000    2.82999992
   16.27638817  139.36799622    0.44000000    2.82999992
   16.27944374  128.87699890    0.47999999    2.82999992
   16.28277779  134.54200745    0.55000001    2.82999992
   16.28583336  132.52000427    0.79000002    2.82999992
   16.28916550  142.46400452    0.50000000    2.82999992
   16.28999901  136.80000305    0.50000000    2.82999992
   16.29277802  133.67500305    0.41999999    2.84999990
   16.29583359  131.13999939    0.40000001    2.82999992
   16.29916573  134.96400452    0.40000001    2.84999990
   16.30249977  137.74499512    0.40000001    2.84999990
   16.30638885  133.80999756    0.38000000    2.82999992
   16.30944443  141.27200317    0.40000001    2.82999992
   16.31499863  141.27200317    0.38000000    2.82999992
   16.31916809  141.80700684    0.40000001    2.82999992
   16.32222366  139.13999939    0.40000001    2.82999992
   16.32333374  133.83599854    0.40000001    2.82999992
   16.32583427  136.70399475    0.40000001    2.82999992
   16.32888985  137.70399475    0.40000001    2.82999992
   16.33222389  139.87399292    0.40000001    2.82999992
   16.33555603  143.97000122    0.40000001    2.82999992
   16.33861160  144.07800293    0.40000001    2.82999992
   16.34194565  136.46400452    0.40000001    2.82999992
   16.34527779  139.37500000    0.40000001    2.82999992
   16.34833336  141.09300232    0.40000001    2.82999992
   16.35166740  138.05400085    0.40000001    2.82999992
   16.35777855  138.05400085    0.40000001    2.82999992
   16.36194420  139.23100281    0.41999999    2.82999992
   16.36527824  139.64500427    0.41999999    2.82999992
   16.36833382  137.87199402    0.41999999    2.82999992
   16.37166595  138.14700317    0.41999999    2.82999992
   16.37500000  138.34199524    0.41999999    2.82999992
   16.37805557  134.55900574    0.41999999    2.82999992
   16.38138962  138.84500122    0.41999999    2.82999992
   16.38444519  136.76400757    0.41999999    2.82999992
   16.38777733  129.18200684    0.41999999    2.82999992
   16.38999939  140.17100525    0.44000000    2.82999992
   16.39138794  141.14300537    0.44000000    2.82999992
   16.39444351  138.54400635    0.44000000    2.84999990
   16.40083313  138.54400635    0.41999999    2.82999992
   16.40499878  134.23300171    0.44000000    2.82999992
   16.40833282  138.77299500    0.41999999    2.82999992
   16.41138840  142.69999695    0.41999999    2.82999992
   16.41472244  137.60600281    0.44000000    2.82999992
   16.41777802  137.32800293    0.44000000    2.82999992
   16.42111015  139.55999756    0.46000001    2.82999992
   16.42333221  140.31700134    0.47999999    2.82999992
   16.42472076  137.37199402    0.47999999    2.82999992
   16.42777634  135.21099854    0.47999999    2.82999992
   16.43111038  134.01600647    0.47999999    2.82999992
   16.43444443  135.74499512    0.44000000    2.82999992
   16.43750000  131.69400024    0.44000000    2.82999992
   16.44361115  131.69400024    0.44000000    2.82999992
   16.44777679  134.14300537    0.44000000    2.82999992
   16.45083427  132.20500183    0.46000001    2.82999992
   16.45416832  138.53599548    0.47999999    2.82999992
   16.45666695  134.02400208    0.47999999    2.82999992
   16.45777893  133.75900269    0.47999999    2.82999992
   16.46111107  134.73800659    0.46000001    2.82999992
   16.46416664  139.36099243    0.47999999    2.82999992
   16.46750069  142.00700378    0.47999999    2.82999992
   16.47055626  149.02999878    0.46000001    2.84999990
   16.47389030  137.92399597    0.46000001    2.82999992
   16.47722244  137.33299255    0.46000001    2.82999992
   16.48027802  138.60600281    0.46000001    2.82999992
   16.48638916  138.60600281    0.46000001    2.82999992
   16.49055672  140.61500549    0.46000001    2.82999992
   16.49361229  132.67300415    0.46000001    2.82999992
   16.49694443  141.45399475    0.46000001    2.82999992
   16.50027847  143.38400269    0.46000001    2.82999992
   16.50333405  147.21600342    0.46000001    2.82999992
   16.50666618  134.32499695    0.47999999    2.82999992
   16.51000023  142.97399902    0.47999999    2.82999992
   16.51305580  142.41299438    0.47999999    2.82999992
   16.51638794  137.63800049    0.46000001    2.82999992
   16.51944351  145.56100464    0.47999999    2.82999992
   16.52277756  134.18600464    0.46000001    2.82999992
   16.52333260  138.87300110    0.46000001    2.82999992
   16.52916718  138.87300110    0.44000000    2.84999990
   16.53333282  140.24200439    0.44000000    2.82999992
   16.53666687  139.44900513    0.44000000    2.82999992
   16.53972244  144.28799438    0.46000001    2.82999992
   16.54305458  142.38200378    0.46000001    2.82999992
   16.54638863  143.26499939    0.44000000    2.82999992
   16.54944420  140.41099548    0.44000000    2.80999994
   16.55277634  140.72300720    0.44000000    2.82999992
   16.55583191  140.42100525    0.44000000    2.82999992
   16.55666542  136.96200562    0.44000000    2.82999992
   16.55944443  137.63200378    0.44000000    2.82999992
   16.56277657  138.31599426    0.44000000    2.82999992
   16.56583214  144.93200684    0.44000000    2.82999992
   16.57194519  144.93200684    0.46000001    2.82999992
   16.57611275  135.03599548    0.47999999    2.82999992
   16.57944489  140.09500122    0.47999999    2.82999992
   16.58277893  138.11900330    0.47999999    2.82999992
   16.58583450  134.96499634    0.47999999    2.82999992
   16.58916664  133.29800415    0.47999999    2.84999990
   16.59000015  135.78199768    0.47999999    2.84999990
   16.59277916  132.92100525    0.47999999    2.82999992
   16.59611130  133.12699890    0.47999999    2.82999992
   16.59916687  139.66799927    0.50000000    2.82999992
   16.60250092  143.36099243    0.47999999    2.82999992
   16.60555649  140.15899658    0.50000000    2.82999992
   16.60888863  139.38999939    0.50000000    2.82999992
   16.61499977  139.38999939    0.50000000    2.82999992
   16.61916733  139.12899780    0.46000001    2.82999992
   16.62222290  142.61599731    0.46000001    2.82999992
   16.62333298  142.94200134    0.46000001    2.82999992
   16.62583351  142.11999512    0.46000001    2.82999992
   16.62916756  144.21800232    0.46000001    2.82999992
   16.63222313  141.57899475    0.47999999    2.82999992
   16.63555527  138.78500366    0.47999999    2.82999992
   16.63861084  136.15400696    0.46000001    2.82999992
   16.64194489  135.95700073    0.46000001    2.82999992
   16.64527702  140.03700256    0.46000001    2.82999992
   16.64833260  138.00300598    0.47999999    2.82999992
   16.65166664  138.11099243    0.44000000    2.82999992
   16.65777779  138.11099243    0.46000001    2.82999992
   16.66194344  137.62699890    0.46000001    2.82999992
   16.66499901  138.77400208    0.46000001    2.82999992
   16.66833305  145.08599854    0.44000000    2.82999992
   16.67166519  141.56399536    0.46000001    2.82999992
   16.67472076  139.41400146    0.46000001    2.80999994
   16.67805481  139.98899841    0.61000001    2.80999994
   16.68138885  141.42700195    0.76999998    2.82999992
   16.68444443  139.20399475    0.76999998    2.82999992
   16.68777657  142.65699768    0.76999998    2.82999992
   16.68999863  143.50700378    0.70999998    2.80999994
   16.69138718  134.69400024    0.47999999    2.82999992
   16.69444275  137.06300354    0.47999999    2.82999992
   16.70055580  137.06300354    0.51999998    2.82999992
   16.70472336  141.28799438    0.50000000    2.82999992
   16.70805550  134.43499756    0.47999999    2.82999992
   16.71111107  134.09800720    0.47999999    2.82999992
   16.71444511  133.93299866    0.47999999    2.82999992
   16.71750069  135.76300049    0.47999999    2.82999992
   16.72083473  136.41799927    0.47999999    2.82999992
   16.72333336  141.57600403    0.46000001    2.82999992
   16.72444534  133.73500061    0.46000001    2.82999992
   16.72777748  138.32899475    0.47999999    2.82999992
   16.73083305  132.27900696    0.47999999    2.82999992
   16.73416710  139.07499695    0.47999999    2.82999992
   16.73750114  144.47700500    0.46000001    2.82999992
   16.74333382  144.47700500    0.46000001    2.82999992
   16.74749947  140.80200195    0.46000001    2.82999992
   16.75083351  139.81900024    0.47999999    2.82999992
   16.75416756  135.67300415    0.47999999    2.82999992
   16.75666618  138.54899597    0.50000000    2.82999992
   16.75777817  143.34899902    0.50000000    2.82999992
   16.76111031  140.14399719    0.47999999    2.82999992
   16.76416588  134.44599915    0.47999999    2.82999992
   16.76749992  136.18899536    0.50000000    2.82999992
   16.77055550  139.16099548    0.51999998    2.82999992
   16.77388954  139.02400208    0.50000000    2.82999992
   16.77722168  134.98399353    0.50000000    2.82999992
   16.78027725  139.34399414    0.50000000    2.82999992
   16.78638840  139.34399414    0.51999998    2.82999992
   16.79055595  134.13999939    0.51999998    2.82999992
   16.79361153  138.64900208    0.52999997    2.80999994
   16.79694366  138.85699463    0.51999998    2.82999992
   16.79999924  137.66799927    0.51999998    2.82999992
   16.80333328  137.46200562    0.51999998    2.82999992
   16.80666542  134.60400391    0.51999998    2.82999992
   16.80972099  145.40699768    0.51999998    2.82999992
   16.81305504  142.84899902    0.52999997    2.82999992
   16.81638718  142.99400330    0.52999997    2.82999992
   16.81944466  149.22300720    0.52999997    2.82999992
   16.82277870  136.99699402    0.55000001    2.82999992
   16.82333374  143.21000671    0.55000001    2.82999992
   16.82916832  143.21000671    0.51999998    2.80999994
   16.83333397  139.99000549    0.51999998    2.82999992
   16.83638954  140.90400696    0.52999997    2.82999992
   16.83972359  136.20899963    0.51999998    2.82999992
   16.84305573  138.11900330    0.52999997    2.82999992
   16.84611130  143.04899597    0.52999997    2.82999992
   16.84944534  137.42999268    0.52999997    2.82999992
   16.85277748  135.79200745    0.55000001    2.82999992
   16.85583305  135.36000061    0.52999997    2.82999992
   16.85666656  135.00300598    0.52999997    2.82999992
   16.85944557  136.40100098    0.51999998    2.82999992
   16.86277771  135.85699463    0.52999997    2.82999992
   16.86583328  135.70100403    0.51999998    2.82999992
   16.87194443  135.70100403    0.51999998    2.82999992
   16.87611198  138.33799744    0.52999997    2.82999992
   16.87944412  134.34899902    0.51999998    2.82999992
   16.88249969  134.01699829    0.52999997    2.82999992
   16.88583374  139.91900635    0.51999998    2.82999992
   16.88916588  135.70599365    0.52999997    2.82999992
   16.88999939  135.69299316    0.52999997    2.82999992
   16.89249992  136.24200439    0.55000001    2.82999992
   16.89583397  141.02099609    0.52999997    2.80999994
   16.89888954  135.42100525    0.52999997    2.80999994
   16.90222168  139.13999939    0.51999998    2.82999992
   16.90527725  136.29699707    0.51999998    2.82999992
   16.90861130  133.78100586    0.52999997    2.82999992
   16.91472244  133.78100586    0.52999997    2.82999992
   16.91888809  139.36599731    0.55000001    2.80999994
   16.92222214  138.43299866    0.52999997    2.82999992
   16.92333221  138.48199463    0.52999997    2.82999992
   16.92583275  138.22300720    0.52999997    2.80999994
   16.92916679  140.05599976    0.52999997    2.80999994
   16.93249893  139.76199341    0.52999997    2.80999994
   16.93555450  133.21899414    0.52999997    2.80999994
   16.93888855  138.57400513    0.52999997    2.80999994
   16.94222069  140.88099670    0.52999997    2.80999994
   16.94527626  141.54299927    0.52999997    2.80999994
   16.94861031  140.58299255    0.55000001    2.80999994
   16.95194435  138.53999329    0.52999997    2.80999994
   16.95777893  138.53999329    0.55000001    2.80999994
   16.96194458  136.87300110    0.55000001    2.80999994
   16.96500015  138.64900208    0.52999997    2.80999994
   16.96833420  140.88000488    0.52999997    2.80999994
   16.97138977  139.30999756    0.52999997    2.82999992
   16.97472191  142.19599915    0.52999997    2.82999992
   16.97805595  138.92799377    0.55000001    2.80999994
   16.98139000  139.74000549    0.52999997    2.80999994
   16.98444557  134.76400757    0.55000001    2.80999994
   16.98777771  138.03799438    0.55000001    2.80999994
   16.98999977  141.63099670    0.55000001    2.80999994
   16.99138832  136.38000488    0.55000001    2.80999994
   16.99472237  135.41600037    0.55000001    2.80999994
   17.00055504  135.41600037    0.56999999    2.80999994
   17.00472260  133.86799622    0.56999999    2.80999994
   17.00777817  136.36199951    0.56999999    2.80999994
   17.01111031  140.30999756    0.55000001    2.80999994
   17.01444435  140.96899414    0.55000001    2.82999992
   17.01749992  139.89100647    0.55000001    2.82999992
   17.02083397  138.74299622    0.55000001    2.82999992
   17.02333260  138.48699951    0.55000001    2.82999992
   17.02444458  143.13600159    0.56999999    2.80999994
   17.02777672  140.52400208    0.56999999    2.80999994
   17.03083229  137.49499512    0.56999999    2.80999994
   17.03416634  135.81599426    0.58999997    2.80999994
   17.03722191  138.59100342    0.56999999    2.80999994
   17.04333305  138.59100342    0.58999997    2.82999992
   17.04749870  135.66000366    0.58999997    2.80999994
   17.05083275  136.80000305    0.58999997    2.82999992
   17.05388832  134.28199768    0.58999997    2.82999992
   17.05666542  131.94799805    0.58999997    2.80999994
   17.05749893  136.80999756    0.58999997    2.80999994
   17.06083298  139.43099976    0.58999997    2.82999992
   17.06388855  135.34199524    0.61000001    2.82999992
   17.06722260  135.58900452    0.61000001    2.82999992
   17.07027817  136.77699280    0.61000001    2.82999992
   17.07361221  142.95599365    0.61000001    2.82999992
   17.07694626  142.32800293    0.61000001    2.82999992
   17.08000183  142.87399292    0.61000001    2.80999994
   17.08611107  142.87399292    0.61000001    2.82999992
   17.09027863  142.81900024    0.63000000    2.82999992
   17.09361267  137.94799805    0.64999998    2.82999992
   17.09694481  139.35699463    0.63000000    2.80999994
   17.10000038  138.71800232    0.63000000    2.80999994
   17.10333443  139.78100586    0.63000000    2.82999992
   17.10639000  139.92199707    0.63000000    2.80999994
   17.10972214  138.65299988    0.63000000    2.80999994
   17.11305618  139.57600403    0.63000000    2.82999992
   17.11611176  136.05200195    0.63000000    2.82999992
   17.11944389  138.25900269    0.64999998    2.80999994
   17.12249947  144.34399414    0.64999998    2.80999994
   17.12361145  141.25900269    0.64999998    2.80999994
   17.12916756  141.25900269    0.64999998    2.80999994
   17.13305473  135.42999268    0.64999998    2.80999994
   17.13638878  143.47500610    0.64999998    2.80999994
   17.13972282  141.75999451    0.64999998    2.82999992
   17.15722275  138.73800659    0.61000001    2.82999992
   17.15972137  136.15699768    0.61000001    2.82999992
   17.16277695  140.02299500    0.61000001    2.82999992
   17.16611099  141.80599976    0.61000001    2.82999992
   17.17194366  141.80599976    0.61000001    2.80999994
   17.17611122  138.02299500    0.63000000    2.80999994
   17.17944336  138.62300110    0.63000000    2.80999994
   17.18277740  138.72700500    0.63000000    2.80999994
   17.18583298  138.48300171    0.63000000    2.80999994
   17.18916512  139.73199463    0.63000000    2.82999992
   17.19055557  137.23699951    0.63000000    2.82999992
   17.19249916  138.99600220    0.63000000    2.80999994
   17.19583321  137.09599304    0.63000000    2.80999994
   17.19916534  135.85800171    0.63000000    2.82999992
   17.20222282  142.72599792    0.64999998    2.82999992
   17.20555687  139.57200623    0.63000000    2.82999992
   17.20861244  135.80599976    0.63000000    2.82999992
   17.21500015  135.80599976    0.64999998    2.80999994
   17.21888924  138.13999939    0.64999998    2.80999994
   17.22222328  139.18600464    0.64999998    2.80999994
   17.22389030  138.68899536    0.64999998    2.80999994
   17.22583389  137.87199402    0.64999998    2.82999992
   17.22916794  141.68499756    0.64999998    2.82999992
   17.23250008  136.08099365    0.64999998    2.80999994
   17.23555565  140.71099854    0.64999998    2.80999994
   17.23888969  142.90100098    0.67000002    2.80999994
   17.24222183  141.14100647    0.79000002    2.82999992
   17.24555588  145.24200439    0.75000000    2.82999992
   17.24861145  139.88200378    0.73000002    2.80999994
   17.25194359  142.64599609    0.70999998    2.82999992
   17.25777817  142.64599609    0.70999998    2.80999994
   17.26194382  141.12899780    0.69000000    2.80999994
   17.26499939  140.51499939    0.67000002    2.80999994
   17.26833344  140.58799744    0.67000002    2.80999994
   17.27166557  138.35699463    0.67000002    2.80999994
   17.27472115  140.57099915    0.67000002    2.80999994
   17.27805519  140.66700745    0.69000000    2.80999994
   17.28138924  141.04299927    0.67000002    2.80999994
   17.28444481  136.95899963    0.67000002    2.80999994
   17.28777695  145.40699768    0.67000002    2.80999994
   17.29055595  140.68600464    0.67000002    2.80999994
   17.29111099  144.09599304    0.67000002    2.80999994
   17.29444313  148.54699707    0.67000002    2.80999994
   17.30055428  148.54699707    0.67000002    2.80999994
   17.30472183  144.36399841    0.67000002    2.80999994
   17.30805397  142.00799561    0.69000000    2.80999994
   17.31110954  146.50199890    0.69000000    2.80999994
   17.31444359  147.55299377    0.67000002    2.80999994
   17.31777954  142.09500122    0.67000002    2.82999992
   17.32083511  141.14999390    0.67000002    2.80999994
   17.32389069  146.72099304    0.67000002    2.80999994
   17.32444572  141.12100220    0.67000002    2.80999994
   17.32777786  141.37800598    0.64999998    2.82999992
   17.33111191  146.44099426    0.67000002    2.80999994
   17.33416748  148.43800354    0.70999998    2.80999994
   17.33750153  149.13400269    0.70999998    2.80999994
   17.34333420  149.13400269    0.70999998    2.80999994
   17.34749985  145.13099670    0.70999998    2.80999994
   17.35083389  144.50199890    0.70999998    2.80999994
   17.35416794  145.84800720    0.70999998    2.82999992
   17.35722351  151.13099670    0.69000000    2.80999994
   17.35777855  151.64199829    0.69000000    2.80999994
   17.36083412  143.53399658    0.69000000    2.80999994
   17.36416626  143.24299622    0.69000000    2.80999994
   17.36722183  145.17100525    0.69000000    2.82999992
   17.37055588  142.82699585    0.69000000    2.80999994
   17.37388992  144.29699707    0.69000000    2.82999992
   17.37694550  142.96600342    0.69000000    2.82999992
   17.38027763  146.19500732    0.69000000    2.80999994
   17.38638878  146.19500732    0.70999998    2.80999994
   17.39055634  142.78799438    0.75000000    2.82999992
   17.39083290  141.04600525    0.73000002    2.80999994
   17.39416695  142.56700134    0.73000002    2.80999994
   17.39749908  144.49699402    0.75000000    2.80999994
   17.40083313  146.48300171    0.70999998    2.80999994
   17.40388870  144.83299255    0.70999998    2.80999994
   17.40722275  139.52900696    0.70999998    2.80999994
   17.41055489  144.61300659    0.70999998    2.80999994
   17.41361046  137.67799377    0.70999998    2.80999994
   17.41694450  138.56900024    0.75000000    2.80999994
   17.42000008  143.20199585    0.76999998    2.80999994
   17.42333221  140.15699768    0.79000002    2.80999994
   17.42416573  140.19900513    0.79000002    2.80999994
   17.42916679  140.19900513    0.76999998    2.82999992
   17.43333244  142.82400513    0.75000000    2.80999994
   17.43638802  141.99400330    0.76999998    2.80999994
   17.43972206  146.66799927    0.73000002    2.80999994
   17.44305420  145.41200256    0.70999998    2.80999994
   17.44610977  148.49400330    0.70999998    2.80999994
   17.44944382  140.44900513    0.70999998    2.80999994
   17.45250130  145.57000732    0.70999998    2.80999994
   17.45583344  140.41700745    0.70999998    2.80999994
   17.45750046  140.71099854    0.70999998    2.80999994
   17.45944595  138.53300476    0.70999998    2.80999994
   17.46277809  137.10099792    0.73000002    2.82999992
   17.46583366  142.12500000    0.75000000    2.80999994
   17.47194481  142.12500000    0.75000000    2.80999994
   17.47611237  146.69599915    0.73000002    2.80999994
   17.47944450  145.56700134    0.73000002    2.80999994
   17.48250008  143.59599304    0.70999998    2.80999994
   17.48583412  145.19900513    0.70999998    2.80999994
   17.48888969  143.52999878    0.73000002    2.80999994
   17.49083328  149.52299500    0.73000002    2.80999994
   17.49250031  143.20500183    0.73000002    2.80999994
   17.49583435  146.03700256    0.73000002    2.80999994
   17.49916649  142.86900330    0.73000002    2.80999994
   17.50222206  137.85499573    0.73000002    2.80999994
   17.50555611  142.40600586    0.73000002    2.80999994
   17.50888824  143.82899475    0.70999998    2.80999994
   17.51472282  143.82899475    0.69000000    2.80999994
   17.51888847  146.87100220    0.69000000    2.80999994
   17.52222252  150.76100159    0.70999998    2.80999994
   17.52416611  145.63900757    0.70999998    2.80999994
   17.52583313  139.26300049    0.70999998    2.80999994
   17.52916718  148.97200012    0.70999998    2.80999994
   17.53222275  146.92199707    0.70999998    2.80999994
   17.53555489  144.22399902    0.70999998    2.80999994
   17.53861046  148.17100525    0.73000002    2.80999994
   17.54194450  144.18400574    0.73000002    2.80999994
   17.54527664  151.15299988    0.70999998    2.80999994
   17.54833221  154.52200317    0.70999998    2.80999994
   17.55166626  149.10000610    0.70999998    2.80999994
   17.55777740  149.10000610    0.70999998    2.82999992
   17.56166649  159.92900085    0.70999998    2.80999994
   17.56499863  151.64700317    0.73000002    2.80999994
   17.56833458  150.27000427    0.73000002    2.80999994
   17.57139015  153.11799622    0.73000002    2.80999994
   17.57472229  152.88800049    0.73000002    2.80999994
   17.57805634  146.79600525    0.73000002    2.80999994
   17.58111191  161.83000183    0.73000002    2.80999994
   17.58444595  147.95100403    0.75000000    2.80999994
   17.58777809  152.63900757    0.73000002    2.80999994
   17.59083366  146.61199951    0.73000002    2.82999992
   17.59138870  150.79699707    0.73000002    2.82999992
   17.59472275  152.58000183    0.73000002    2.80999994
   17.60055542  152.58000183    0.73000002    2.80999994
   17.60472298  148.02200317    0.75000000    2.80999994
   17.60777855  154.97300720    0.75000000    2.80999994
   17.61111069  149.47900391    0.75000000    2.80999994
   17.61444473  150.85099792    0.75000000    2.80999994
   17.61750031  141.92300415    0.75000000    2.80999994
   17.62083435  150.13299561    0.75000000    2.80999994
   17.62388992  145.62399292    0.75000000    2.80999994
   17.62444496  146.02900696    0.75000000    2.80999994
   17.62777710  148.93499756    0.76999998    2.82999992
   17.63083267  157.39399719    0.79000002    2.82999992
   17.63416672  144.96000671    0.79000002    2.82999992
   17.63750076  152.71899414    0.79000002    2.80999994
   17.64333344  152.71899414    0.79000002    2.80999994
   17.64749908  150.17999268    0.76999998    2.78999996
   17.65083313  157.44299316    0.76999998    2.78999996
   17.65388870  147.32899475    0.79000002    2.80999994
   17.65722275  153.86799622    0.79000002    2.80999994
   17.65777779  154.21400452    0.79000002    2.80999994
   17.66083336  149.38699341    0.76999998    2.78999996
   17.66416550  154.66700745    0.76999998    2.80999994
   17.66722107  153.59700012    0.76999998    2.80999994
   17.67055511  158.21800232    0.75000000    2.80999994
   17.67388916  163.09300232    0.75000000    2.80999994
   17.67694473  160.25799561    0.75000000    2.80999994
   17.68027687  159.51199341    0.75000000    2.80999994
   17.68610954  159.51199341    0.73000002    2.80999994
   17.69027710  161.90199280    0.73000002    2.78999996
   17.69111061  167.69999695    0.73000002    2.78999996
   17.69388771  168.32000732    0.75000000    2.80999994
   17.69694328  163.17900085    0.75000000    2.80999994
   17.70027924  172.36199951    0.76999998    2.80999994
   17.70361137  155.36300659    0.76999998    2.78999996
   17.70666695  173.36799622    0.76999998    2.78999996
   17.71000099  153.01100159    0.76999998    2.80999994
   17.71333504  156.02699280    0.76999998    2.80999994
   17.71638870  172.41700745    0.76999998    2.78999996
   17.71972275  162.04499817    0.76999998    2.80999994
   17.72277832  161.42999268    0.79000002    2.78999996
   17.72444534  164.35699463    0.79000002    2.78999996
   17.72916794  164.35699463    0.79000002    2.78999996
   17.73305511  162.03300476    0.79000002    2.80999994
   17.73638916  164.08599854    0.79000002    2.80999994
   17.73972321  170.81399536    0.79000002    2.80999994
   17.74277878  165.90699768    0.79000002    2.78999996
   17.74611092  166.97900391    0.79000002    2.80999994
   17.74944496  162.48899841    0.80000001    2.80999994
   17.75250053  165.58200073    0.80000001    2.80999994
   17.75583267  167.88200378    0.80000001    2.80999994
   17.75777817  157.50399780    0.80000001    2.80999994
   17.75944519  154.09800720    0.80000001    2.80999994
   17.76277733  154.88900757    0.80000001    2.80999994
   17.76583290  161.83099365    0.80000001    2.80999994
   17.77194405  161.83099365    0.83999997    2.78999996
   17.77611160  157.27499390    0.83999997    2.80999994
   17.77916718  156.70399475    0.83999997    2.80999994
   17.78249931  161.52699280    0.83999997    2.80999994
   17.78583336  158.88800049    0.83999997    2.78999996
   17.78888893  170.73899841    0.83999997    2.78999996
   17.79111099  161.27099609    0.83999997    2.80999994
   17.79249954  159.97900391    0.83999997    2.80999994
   17.79583359  159.19000244    0.86000001    2.80999994
   17.79888916  155.60800171    0.83999997    2.80999994
   17.80222130  159.32299805    0.81999999    2.80999994
   17.80527687  166.32499695    0.83999997    2.80999994
   17.80861092  156.74099731    0.83999997    2.78999996
   17.81472206  156.74099731    0.86000001    2.80999994
   17.81888962  167.43499756    0.86000001    2.80999994
   17.82222366  161.92500305    0.86000001    2.78999996
   17.82444572  163.18499756    0.86000001    2.78999996
   17.82583427  166.08599854    0.86000001    2.78999996
   17.82916832  165.62899780    0.86000001    2.78999996
   17.83222389  155.63999939    0.86000001    2.80999994
   17.83555603  158.08200073    0.83999997    2.80999994
   17.83861160  151.44400024    0.81999999    2.80999994
   17.84222221  157.54400635    0.81999999    2.78999996
   17.84527779  153.13999939    0.81999999    2.78999996
   17.84861183  158.49899292    0.81999999    2.78999996
   17.85194397  155.83700562    0.81999999    2.80999994
   17.85750008  155.83700562    0.80000001    2.80999994
   17.86166763  143.37899780    0.79000002    2.80999994
   17.86499977  149.34899902    0.80000001    2.78999996
   17.86833382  158.04699707    0.80000001    2.78999996
   17.87138939  151.52000427    0.80000001    2.80999994
   17.87472153  149.85600281    0.80000001    2.80999994
   17.87777710  149.97900391    0.80000001    2.80999994
   17.88111115  155.83599854    0.81999999    2.80999994
   17.88444519  155.97700500    0.86000001    2.80999994
   17.88750076  152.41000366    0.86000001    2.80999994
   17.89083290  149.52600098    0.86000001    2.80999994
   17.89249992  151.81199646    0.86000001    2.80999994
   17.89444351  150.98300171    0.89999998    2.80999994
   17.90055466  150.98300171    0.92000002    2.78999996
   17.90444374  150.71600342    0.89999998    2.78999996
   17.90777779  148.31300354    0.89999998    2.80999994
   17.91110992  152.94799805    0.98000002    2.80999994
   17.91444397  149.97300720    0.98000002    2.78999996
   17.91749954  147.51699829    0.98000002    2.78999996
   17.92083359  152.52699280    0.98000002    2.78999996
   17.92388916  146.20599365    1.00000000    2.78999996
   17.92583275  144.50300598    1.00000000    2.78999996
   17.92749977  147.11799622    1.00000000    2.78999996
   17.93083191  153.89100647    1.01999998    2.80999994
   17.93388748  159.92799377    1.03999996    2.82999992
   17.93722153  153.59599304    1.07000005    2.80999994
   17.94333267  153.59599304    1.16999996    2.80999994
   17.94749832  161.36700439    1.19000006    2.78999996
   17.95055580  155.23500061    1.19000006    2.78999996
   17.95388985  146.32200623    1.21000004    2.78999996
   17.95722389  156.37699890    1.16999996    2.78999996
   17.95944595  146.10800171    1.19000006    2.78999996
   17.96083450  152.03100586    1.19000006    2.78999996
   17.96389008  154.57400513    1.19000006    2.78999996
   17.96722221  153.05700684    1.19000006    2.78999996
   17.97055626  150.28100586    1.19000006    2.78999996
   17.97361183  145.82800293    1.14999998    2.78999996
   17.97694588  148.37600708    1.13000000    2.78999996
   17.98027802  151.04100037    1.09000003    2.78999996
   17.98611069  151.04100037    1.03999996    2.78999996
   17.99027824  145.34599304    1.01999998    2.80999994
   17.99277878  147.21000671    1.01999998    2.80999994
   17.99388885  147.20799255    1.01999998    2.80999994
   17.99694443  147.98800659    0.98000002    2.78999996
   18.00027847  147.84300232    0.94000000    2.80999994
   18.00361061  149.56799316    0.89999998    2.80999994
   18.00666618  144.77600098    0.89999998    2.80999994
   18.01000023  147.40800476    0.88000000    2.78999996
   18.01333427  148.35299683    0.86000001    2.78999996
   18.01638794  148.54400635    0.83999997    2.78999996
   18.01972198  147.21099854    0.83999997    2.78999996
   18.02305603  148.90699768    0.83999997    2.78999996
   18.02888870  148.90699768    0.86000001    2.80999994
   18.03305435  144.07400513    0.88000000    2.78999996
   18.03638840  143.30200195    0.89999998    2.78999996
   18.03944397  147.58399963    0.92000002    2.80999994
   18.04277802  145.32099915    0.94000000    2.80999994
   18.04611015  146.33000183    0.94000000    2.80999994
   18.04916573  144.78300476    0.94000000    2.78999996
   18.05249977  146.74899292    0.95999998    2.78999996
   18.05583191  147.21400452    0.95999998    2.78999996
   18.05888748  147.64799500    0.95999998    2.78999996
   18.05999947  146.74000549    0.98000002    2.80999994
   18.06250000  139.63400269    0.98000002    2.80999994
   18.06583214  148.93099976    0.98000002    2.80999994
   18.07194519  148.93099976    1.00000000    2.80999994
   18.07583427  143.92300415    1.00000000    2.78999996
   18.07916832  144.19799805    0.98000002    2.80999994
   18.08250046  148.44299316    0.98000002    2.80999994
   18.08583450  144.25700378    0.98000002    2.80999994
   18.08889008  146.65600586    1.00000000    2.80999994
   18.09222221  147.80999756    1.00000000    2.80999994
   18.09333420  145.71800232    1.01999998    2.80999994
   18.09583473  142.44500732    1.01999998    2.80999994
   18.09916687  140.04699707    1.01999998    2.78999996
   18.10250092  146.91099548    1.07000005    2.80999994
   18.10555649  145.57099915    1.11000001    2.80999994
   18.10888863  143.07200623    1.16999996    2.80999994
   18.11472321  143.07200623    1.16999996    2.78999996
   18.11888885  141.99400330    1.14999998    2.78999996
   18.12194443  145.01199341    1.09000003    2.80999994
   18.12527847  145.41499329    1.09000003    2.80999994
   18.12666702  142.62800598    1.09000003    2.80999994
   18.12888908  142.41999817    1.05999994    2.78999996
   18.13222313  142.09700012    1.03999996    2.78999996
   18.13527679  141.67199707    1.03999996    2.78999996
   18.13861084  143.34700012    1.01999998    2.80999994
   18.14166641  132.44099426    1.07000005    2.78999996
   18.14500046  147.51499939    1.09000003    2.80999994
   18.14833260  137.95899963    1.09000003    2.78999996
   18.15138817  141.88499451    1.07000005    2.80999994
   18.15749931  141.88499451    1.05999994    2.78999996
   18.17583275  133.45399475    1.05999994    2.80999994
   18.17916679  141.59100342    1.05999994    2.80999994
   18.18222237  138.11199951    1.07000005    2.80999994
   18.18555450  140.49000549    1.30999994    2.78999996
   18.18888855  142.60299683    1.23000002    2.78999996
   18.19194412  148.27200317    1.23000002    2.78999996
   18.19527626  139.70100403    1.11000001    2.80999994
   18.20055580  139.70100403    1.07000005    2.78999996
   18.20472336  140.46400452    1.21000004    2.80999994
   18.20805550  140.77099609    1.23000002    2.78999996
   18.20888901  141.00100708    1.23000002    2.78999996
   18.21166801  142.42500305    1.25000000    2.78999996
   18.21472359  137.72799683    1.36000001    2.78999996
   18.21805573  141.27499390    1.36000001    2.78999996
   18.22138977  144.08299255    1.33000004    2.78999996
   18.22444534  143.45799255    1.28999996    2.78999996
   18.22777748  145.62100220    1.26999998    2.80999994
   18.23083305  140.20100403    1.23000002    2.78999996
   18.23416710  143.08500671    1.23000002    2.78999996
   18.23750114  139.12399292    1.19000006    2.78999996
   18.24333382  139.12399292    1.16999996    2.78999996
   18.24749947  144.56300354    1.13000000    2.78999996
   18.25083351  145.02900696    1.07000005    2.78999996
   18.25388908  144.21899414    0.98000002    2.78999996
   18.25722313  142.37100220    0.94000000    2.78999996
   18.26055527  140.71000671    0.92000002    2.78999996
   18.26361084  142.21499634    0.92000002    2.78999996
   18.26694489  142.37100220    0.86000001    2.78999996
   18.27000046  145.77299500    0.86000001    2.78999996
   18.27333260  142.70300293    0.88000000    2.78999996
   18.27555466  140.64199829    0.89999998    2.78999996
   18.27694511  142.08599854    0.89999998    2.78999996
   18.28000069  140.76199341    0.95999998    2.78999996
   18.28610992  140.76199341    0.95999998    2.78999996
   18.29027748  138.22000122    0.95999998    2.78999996
   18.29361153  145.51400757    0.92000002    2.78999996
   18.29694366  139.01800537    0.92000002    2.78999996
   18.29999924  141.17199707    0.88000000    2.78999996
   18.30333328  140.26300049    0.88000000    2.78999996
   18.30666542  136.71699524    0.86000001    2.78999996
   18.30888748  141.08599854    0.86000001    2.78999996
   18.31027794  141.74899292    0.83999997    2.78999996
   18.31333351  136.81100464    0.83999997    2.78999996
   18.31666756  141.38299561    0.86000001    2.78999996
   18.32000160  140.08700562    0.86000001    2.78999996
   18.32305717  138.66499329    0.86000001    2.78999996
   18.32916832  138.66499329    0.92000002    2.78999996
   18.33333397  137.03900146    0.92000002    2.78999996
   18.33638954  143.60000610    0.89999998    2.78999996
   18.33972359  144.72700500    0.89999998    2.78999996
   18.34222221  142.53300476    0.89999998    2.78999996
   18.34333420  143.34599304    0.89999998    2.78999996
   18.34666824  143.79200745    1.03999996    2.76999998
   18.34972191  142.65600586    1.01999998    2.78999996
   18.35305595  144.02900696    1.01999998    2.78999996
   18.35639000  143.39100647    1.00000000    2.78999996
   18.35944557  140.49400330    1.00000000    2.78999996
   18.36277771  135.23500061    0.89999998    2.78999996
   18.36583328  136.03999329    0.92000002    2.78999996
   18.37194443  136.03999329    0.92000002    2.78999996
   18.37611198  140.44500732    0.92000002    2.78999996
   18.37916756  137.66099548    0.92000002    2.78999996
   18.38249969  144.16400146    0.94000000    2.76999998
   18.38583374  141.88099670    0.94000000    2.78999996
   18.38888931  143.57099915    0.94000000    2.78999996
   18.39222145  145.09100342    0.95999998    2.76999998
   18.39555550  133.65100098    1.01999998    2.76999998
   18.39861107  141.88999939    1.01999998    2.78999996
   18.40194321  142.36900330    1.01999998    2.76999998
   18.40527725  143.34399414    1.01999998    2.76999998
   18.40833282  144.19500732    1.01999998    2.78999996
   18.40888786  140.23800659    1.01999998    2.78999996
   18.41472244  140.23800659    1.01999998    2.76999998
   18.41888809  142.90699768    1.01999998    2.78999996
   18.42222214  139.33599854    1.01999998    2.76999998
   18.42527771  141.56599426    1.00000000    2.76999998
   18.42860985  137.95500183    1.01999998    2.78999996
   18.43194389  142.89900208    1.01999998    2.76999998
   18.43499947  138.42199707    1.00000000    2.76999998
   18.43833160  138.58299255    1.00000000    2.76999998
   18.44166565  138.47399902    1.00000000    2.78999996
   18.44222069  147.09800720    1.00000000    2.78999996
   18.44527626  139.35299683    1.01999998    2.78999996
   18.44833183  140.30000305    1.05999994    2.76999998
   18.45166779  143.45799255    1.05999994    2.76999998
   18.45750046  143.45799255    1.05999994    2.76999998
   18.46166801  136.25500488    1.03999996    2.76999998
   18.46500015  144.81900024    1.01999998    2.76999998
   18.46833420  141.87300110    1.01999998    2.76999998
   18.47138977  136.45899963    1.01999998    2.76999998
   18.47472191  142.21800232    1.01999998    2.76999998
   18.47555542  144.50900269    1.01999998    2.76999998
   18.47833443  143.61900330    1.01999998    2.76999998
   18.48139000  166.32000732    1.03999996    2.76999998
   18.48472214  145.96899414    1.00000000    2.76999998
   18.48805618  168.11599731    1.00000000    2.76999998
   18.49111176  150.06700134    1.00000000    2.76999998
   18.49444389  146.41900635    1.00000000    2.76999998
   18.50055504  146.41900635    1.00000000    2.76999998
   18.50472260  135.07699585    0.98000002    2.76999998
   18.50777817  141.99499512    0.98000002    2.76999998
   18.50888824  135.21600342    1.01999998    2.76999998
   18.51138878  141.46299744    1.01999998    2.76999998
   18.51444435  134.50399780    1.05999994    2.75000000
   18.51777840  140.03599548    1.03999996    2.76999998
   18.52111053  141.80900574    1.01999998    2.76999998
   18.52416611  138.68699646    1.01999998    2.75000000
   18.52750015  144.46899414    1.01999998    2.75000000
   18.53083229  138.75100708    1.01999998    2.75000000
   18.53388786  146.15400696    1.03999996    2.75000000
   18.53722191  137.83900452    1.05999994    2.75000000
   18.54333305  137.83900452    1.09000003    2.75000000
   18.54749870  149.89599609    1.13000000    2.75000000
   18.55055428  145.28700256    1.14999998    2.75000000
   18.55388832  144.90100098    1.14999998    2.75000000
   18.55722237  140.74499512    1.14999998    2.75000000
   18.56027794  143.60600281    1.21000004    2.75000000
   18.56361008  142.05599976    1.19000006    2.75000000
   18.56694603  144.14900208    1.21000004    2.75000000
   18.57000160  143.43899536    1.21000004    2.75000000
   18.57333374  143.95100403    1.19000006    2.75000000
   18.57583427  139.89300537    1.19000006    2.75000000
   18.57694626  140.60600281    1.19000006    2.75000000
   18.58027840  144.91200256    1.26999998    2.75000000
   18.58611107  144.91200256    1.36000001    2.75000000
   18.59027863  147.16299438    1.36000001    2.75000000
   18.59361267  158.80700684    1.38000000    2.75000000
   18.59666824  155.06700134    1.38000000    2.75000000
   18.60000038  156.86300659    1.39999998    2.75000000
   18.60333443  164.69700623    1.36000001    2.75000000
   18.60639000  166.10499573    1.36000001    2.75000000
   18.60888863  155.68899536    1.34000003    2.75000000
   18.61000061  161.41600037    1.34000003    2.75000000
   18.61333466  158.42799377    1.30999994    2.75000000
   18.61638832  153.13200378    1.28999996    2.75000000
   18.61972237  153.25700378    1.26999998    2.75000000
   18.62277794  165.80099487    1.26999998    2.75000000
   18.62888908  165.80099487    1.23000002    2.75000000
   18.63361168  150.85200500    1.25000000    2.75000000
   18.63666725  176.16700745    1.25000000    2.75000000
   18.63999939  166.52900696    1.23000002    2.75000000
   18.64222145  176.94400024    1.25000000    2.75000000
   18.64361191  168.38099670    1.25000000    2.75000000
   18.64694405  171.50300598    1.19000006    2.75000000
   18.64999962  170.80200195    1.16999996    2.75000000
   18.65333366  180.28100586    1.19000006    2.75000000
   18.65666580  171.86399841    1.16999996    2.75000000
   18.65999985  163.42300415    1.16999996    2.75000000
   18.66305542  168.66799927    1.23000002    2.75000000
   18.66638756  167.93400574    1.25000000    2.73000002
   18.67194366  167.93400574    1.13000000    2.75000000
   18.67611122  192.55499268    1.13000000    2.75000000
   18.67972183  212.06399536    1.16999996    2.75000000
   18.68277740  210.19700623    1.16999996    2.75000000
   18.68610954  231.14700317    1.13000000    2.73000002
   18.68944359  233.81599426    1.13000000    2.73000002
   18.69249916  208.57099915    1.13000000    2.73000002
   18.69583321  230.38000488    1.14999998    2.75000000
   18.69916534  236.30400085    1.13000000    2.73000002
   18.70222282  242.23199463    1.14999998    2.73000002
   18.70555687  234.21800232    1.14999998    2.73000002
   18.70888901  246.71299744    1.13000000    2.73000002
   18.70916748  258.20901489    1.13000000    2.73000002
   18.71472359  258.20901489    1.14999998    2.73000002
   18.71888924  268.08898926    1.14999998    2.73000002
   18.72222328  263.44699097    1.14999998    2.73000002
   18.72527885  232.31599426    1.13000000    2.73000002
   18.72861099  230.52000427    1.13000000    2.73000002
   18.73194504  221.59199524    1.14999998    2.73000002
   18.73500061  222.46800232    1.16999996    2.73000002
   18.73833275  215.44400024    1.21000004    2.75000000
   18.74138832  237.17500305    1.21000004    2.75000000
   18.74250031  226.58999634    1.21000004    2.75000000
   18.74500084  223.55400085    1.19000006    2.75000000
   18.74833298  206.82299805    1.19000006    2.75000000
   18.75138855  218.97900391    1.16999996    2.75000000
   18.75749969  218.97900391    1.21000004    2.73000002
   18.76166725  213.76400757    1.21000004    2.75000000
   18.76499939  207.93400574    1.26999998    2.73000002
   18.76833344  215.99899292    1.33000004    2.73000002
   18.77166557  215.07299805    1.36000001    2.73000002
   18.77472115  220.38200378    1.38000000    2.73000002
   18.77611160  208.78700256    1.38000000    2.73000002
   18.77833366  186.16200256    1.30999994    2.73000002
   18.78166580  210.86500549    1.30999994    2.73000002
   18.78499985  208.39700317    1.26999998    2.73000002
   18.78805542  211.40400696    1.25000000    2.73000002
   18.79138756  212.77499390    1.25000000    2.73000002
   18.79444313  225.27400208    1.26999998    2.73000002
   18.80027771  225.27400208    1.26999998    2.73000002
   18.80444336  198.07899475    1.16999996    2.73000002
   18.80777740  180.69900513    1.14999998    2.73000002
   18.80916595  186.72200012    1.14999998    2.75000000
   18.81138802  196.30900574    1.14999998    2.73000002
   18.81472206  195.73899841    1.14999998    2.75000000
   18.81777954  184.92100525    1.16999996    2.73000002
   18.82111168  200.22599792    1.16999996    2.73000002
   18.82444572  202.80400085    1.16999996    2.73000002
   18.82750130  186.50399780    1.13000000    2.73000002
   18.83083344  191.34599304    1.13000000    2.73000002
   18.83388901  198.61099243    1.13000000    2.73000002
   18.83722305  198.38699341    1.13000000    2.73000002
   18.84333420  198.38699341    1.14999998    2.73000002
   18.84749985  185.53199768    1.14999998    2.73000002
   18.85055542  176.52099609    1.16999996    2.73000002
   18.85388947  178.33099365    1.16999996    2.73000002
   18.85694504  182.91700745    1.13000000    2.73000002
   18.86027908  188.58099365    1.14999998    2.73000002
   18.86361122  180.05999756    1.13000000    2.73000002
   18.86666679  181.38699341    1.13000000    2.73000002
   18.87000084  163.98500061    1.14999998    2.73000002
   18.87333298  179.60600281    1.14999998    2.73000002
   18.87583351  181.76300049    1.13000000    2.73000002
   18.87666702  185.62500000    1.13000000    2.73000002
   18.88000107  192.83799744    1.13000000    2.73000002
   18.88611031  192.83799744    1.13000000    2.73000002
   18.89027786  183.86000061    1.14999998    2.73000002
   18.89333344  168.91200256    1.14999998    2.73000002
   18.89666748  186.95399475    1.13000000    2.73000002
   18.89999962  178.81500244    1.14999998    2.73000002
   18.90305519  184.27699280    1.13000000    2.73000002
   18.90638924  180.54100037    1.13000000    2.73000002
   18.90916634  176.93899536    1.14999998    2.71000004
   18.90999985  163.07499695    1.14999998    2.71000004
   18.91333389  186.50599670    1.16999996    2.73000002
   18.91638756  176.96499634    1.21000004    2.73000002
   18.91972160  183.08099365    1.23000002    2.73000002
   18.92305565  183.76300049    1.25000000    2.75000000
   18.92888832  183.76300049    1.26999998    2.73000002
   18.93305397  176.03100586    1.25000000    2.73000002
   18.93638802  178.41799927    1.23000002    2.73000002
   18.93944359  172.42399597    1.21000004    2.73000002
   18.94249916  180.99099731    1.21000004    2.73000002
   18.94305420  172.08099365    1.21000004    2.73000002
   18.94638824  184.02900696    1.21000004    2.73000002
   18.94944382  177.24899292    1.19000006    2.73000002
   18.95277786  166.86599731    1.19000006    2.73000002
   18.95611191  164.67300415    1.19000006    2.75000000
   18.95916748  170.90199280    1.19000006    2.75000000
   18.96250153  164.90400696    1.13000000    2.73000002
   18.96555710  173.20100403    1.11000001    2.73000002
   18.97166634  173.20100403    1.13000000    2.73000002
   18.97583389  167.50700378    1.13000000    2.73000002
   18.97638893  165.76100159    1.13000000    2.73000002
   18.97972298  168.92900085    1.16999996    2.73000002
   18.98277855  169.34500122    1.16999996    2.73000002
   18.98611069  159.09800720    1.16999996    2.73000002
   18.98944473  162.22599792    1.19000006    2.73000002
   18.99250031  162.61000061    1.16999996    2.73000002
   18.99583435  159.90199280    1.14999998    2.73000002
   18.99888992  161.61399841    1.14999998    2.73000002
   19.00222206  157.05599976    1.16999996    2.73000002
   19.00555611  162.70799255    1.14999998    2.73000002
   19.00861168  156.61999512    1.14999998    2.73000002
   19.00944519  157.42300415    1.16999996    2.73000002
   19.01472282  157.42300415    1.16999996    2.73000002
   19.01888847  162.61500549    1.21000004    2.73000002
   19.02194405  164.19999695    1.21000004    2.73000002
   19.02527809  162.58599854    1.21000004    2.73000002
   19.02833366  167.57099915    1.21000004    2.73000002
   19.03166580  158.80900574    1.19000006    2.73000002
   19.03499985  157.15400696    1.21000004    2.73000002
   19.03833199  157.01199341    1.19000006    2.73000002
   19.04138756  163.33000183    1.21000004    2.73000002
   19.04277802  159.68200684    1.21000004    2.73000002
   19.04500008  150.49099731    1.25000000    2.73000002
   19.04833221  161.42999268    1.25000000    2.73000002
   19.05138779  154.80799866    1.25000000    2.75000000
   19.05749893  154.80799866    1.23000002    2.73000002
   19.06166649  151.32699585    1.26999998    2.73000002
   19.06472206  159.27400208    1.26999998    2.73000002
   19.06805611  154.83299255    1.23000002    2.73000002
   19.07139015  158.70199585    1.23000002    2.73000002
   19.07444572  164.60800171    1.19000006    2.75000000
   19.07611275  165.71600342    1.16999996    2.73000002
   19.07805634  162.79299927    1.16999996    2.73000002
   19.08139038  159.78199768    1.16999996    2.73000002
   19.08472252  164.71299744    1.16999996    2.73000002
   19.08777809  165.14599609    1.16999996    2.73000002
   19.09111214  163.29800415    1.19000006    2.73000002
   19.09416771  158.66900635    1.21000004    2.73000002
   19.10027885  158.66900635    1.25000000    2.73000002
   19.10444450  138.92900085    1.25000000    2.73000002
   19.10777855  146.42399597    1.23000002    2.73000002
   19.10944557  165.78700256    1.23000002    2.73000002
   19.11111069  158.52299500    1.23000002    2.73000002
   19.11444473  156.59399414    1.26999998    2.73000002
   19.11777878  166.93099976    1.28999996    2.73000002
   19.12083435  108.55100250    1.28999996    2.73000002
   19.12416649  152.77900696    1.30999994    2.73000002
   19.12750053  163.34399414    1.30999994    2.73000002
   19.13055611  158.21600342    1.28999996    2.73000002
   19.13388824  153.68800354    1.28999996    2.73000002
   19.13694382  154.47099304    1.28999996    2.71000004
   19.14305496  154.47099304    1.30999994    2.73000002
   19.14722252  156.98899841    1.33000004    2.73000002
   19.15055466  154.83000183    1.36000001    2.73000002
   19.15388870  152.61399841    1.36000001    2.73000002
   19.15694427  151.47700500    1.34000003    2.73000002
   19.16027832  150.92999268    1.33000004    2.73000002
   19.16333389  149.90800476    1.33000004    2.73000002
   19.16666603  161.08000183    1.33000004    2.73000002
   19.17000008  152.85200500    1.36000001    2.73000002
   19.17305565  148.71699524    1.36000001    2.73000002
   19.17611122  152.19200134    1.39999998    2.71000004
   19.19666672  152.19200134    1.26999998    2.73000002
   19.20083427  148.71800232    1.33000004    2.73000002
   19.20388985  149.30900574    1.34000003    2.73000002
   19.20722389  150.77099609    1.36000001    2.73000002
   19.20944595  152.13800049    1.44000006    2.71000004
   19.21083450  156.02900696    1.44000006    2.71000004
   19.21416664  151.97200012    1.39999998    2.71000004
   19.21750069  150.77499390    1.44000006    2.71000004
   19.22055626  146.35400391    1.46000004    2.71000004
   19.22389030  148.42700195    1.46000004    2.71000004
   19.22722244  143.61399841    1.44000006    2.71000004
   19.23027802  149.12399292    1.39999998    2.71000004
   19.23361206  156.28199768    1.39999998    2.71000004
   19.23944473  156.28199768    1.53999996    2.71000004
   19.24333382  148.16200256    1.51999998    2.71000004
   19.24666786  149.89999390    1.48000002    2.71000004
   19.25000000  152.35400391    1.48000002    2.71000004
   19.25305557  146.12899780    1.46000004    2.71000004
   19.25638962  147.86900330    1.48000002    2.71000004
   19.25972176  146.21699524    1.48000002    2.71000004
   19.26277733  150.38099670    1.46000004    2.71000004
   19.26611137  145.69999695    1.44000006    2.71000004
   19.26916695  147.71299744    1.44000006    2.71000004
   19.27249908  144.00399780    1.44000006    2.71000004
   19.27583313  148.88699341    1.34000003    2.71000004
   19.27611160  147.28399658    1.33000004    2.71000004
   19.28222275  147.28399658    1.30999994    2.71000004
   19.28638840  143.90100098    1.30999994    2.71000004
   19.28944397  146.79800415    1.28999996    2.71000004
   19.29277802  152.34599304    1.28999996    2.69000006
   19.29611015  139.91200256    1.33000004    2.71000004
   19.29916573  150.13600159    1.28999996    2.71000004
   19.30249977  144.80900574    1.33000004    2.73000002
   19.30555534  150.55000305    1.30999994    2.71000004
   19.30888748  145.59199524    1.30999994    2.71000004
   19.30972099  146.72599792    1.28999996    2.71000004
   19.31277657  149.38999939    1.28999996    2.71000004
   19.31583214  148.65199280    1.33000004    2.71000004
   19.31916809  145.15600586    1.30999994    2.71000004
   19.32500076  145.15600586    1.30999994    2.71000004
   19.32916832  148.78100586    1.34000003    2.71000004
   19.33250046  144.51800537    1.26999998    2.71000004
   19.33555603  142.08599854    1.26999998    2.71000004
   19.33889008  145.46499634    1.33000004    2.71000004
   19.34222221  144.74099731    1.33000004    2.71000004
   19.34277916  147.75000000    1.33000004    2.71000004
   19.34555626  143.76300049    1.34000003    2.71000004
   19.34889030  146.32600403    1.34000003    2.71000004
   19.35194397  139.15800476    1.30999994    2.71000004
   19.35527802  149.08799744    1.39999998    2.71000004
   19.35861206  142.39999390    1.66999996    2.71000004
   19.36166763  143.19500732    1.63000000    2.69000006
   19.36777878  143.19500732    1.48000002    2.69000006
   19.37194443  145.82499695    1.36000001    2.69000006
   19.37527847  139.45300293    1.39999998    2.71000004
   19.37611198  144.22599792    1.39999998    2.71000004
   19.37888908  141.48899841    1.33000004    2.69000006
   19.38222313  148.58700562    1.34000003    2.71000004
   19.38527679  143.48899841    1.34000003    2.71000004
   19.38861084  145.49400330    1.33000004    2.69000006
   19.39194489  144.17999268    1.26999998    2.71000004
   19.39500046  150.07499695    1.26999998    2.71000004
   19.39833260  146.20700073    1.34000003    2.69000006
   19.40166664  141.04899597    1.26999998    2.69000006
   19.40472221  143.38499451    1.26999998    2.69000006
   19.41083336  143.38499451    1.25000000    2.69000006
   19.41472244  141.88800049    1.23000002    2.69000006
   19.41805458  140.67399597    1.23000002    2.71000004
   19.42138863  144.01400757    1.21000004    2.69000006
   19.42444420  142.74800110    1.21000004    2.69000006
   19.42777634  140.34800720    1.23000002    2.69000006
   19.43111038  146.72700500    1.21000004    2.71000004
   19.43416595  143.32699585    1.23000002    2.69000006
   19.43750000  143.79299927    1.23000002    2.69000006
   19.44083214  143.86199951    1.25000000    2.69000006
   19.44277763  145.88400269    1.25000000    2.69000006
   19.44416618  147.14500427    1.25000000    2.69000006
   19.44749832  145.71099854    1.23000002    2.71000004
   19.45361137  145.71099854    1.25000000    2.69000006
   19.45777893  147.42900085    1.21000004    2.69000006
   19.46083450  157.35600281    1.19000006    2.69000006
   19.46416664  149.79200745    1.19000006    2.69000006
   19.46750069  142.94400024    1.21000004    2.69000006
   19.47055626  146.05900574    1.21000004    2.69000006
   19.47389030  141.75999451    1.19000006    2.69000006
   19.47638893  145.26199341    1.19000006    2.69000006
   19.47750092  143.98599243    1.21000004    2.69000006
   19.48083305  143.48800659    1.19000006    2.69000006
   19.48388863  145.52200317    1.19000006    2.69000006
   19.48722267  146.70700073    1.19000006    2.69000006
   19.49055672  146.30700684    1.19000006    2.69000006
   19.49638939  146.30700684    1.21000004    2.69000006
   19.50055504  143.86300659    1.21000004    2.69000006
   19.50388908  147.70399475    1.23000002    2.69000006
   19.50694466  145.35200500    1.33000004    2.69000006
   19.50972176  141.71000671    1.39999998    2.69000006
   19.51055527  140.95799255    1.39999998    2.69000006
   19.51388931  140.23899841    1.44000006    2.69000006
   19.51694489  138.61000061    1.39999998    2.69000006
   19.52027702  142.72900391    1.39999998    2.69000006
   19.52361107  140.56700134    1.30999994    2.69000006
   19.52666664  140.33399963    1.19000006    2.69000006
   19.53000069  146.68099976    1.16999996    2.69000006
   19.53333282  147.98300171    1.16999996    2.71000004
   19.53916550  147.98300171    1.21000004    2.71000004
   19.54333305  143.04400635    1.19000006    2.69000006
   19.54666710  144.56500244    1.19000006    2.69000006
   19.54972076  139.42500305    1.19000006    2.69000006
   19.55305481  144.42199707    1.25000000    2.69000006
   19.55638885  148.13699341    1.25000000    2.69000006
   19.55944443  143.94900513    1.28999996    2.69000006
   19.56277657  147.57200623    1.26999998    2.69000006
   19.56611061  146.46899414    1.26999998    2.69000006
   19.56916809  144.86399841    1.26999998    2.69000006
   19.57250023  148.47900391    1.25000000    2.69000006
   19.57555580  143.20799255    1.25000000    2.69000006
   19.57638931  144.88800049    1.25000000    2.69000006
   19.58222389  144.88800049    1.26999998    2.69000006
   19.58611107  138.54899597    1.26999998    2.69000006
   19.58944511  145.28199768    1.33000004    2.69000006
   19.59277916  144.41900635    1.28999996    2.67000008
   19.59583473  142.06100464    1.28999996    2.67000008
   19.59916687  144.56100464    1.30999994    2.69000006
   19.60250092  146.51600647    1.30999994    2.69000006
   19.60555649  146.78999329    1.30999994    2.69000006
   19.60888863  145.66000366    1.33000004    2.69000006
   19.60972214  146.18400574    1.33000004    2.69000006
   19.61250114  144.17900085    1.30999994    2.69000006
   19.61583328  146.47599792    1.33000004    2.69000006
   19.61888885  144.24899292    1.28999996    2.67000008
   19.62500000  144.24899292    1.26999998    2.67000008
   19.62916756  148.83799744    1.26999998    2.69000006
   19.63222313  145.10200500    1.26999998    2.66000009
   19.63555527  143.94299316    1.26999998    2.66000009
   19.63888931  145.53900146    1.28999996    2.67000008
   19.64194489  143.04699707    1.30999994    2.67000008
   19.64305496  147.49400330    1.30999994    2.67000008
   19.64555550  149.14700317    1.33000004    2.67000008
   19.64888954  144.68099976    1.34000003    2.67000008
   19.65222168  140.53999329    1.33000004    2.67000008
   19.65527725  139.12800598    1.33000004    2.67000008
   19.65861130  134.80400085    1.30999994    2.67000008
   19.66166687  138.23800659    1.30999994    2.67000008
   19.66777802  138.23800659    1.30999994    2.69000006
   19.67194366  142.70599365    1.28999996    2.67000008
   19.67499924  141.84199524    1.28999996    2.67000008
   19.67638779  138.97099304    1.28999996    2.67000008
   19.67860985  143.78999329    1.30999994    2.66000009
   19.68194389  146.57299805    1.28999996    2.67000008
   19.68527603  141.20199585    1.28999996    2.67000008
   19.68833160  142.80299377    1.28999996    2.67000008
   19.69166565  144.23199463    1.28999996    2.67000008
   19.69472122  138.78900146    1.28999996    2.67000008
   19.69805527  144.96000671    1.26999998    2.67000008
   19.70138931  144.26899719    1.28999996    2.67000008
   19.70444489  146.99400330    1.28999996    2.67000008
   19.71055603  146.99400330    1.34000003    2.67000008
   19.71472359  142.47399902    1.36000001    2.67000008
   19.71805573  141.71899414    1.34000003    2.66000009
   19.72111130  140.29200745    1.30999994    2.67000008
   19.72444534  142.38600159    1.28999996    2.67000008
   19.72777748  137.96000671    1.26999998    2.67000008
   19.73083305  138.47500610    1.26999998    2.67000008
   19.73416710  140.96099854    1.26999998    2.67000008
   19.73750114  139.33099365    1.25000000    2.67000008
   19.74055672  134.08999634    1.25000000    2.67000008
   19.74305534  141.86399841    1.25000000    2.67000008
   19.74416733  138.69200134    1.25000000    2.67000008
   19.74749947  139.65800476    1.25000000    2.66000009
   19.75361061  139.65800476    1.33000004    2.66000009
   19.75749969  140.15199280    1.30999994    2.67000008
   19.76083374  142.66999817    1.26999998    2.66000009
   19.76416588  141.68699646    1.26999998    2.66000009
   19.76722145  138.91799927    1.26999998    2.66000009
   19.77055550  139.20300293    1.26999998    2.66000009
   19.77388954  142.49200439    1.25000000    2.66000009
   19.77638817  144.23599243    1.25000000    2.66000009
   19.77722168  140.19500732    1.25000000    2.66000009
   19.78055573  144.47000122    1.23000002    2.66000009
   19.78388786  144.44000244    1.19000006    2.66000009
   19.78694344  141.83799744    1.19000006    2.66000009
   19.79027748  143.54600525    1.21000004    2.66000009
   19.79638863  143.54600525    1.26999998    2.66000009
   19.80055428  146.60800171    1.33000004    2.64000010
   19.80360985  141.11300659    1.36000001    2.64000010
   19.80694389  143.04400635    1.34000003    2.64000010
   19.80972099  138.41499329    1.34000003    2.64000010
   19.81055450  135.46099854    1.34000003    2.64000010
   19.81388855  142.93899536    1.36000001    2.64000010
   19.81722260  143.75399780    1.38000000    2.64000010
   19.82027817  140.28500366    1.38000000    2.64000010
   19.82361221  143.88600159    1.38000000    2.64000010
   19.82666779  140.67199707    1.33000004    2.64000010
   19.83000183  136.72599792    1.30999994    2.64000010
   19.83333397  144.13600159    1.44000006    2.64000010
   19.83916664  144.13600159    1.26999998    2.64000010
   19.84333420  144.50500488    1.34000003    2.64000010
   19.84666824  137.62500000    1.30999994    2.64000010
   19.84972191  149.53199768    1.33000004    2.64000010
   19.85305595  142.40400696    1.34000003    2.64000010
   19.85611153  144.53199768    1.30999994    2.64000010
   19.85944557  150.00700378    1.26999998    2.64000010
   19.86277771  146.02499390    1.30999994    2.64000010
   19.86583328  146.22200012    1.30999994    2.64000010
   19.86916733  142.95399475    1.26999998    2.64000010
   19.87249947  144.12199402    1.28999996    2.64000010
   19.87555504  141.16299438    1.30999994    2.64000010
   19.87638855  143.13800049    1.30999994    2.64000010
   19.88194466  143.13800049    1.26999998    2.64000010
   19.88611031  147.17399597    1.26999998    2.64000010
   19.88944435  142.69500732    1.26999998    2.64000010
   19.89249992  144.26800537    1.26999998    2.61999989
   19.89583397  142.10099792    1.26999998    2.61999989
   19.89916611  141.28799438    1.23000002    2.61999989
   19.90250015  139.62399292    1.25000000    2.64000010
   19.90555573  147.65499878    1.23000002    2.61999989
   19.90888786  143.73899841    1.19000006    2.61999989
   19.90972137  150.90600586    1.19000006    2.61999989
   19.91222191  146.99600220    1.19000006    2.61999989
   19.91555595  150.90800476    1.19000006    2.61999989
   19.91888809  149.81100464    1.19000006    2.61999989
   19.92499924  149.81100464    1.16999996    2.61999989
   19.92888832  148.60299683    1.19000006    2.61999989
   19.93222237  149.50700378    1.19000006    2.61999989
   19.93555450  148.22300720    1.21000004    2.61999989
   19.93861008  149.24200439    1.19000006    2.61999989
   19.94194412  147.07699585    1.19000006    2.61999989
   19.94305420  147.92399597    1.19000006    2.61999989
   19.94527626  151.94200134    1.14999998    2.61999989
   19.94861031  144.50999451    1.16999996    2.61999989
   19.95194435  150.76400757    1.21000004    2.61999989
   19.95499992  151.86999512    1.21000004    2.61999989
   19.95833397  154.28599548    1.28999996    2.59999990
   19.96166801  151.52499390    1.38000000    2.59999990
   19.96777916  151.52499390    1.50000000    2.59999990
   19.97194481  145.35400391    1.51999998    2.57999992
   19.97500038  144.97399902    1.48000002    2.59999990
   19.97638893  145.98100281    1.48000002    2.59999990
   19.97861099  153.02699280    1.36000001    2.59999990
   19.98194504  148.05999756    1.30999994    2.57999992
   19.98527718  154.27600098    1.30999994    2.57999992
   19.98861122  148.22200012    1.28999996    2.59999990
   19.99166679  145.42100525    1.26999998    2.59999990
   19.99500084  172.39599609    1.25000000    2.57999992
   19.99805641  171.14399719    1.23000002    2.57999992
   20.00138855  169.91299438    1.25000000    2.59999990
   20.00472260  176.49699402    1.25000000    2.59999990
   20.01083374  176.49699402    1.25000000    2.57999992
   20.01472282  182.88200378    1.28999996    2.57999992
   20.01805496  183.92599487    1.28999996    2.57999992
   20.02138901  179.99099731    1.28999996    2.57999992
   20.02444458  168.23699951    1.26999998    2.57999992
   20.02777672  179.87899780    1.26999998    2.57999992
   20.03111076  173.26199341    1.23000002    2.57999992
   20.03416634  180.17599487    1.19000006    2.57999992
   20.03750038  158.77999878    1.13000000    2.57999992
   20.04055595  183.96600342    1.14999998    2.59999990
   20.04305458  169.67399597    1.14999998    2.59999990
   20.04416656  174.53700256    1.19000006    2.57999992
   20.04749870  165.51800537    1.19000006    2.57999992
   20.05333328  165.51800537    1.25000000    2.57999992
   20.05749893  167.65199280    1.36000001    2.57999992
   20.06083298  169.87300110    1.51999998    2.55999994
   20.06416512  158.36900330    1.64999998    2.55999994
   20.06722260  173.48100281    1.73000002    2.55999994
   20.07055664  169.20700073    1.73000002    2.55999994
   20.07361221  171.33500671    1.73000002    2.53999996
   20.07638931  156.15699768    1.75000000    2.55999994
   20.07722282  167.80799866    1.75000000    2.55999994
   20.08055687  162.31300354    1.66999996    2.55999994
   20.08388901  158.68200684    1.63000000    2.55999994
   20.08694458  163.49600220    1.63000000    2.53999996
   20.09027863  170.96400452    1.63000000    2.53999996
   20.09611130  170.96400452    1.64999998    2.53999996
   20.10027885  168.84700012    1.55999994    2.55999994
   20.10361099  163.23599243    1.55999994    2.55999994
   20.10694504  163.09199524    1.51999998    2.55999994
   20.10972214  153.54699707    1.53999996    2.55999994
   20.11027908  154.14599609    1.58000004    2.55999994
   20.11361122  166.91900635    1.60000002    2.55999994
   20.11694527  144.05799866    1.73000002    2.55999994
   20.12000084  159.08599854    1.69000006    2.53999996
   20.12333298  161.98100281    1.66999996    2.53999996
   20.12666702  149.80299377    1.64999998    2.53999996
   20.12972260  159.13900757    1.61000001    2.53999996
   20.13305473  158.27299500    1.61000001    2.51999998
   20.13916588  158.27299500    1.51999998    2.53999996
   20.14333344  154.93800354    1.50000000    2.55999994
   20.14638901  161.26800537    1.66999996    2.51999998
   20.14972115  154.29200745    1.69000006    2.51999998
   20.15305519  160.63600159    1.71000004    2.51999998
   20.15611076  161.69999695    1.71000004    2.51999998
   20.15944481  159.05400085    1.80999994    2.51999998
   20.16250038  158.38200378    1.75000000    2.51999998
   20.16583252  157.50199890    1.64999998    2.51999998
   20.16916656  161.85400391    1.63000000    2.53999996
   20.17249870  160.32699585    1.63000000    2.53999996
   20.17555428  160.19700623    1.61000001    2.53999996
   20.17638779  155.45899963    1.61000001    2.53999996
   20.18194389  155.45899963    1.86000001    2.53999996
   20.18610954  164.36000061    1.98000002    2.51999998
   20.18944359  152.67100525    1.96000004    2.50000000
   20.19249916  156.30799866    1.98000002    2.51999998
   20.21000099  150.73300171    1.94000006    2.51999998
   20.21250153  153.82400513    1.94000006    2.51999998
   20.21555710  159.43099976    1.88000000    2.51999998
   20.21888924  150.67599487    1.71000004    2.51999998
   20.22500038  150.67599487    1.73000002    2.51999998
   20.22916794  156.25700378    1.69000006    2.51999998
   20.23222351  153.60400391    1.66999996    2.51999998
   20.23555565  153.23699951    1.63000000    2.50000000
   20.23888969  151.15100098    1.60000002    2.51999998
   20.24194527  150.55400085    1.60000002    2.51999998
   20.24333382  157.44700623    1.60000002    2.51999998
   20.24583435  152.12100220    1.60000002    2.51999998
   20.24888992  153.82299805    1.55999994    2.51999998
   20.25222206  153.05999756    1.53999996    2.51999998
   20.25555611  148.36300659    1.51999998    2.51999998
   20.25861168  154.19200134    1.51999998    2.51999998
   20.26194382  152.65400696    1.50000000    2.51999998
   20.26777840  152.65400696    2.26999998    2.50000000
   20.27194405  154.93800354    2.48000002    2.50000000
   20.27499962  159.46200562    2.94000006    2.50000000
   20.27666664  152.96400452    3.03999996    2.50000000
   20.27888870  156.02699280    3.07999992    2.50000000
   20.28194427  155.34199524    3.18000007    2.46000004
   20.28527641  155.57699585    3.41000009    2.46000004
   20.28861046  157.60299683    3.36999989    2.46000004
   20.29166603  158.56900024    3.14000010    2.46000004
   20.29500008  161.19599915    3.48000002    2.48000002
   20.29805565  157.06900024    4.07999992    2.50000000
   20.30138779  155.94599915    4.90999985    2.51999998
   20.30472183  158.91200256    4.90999985    2.51999998
   20.31055450  158.91200256    2.48000002    2.48000002
   20.31472206  155.63400269    2.46000004    2.48000002
   20.31805611  153.93200684    2.40000010    2.48000002
   20.32111168  154.60400391    2.23000002    2.48000002
   20.32444572  155.70599365    2.09999990    2.50000000
   20.32777786  149.16099548    1.75000000    2.50000000
   20.33083344  158.30299377    1.63000000    2.50000000
   20.33416748  153.41400146    1.46000004    2.48000002
   20.33722305  152.66299438    1.39999998    2.48000002
   20.34055710  157.13000488    1.38000000    2.48000002
   20.34333420  154.59500122    1.38000000    2.50000000
   20.34416771  155.20399475    1.38000000    2.50000000
   20.34722328  155.56100464    1.36000001    2.50000000
   20.35333443  155.56100464    1.38000000    2.50000000
   20.35750008  154.71000671    1.36000001    2.50000000
   20.36083412  153.01800537    1.34000003    2.50000000
   20.36388969  152.99499512    1.33000004    2.50000000
   20.36722183  155.03399658    1.30999994    2.48000002
   20.37055588  152.92799377    1.30999994    2.48000002
   20.37361145  152.31500244    1.30999994    2.50000000
   20.37666702  153.30799866    1.30999994    2.48000002
   20.37750053  161.74000549    1.30999994    2.48000002
   20.38055611  152.13699341    1.30999994    2.48000002
   20.38388824  150.62899780    1.28999996    2.48000002
   20.38722229  148.70300293    1.33000004    2.48000002
   20.39027786  152.27099609    1.33000004    2.50000000
   20.39638901  152.27099609    1.34000003    2.48000002
   20.40055466  154.95300293    1.36000001    2.48000002
   20.40361023  154.85800171    1.44000006    2.48000002
   20.40694427  158.23399353    1.44000006    2.48000002
   20.40999985  157.45199585    1.50000000    2.48000002
   20.41055489  154.20599365    1.50000000    2.48000002
   20.41388893  152.17999268    1.61000001    2.48000002
   20.41694450  151.55900574    1.63000000    2.48000002
   20.42027664  151.99600220    1.73000002    2.48000002
   20.42361069  153.13099670    1.66999996    2.48000002
   20.42666626  154.05599976    1.66999996    2.48000002
   20.43000031  152.94200134    1.60000002    2.48000002
   20.43333244  150.03300476    1.66999996    2.48000002
   20.43916512  150.03300476    2.80999994    2.46000004
   20.44333267  159.62800598    3.39000010    2.48000002
   20.44388771  156.32099915    3.50000000    2.46000004
   20.44694328  166.16999817    4.42999983    2.32999992
   20.45027924  161.11000061    4.90999985    2.34999990
   20.45361137  162.58200073    4.90999985    2.36999989
   20.45666695  167.92900085    4.90999985    2.28999996
   20.46000099  167.54800415    4.90999985    2.32999992
   20.46305656  167.53199768    4.90999985    2.28999996
   20.46638870  171.34199524    4.90999985    2.26999998
   20.46972275  173.79400635    4.90999985    2.19000006
   20.47277832  167.98599243    4.90999985    2.17000008
   20.47611237  163.28799438    4.90999985    2.25000000
   20.47722244  163.07899475    4.90999985    2.30999994
   20.48194504  163.07899475    4.90999985    2.39000010
   20.48611069  164.58999634    4.90999985    2.32999992
   20.48944473  157.26699829    4.90999985    2.28999996
   20.49250031  159.77299500    4.90999985    2.30999994
   20.49583435  153.33900452    4.90999985    2.34999990
   20.49916649  156.91999817    4.84999990    2.39000010
   20.50222206  152.57899475    3.91000009    2.39000010
   20.50555611  157.02200317    3.64000010    2.39000010
   20.50861168  157.47900391    3.46000004    2.40000010
   20.51055527  164.07400513    3.21000004    2.40000010
   20.51222229  155.08000183    3.07999992    2.42000008
   20.51555634  156.95700073    2.69000006    2.42000008
   20.51861000  160.37199402    2.55999994    2.42000008
   20.52472115  160.37199402    4.90999985    2.46000004
   20.52888870  154.43099976    4.63999987    2.44000006
   20.53222275  152.75199890    4.90999985    2.42000008
   20.53527641  165.08000183    4.90999985    2.36999989
   20.53861046  210.19900513    4.90999985    2.32999992
   20.54194450  115.27799988    4.90999985    1.01999998
   20.54388809  146.96400452    4.90999985    0.86000001
   20.54527664  165.99899292    4.90999985    2.03999996
   20.54861069  161.59100342    4.90999985    2.34999990
   20.55166626  165.73899841    4.90999985    2.34999990
   20.55499840  159.14500427    4.90999985    2.40000010
   20.55833244  149.28300476    4.90999985    2.40000010
   20.56138802   -1.00000000    4.90999985    2.40000010
   20.56777954   -1.00000000    4.90999985    2.23000002
   20.57194519  157.91499329    4.90999985    2.03999996
   20.57500076  150.65600586    4.90999985    2.46000004
   20.57722282  154.80099487    4.90999985    2.44000006
   20.57861137  154.12600708    4.55999994    2.46000004
   20.58194542  146.69799805    2.78999996    2.42000008
   20.58500099  148.82299805    2.23000002    2.42000008
   20.58833313  154.83999634    2.15000010    2.40000010
   20.59166718  146.29600525    2.17000008    2.40000010
   20.59472275  145.98100281    1.91999996    2.39000010
   20.59805679  150.64599609    1.88000000    2.39000010
   20.60138893  150.49699402    1.69000006    2.40000010
   20.60444450  147.95399475    1.61000001    2.40000010
   20.61055565  147.95399475    1.58000004    2.40000010
   20.61472321  146.66799927    1.55999994    2.42000008
   20.61777878  147.61599731    1.53999996    2.42000008
   20.62111092  147.83000183    1.53999996    2.42000008
   20.62444496  150.31500244    1.53999996    2.42000008
   20.62750053  144.21200562    1.60000002    2.42000008
   20.63083267  152.94000244    1.58000004    2.42000008
   20.63388824  147.66999817    1.58000004    2.42000008
   20.63722229  144.60000610    1.60000002    2.42000008
   20.64055634  149.16999817    1.63000000    2.42000008
   20.64361191  148.48899841    1.63000000    2.42000008
   20.64416695  145.63200378    1.64999998    2.42000008
   20.64749908  146.07499695    1.64999998    2.42000008
   20.65333366  146.07499695    1.55999994    2.42000008
   20.65749931  146.81199646    1.53999996    2.42000008
   20.66083336  147.18400574    1.55999994    2.40000010
   20.66388893  150.43800354    1.61000001    2.42000008
   20.66722107  153.78399658    1.64999998    2.40000010
   20.67027664  141.86999512    1.64999998    2.40000010
   20.67361069  149.24099731    1.73000002    2.40000010
   20.67694473  151.69799805    1.80999994    2.39000010
   20.67749977  147.17300415    1.80999994    2.39000010
   20.68055534  149.76300049    1.83000004    2.40000010
   20.68361092  155.53900146    1.83000004    2.40000010
   20.68694305  147.16499329    1.83000004    2.40000010
   20.69027710  152.34800720    1.80999994    2.40000010
   20.69610977  152.34800720    1.76999998    2.40000010
   20.70027924  152.61099243    1.78999996    2.40000010
   20.70361137  145.71499634    1.83000004    2.40000010
   20.70666695  147.94900513    1.83000004    2.40000010
   20.71000099  147.15899658    1.85000002    2.39000010
   20.71083450  150.47799683    1.85000002    2.39000010
   20.71361160  147.33900452    1.86000001    2.39000010
   20.71666718   -1.00000000    1.86000001    2.39000010
   20.72000122   -1.00000000    1.86000001    2.39000010
   20.72333336  133.93299866    1.86000001    2.39000010
   20.72638893  159.12600708    2.76999998    2.39000010
   20.72972298  168.24800110    3.11999989    2.36999989
   20.73277855  162.71899414    4.03999996    2.26999998
   20.73916626  162.71899414    4.21999979    2.32999992
   20.74305534  164.16200256    3.61999989    2.30999994
   20.74416733  161.00399780    3.57999992    2.30999994
   20.74694443  175.36300659    3.66000009    2.32999992
   20.75000000  162.00100708    3.55999994    2.32999992
   20.75333405  163.81700134    3.41000009    2.32999992
   20.75666618  161.63400269    3.43000007    2.32999992
   20.75972176  160.80000305    3.50000000    2.30999994
   20.76305580  155.02200317    3.51999998    2.34999990
   20.76638794  160.36000061    3.21000004    2.36999989
   20.76944351  158.01400757    3.00000000    2.34999990
   20.77277756  155.79400635    3.00000000    2.32999992
   20.77583313  166.36399841    3.16000009    2.34999990
   20.77750015  160.07699585    3.34999990    2.32999992
   20.78194427  160.07699585    3.34999990    2.34999990
   20.78610992  163.37699890    3.07999992    2.32999992
   20.78916550  161.06300354    2.96000004    2.32999992
   20.79249954  166.21600342    2.86999989    2.32999992
   20.79583359  157.02900696    2.75000000    2.32999992
   20.79888916  165.16200256    2.55999994    2.34999990
   20.80222130  159.37399292    2.44000006    2.34999990
   20.80527687  166.00300598    2.26999998    2.36999989
   20.80861092  155.51499939    2.28999996    2.34999990
   20.81083298  167.99800110    2.19000006    2.34999990
   20.81222153  164.98800659    2.23000002    2.34999990
   20.81527710  161.06100464    2.28999996    2.34999990
   20.81861115  161.57899475    2.39000010    2.34999990
   20.82472229  161.57899475    2.03999996    2.36999989
   20.82888985  159.12800598    2.03999996    2.34999990
   20.83222389  160.85499573    1.94000006    2.34999990
   20.83527756  158.15199280    2.01999998    2.34999990
   20.83861160  159.15199280    2.09999990    2.34999990
   20.84166718  158.56500244    2.11999989    2.34999990
   20.84416771  163.90800476    2.25000000    2.34999990
   20.84555626  161.48399353    2.21000004    2.36999989
   20.84861183  158.11900330    2.11999989    2.36999989
   20.85194397  157.20199585    2.21000004    2.36999989
   20.85527802  169.82699585    2.40000010    2.34999990
   20.85833359  159.98899841    2.98000002    2.36999989
   20.86166763  164.82400513    3.30999994    2.36999989
   20.86750031  164.82400513    3.75000000    2.36999989
   20.87166595  177.75599670    4.90999985    2.26999998
   20.87500000  220.25500488    4.90999985    2.05999994
   20.87750053  224.44700623    4.90999985    1.96000004
   20.87861061  229.48100281    4.90999985    1.98000002
   20.88166618  222.62600708    4.90999985    2.00000000
   20.88500023  207.03900146    4.90999985    2.03999996
   20.88833237  203.38999939    4.90999985    2.07999992
   20.89138794  201.79400635    4.90999985    2.07999992
   20.89472198  195.07600403    4.90999985    2.09999990
   20.89805603  182.88800049    4.90999985    2.17000008
   20.90111160  208.57800293    4.90999985    2.13000011
   20.90444374  206.13000488    4.90999985    2.03999996
   20.91055489  206.13000488    4.90999985    2.05999994
   20.91472244  178.06399536    4.90999985    2.15000010
   20.91777802  186.94999695    4.90999985    2.17000008
   20.92111015  172.66999817    4.90999985    2.19000006
   20.92416573  169.27200317    4.90999985    2.26999998
   20.92749977  175.44900513    4.90999985    2.28999996
   20.93083191  169.45100403    4.90999985    2.28999996
   20.93388748  178.71800232    4.90999985    2.25000000
   20.93722153  168.28900146    4.90999985    2.26999998
   20.94055557  177.08999634    4.90999985    2.23000002
   20.94361115  181.55599976    4.90999985    2.21000004
   20.94555473  182.16499329    4.90999985    2.19000006
   20.94722176  189.36000061    4.90999985    2.17000008
   20.95333481  189.36000061    4.90999985    2.17000008
   20.95750046  177.66700745    4.90999985    2.23000002
   20.96055603  167.68600464    4.90999985    2.23000002
   20.96389008  164.67700195    4.90999985    2.26999998
   20.96722221  173.29800415    4.90999985    2.26999998
   20.97027779  171.34199524    4.53000021    2.26999998
   20.97361183  180.05000305    4.01999998    2.26999998
   20.97666740  172.25300598    3.86999989    2.28999996
   20.97888947  167.63600159    3.78999996    2.28999996
   20.98027802  173.78599548    3.73000002    2.28999996
   20.98361206  178.60499573    3.75000000    2.28999996
   20.98694420  169.80499268    4.09999990    2.28999996
   20.98999977  173.13299561    4.61999989    2.28999996
   20.99611092  173.13299561    4.90999985    2.25000000
   21.00027847  186.55799866    4.90999985    2.21000004
   21.00361061  199.30799866    4.90999985    2.19000006
   21.00666618  208.11199951    4.90999985    2.13000011
   21.01000023  269.34201050    4.90999985    2.05999994
   21.01222229  278.99200439    4.90999985    1.89999998
   21.01361084  266.22900391    4.90999985    1.89999998
   21.01694489  243.39700317    4.90999985    1.85000002
   21.02000046  284.15600586    4.90999985    1.78999996
   21.02333260  245.57699585    4.90999985    1.85000002
   21.02638817  124.57900238    4.90999985    1.83000004
   21.02972221  111.23699951    4.90999985    1.69000006
   21.03305435   -1.00000000    4.90999985    1.60000002
   21.03888893   -1.00000000    4.90999985    1.11000001
   21.04305458   -1.00000000   -1.00000000   -1.00000000
   21.04555511  124.15100098    4.90999985    1.39999998
   21.04666710  111.89700317    4.90999985    1.53999996
   21.04999924  112.60099792    4.90999985    1.63000000
   21.05305481  120.53199768    4.90999985    1.69000006
   21.05638885  103.19799805    4.90999985    1.69000006
   21.05944443  117.87599945    4.90999985    1.60000002
   21.06277657  107.83999634    4.90999985    1.61000001
   21.06611061   -1.00000000    4.90999985    1.53999996
   21.06916809   55.34609985    4.90999985    1.44000006
   21.07250023   -1.00000000    4.90999985    1.44000006
   21.07583427   -1.00000000    4.90999985    1.39999998
   21.08194542   -1.00000000    4.90999985    1.13000000
   21.08583450   -1.00000000    4.90999985    1.26999998
   21.08916664  115.27600098    4.90999985    1.38000000
   21.09250069  185.62300110    4.90999985    1.50000000
   21.09555626  270.65200806    4.90999985    1.64999998
   21.09889030  277.66299438    4.90999985    1.78999996
   21.10222244  251.32200623    4.90999985    1.83000004
   21.10555649  227.10899353    4.90999985    1.91999996
   21.10861206  212.85600281    4.90999985    1.98000002
   21.11194420  208.97700500    4.90999985    2.01999998
   21.11277771  205.53199768    4.90999985    2.00000000
   21.11527824  210.86700439    4.90999985    2.00000000
   21.11861038  203.58099365    4.90999985    1.98000002
   21.12472153  203.58099365    4.90999985    2.00000000
   21.12888908  200.66999817    4.90999985    2.00000000
   21.13194466  203.94200134    4.90999985    2.00000000
   21.13527679  196.13200378    4.90999985    2.03999996
   21.13861084  182.87399292    4.90999985    2.05999994
   21.14166641  196.26199341    4.90999985    2.09999990
   21.14500046  198.46600342    4.90999985    2.07999992
   21.14611053  191.71000671    4.90999985    2.05999994
   21.14833260  185.14100647    4.90999985    2.05999994
   21.15166664  179.47200012    4.90999985    2.07999992
   21.15499878  199.32800293    4.90999985    2.11999989
   21.15805435  203.44599915    4.90999985    2.05999994
   21.16138840  203.24699402    4.90999985    2.01999998
   21.16749954  203.24699402    4.90999985    2.01999998
   21.17166519  196.19700623    4.90999985    2.01999998
   21.17499924  200.22000122    4.90999985    1.98000002
   21.17805481  193.05999756    4.90999985    2.00000000
   21.17972183  197.27600098    4.90999985    2.01999998
   21.18166542  208.08599854    4.90999985    2.01999998
   21.18499947  197.86599731    4.90999985    2.00000000
   21.18833160  222.08999634    4.90999985    2.01999998
   21.19138718  290.09201050    4.90999985    2.07999992
   21.19472122  323.31100464    4.90999985    2.09999990
   21.19777679  277.60800171    4.90999985    2.11999989
   21.20111275  138.62699890    4.90999985    2.11999989
   21.20444489  101.16100311    4.90999985    2.13000011
   21.21027946  101.16100311    4.90999985    2.11999989
   21.22888947   -1.00000000    4.90999985    2.11999989
   21.23194504   -1.00000000    4.90999985    2.13000011
   21.23527718   -1.00000000    4.90999985    2.15000010
   21.23833275   -1.00000000    4.90999985    2.15000010
   21.24166679   -1.00000000    4.90999985    2.15000010
   21.24500084   -1.00000000    4.90999985    2.13000011
   21.24805641   -1.00000000    4.90999985    2.17000008
   21.25749969   -1.00000000    4.90999985    2.13000011
   21.26083374   -1.00000000    4.90999985    2.11999989
   21.26444435   -1.00000000    4.90999985    2.09999990
   21.26749992   -1.00000000    4.90999985    2.07999992
   21.27083397   -1.00000000    4.90999985    2.07999992
   21.27416611   -1.00000000    4.90999985    2.13000011
   21.27722168   -1.00000000    4.90999985    2.17000008
   21.28055573   -1.00000000    4.90999985    2.17000008
   21.28388786   -1.00000000    4.90999985    2.17000008
   21.28694344   -1.00000000    4.90999985    2.17000008
   21.29027748   -1.00000000    4.90999985    2.15000010
   21.30027771   -1.00000000    4.90999985    2.17000008
   21.30360985   -1.00000000    4.90999985    2.17000008
   21.30694389   -1.00000000    4.90999985    2.17000008
   21.30999947   -1.00000000    4.90999985    2.19000006
   21.31333351   -1.00000000    4.90999985    2.19000006
   21.31638718   -1.00000000    4.90999985    2.19000006
   21.31972313   -1.00000000    4.90999985    2.15000010
   21.32305717   -1.00000000    4.90999985    2.13000011
   21.32611275   -1.00000000    4.90999985    2.11999989
   21.32972336   -1.00000000    4.90999985    2.07999992
   21.33277893   -1.00000000    4.90999985    1.98000002
   21.34333420   -1.00000000    4.90999985    1.98000002
   21.34638977   -1.00000000    4.90999985    1.86000001
   21.34972191   -1.00000000    4.90999985    1.69000006
   21.35277748   -1.00000000    4.90999985    1.50000000
   21.35611153   -1.00000000    4.90999985    1.44000006
   21.35944557   -1.00000000    4.90999985    1.41999996
   21.36305618   -1.00000000    4.90999985    1.34000003
   21.36611176   -1.00000000    4.90999985    1.28999996
   21.36944389   -1.00000000    2.51999998    0.23000000
   21.37277794   -1.00000000    1.39999998    0.01000000
   21.37583351   -1.00000000    1.39999998    0.01000000
   21.38611031   -1.00000000    1.39999998    0.01000000
   21.38916588   -1.00000000    1.39999998    0.01000000
   21.39249992   -1.00000000    1.39999998    0.01000000
   21.39611053   -1.00000000    1.39999998    0.01000000
   21.39916611   -1.00000000    1.39999998    0.01000000
   21.40250015   -1.00000000    1.39999998    0.01000000
   21.40583229   -1.00000000    1.39999998    0.01000000
   21.40888786   -1.00000000    1.39999998    0.01000000
   21.41222191   -1.00000000    1.39999998    0.01000000
   21.41555595   -1.00000000    1.39999998    0.01000000
   21.41860962   -1.00000000    1.39999998    0.01000000
   21.42888832   -1.00000000    1.39999998    0.01000000
   21.43222237   -1.00000000    1.39999998    0.01000000
   21.43527603   -1.00000000    1.39999998    0.01000000
   21.43861008   -1.00000000    1.39999998    0.01000000
   21.44194412   -1.00000000    1.39999998    0.01000000
   21.44499969   -1.00000000    1.39999998    0.01000000
   21.44833183   -1.00000000    1.39999998    0.01000000
   21.45138931   -1.00000000    1.39999998    0.01000000
   21.45472336   -1.00000000    1.39999998    0.01000000
   21.45805550   -1.00000000    1.39999998    0.01000000
   21.46111107   -1.00000000    1.39999998    0.01000000
   21.47416687   -1.00000000    1.39999998    0.01000000
