    HOUR (UT)   FLARE FACTOR    SKY TESTER    SUN TESTER
   12.04833412   -1.00000000   -1.00000000   -1.00000000
   12.92166710   -1.00000000    4.90999985    1.26999998
   12.92500019   -1.00000000    4.90999985    1.28999996
   12.92833328   -1.00000000    4.90999985    1.28999996
   12.93138885   -1.00000000    4.90999985    1.33000004
   12.93472195   -1.00000000    4.90999985    1.33000004
   12.93888855   -1.00000000    4.90999985    1.30999994
   12.94305515   -1.00000000    4.90999985    1.28999996
   12.94611073   -1.00000000    4.90999985    1.28999996
   12.94944477   -1.00000000    4.90999985    1.30999994
   12.95305538   -1.00000000    4.90999985    1.33000004
   12.95638847   -1.00000000    4.90999985    1.36000001
   12.95944405   -1.00000000   -1.00000000   -1.00000000
   12.96277714   -1.00000000    4.90999985    1.36000001
   12.96611118   -1.00000000    4.90999985    1.34000003
   12.96916580   -1.00000000    4.90999985    1.34000003
   12.97249985   -1.00000000    4.90999985    1.33000004
   12.97583294   -1.00000000    4.90999985    1.28999996
   12.98166656   -1.00000000    4.90999985    1.23000002
   12.98583317   -1.00000000    4.90999985    1.21000004
   12.98916721   -1.00000000    4.90999985    1.19000006
   12.99222279   -1.00000000    4.90999985    1.19000006
   12.99555588   -1.00000000    4.90999985    1.16999996
   12.99861145   -1.00000000    4.90999985    1.16999996
   13.00194454   -1.00000000    4.90999985    1.13000000
   13.00527763   -1.00000000    4.90999985    1.11000001
   13.00833321   -1.00000000    4.90999985    1.14999998
   13.01166630   -1.00000000    4.90999985    1.16999996
   13.01500034   -1.00000000    4.90999985    1.19000006
   13.01805496   -1.00000000    4.90999985    1.16999996
   13.02861118   -1.00000000    4.90999985    1.03999996
   13.03194427   -1.00000000    4.90999985    1.00000000
   13.03500080   -1.00000000    4.90999985    0.89999998
   13.03833389   -1.00000000    4.90999985    0.80000001
   13.04138947   -1.00000000    4.90999985    0.76999998
   13.04472256   -1.00000000    4.90999985    0.89999998
   13.04805565   -1.00000000    4.90999985    1.00000000
   13.05111122   -1.00000000    4.90999985    1.07000005
   13.05472279   -1.00000000    4.90999985    1.11000001
   13.05805588   -1.00000000    4.90999985    1.16999996
   13.06138897   -1.00000000    4.90999985    1.23000002
   13.06750011   -1.00000000    4.90999985    1.30999994
   13.07166672   -1.00000000    4.90999985    1.34000003
   13.07472229  196.05999756    4.90999985    1.38000000
   13.07805538  167.59399414    4.90999985    1.53999996
   13.08111095  174.27099609    4.90999985    1.69000006
   13.08444405  177.07600403    4.90999985    1.73000002
   13.08527756  203.79699707    4.90999985    1.73000002
   13.08805561  151.54899597    4.90999985    1.69000006
   13.09111118  177.32800293    4.90999985    1.66999996
   13.09444427  191.05599976    4.90999985    1.64999998
   13.09777737  201.72000122    4.90999985    1.66999996
   13.10083389  249.50000000    4.90999985    1.69000006
   13.10416698  279.31500244    4.90999985    1.71000004
   13.11027813  279.31500244    4.90999985    1.71000004
   13.11444473  144.07000732    4.90999985    1.64999998
   13.11750031  174.37500000    4.90999985    1.58000004
   13.11861134  161.84100342    4.90999985    1.55999994
   13.12138939  179.07600403    4.90999985    1.60000002
   13.12444496  269.30700684    4.90999985    1.66999996
   13.12777805  358.13598633    4.90999985    1.73000002
   13.13111115  218.78300476    4.90999985    1.69000006
   13.13416672  255.57099915    4.90999985    1.66999996
   13.13749981  314.09500122    4.90999985    1.73000002
   13.14083290  283.01400757    4.90999985    1.83000004
   13.14388847  291.42098999    4.90999985    1.83000004
   13.14722252  315.70999146    4.90999985    1.80999994
   13.15305519  315.70999146    4.90999985    1.80999994
   13.15722179  333.13101196    4.90999985    1.78999996
   13.16055489  316.40899658    4.90999985    1.78999996
   13.16361046  313.50601196    4.90999985    1.78999996
   13.16694450  323.36199951    4.90999985    1.76999998
   13.17027855  242.34899902    4.90999985    1.71000004
   13.17333412  212.02000427    4.90999985    1.66999996
   13.17666721  302.69198608    4.90999985    1.71000004
   13.17972279  306.82400513    4.90999985    1.75000000
   13.18305588  627.77600098    4.90999985    1.73000002
   13.18500042  343.74600220    4.90999985    1.73000002
   13.18527794  323.36199951    4.90999985    1.76999998
   13.18527794  242.34899902    4.90999985    1.71000004
   13.18527794  212.02000427    4.90999985    1.66999996
   13.18555546  302.69198608    4.90999985    1.71000004
   13.18555546  306.82400513    4.90999985    1.75000000
   13.18555546  627.77600098    4.90999985    1.73000002
   13.18583298  333.13101196    4.90999985    1.78999996
   13.18583298  316.40899658    4.90999985    1.78999996
   13.18611145  313.50601196    4.90999985    1.78999996
   13.18805599  303.79400635    4.90999985    1.73000002
   13.19111156  193.11599731    4.90999985    1.69000006
   13.19444466  191.70399475    4.90999985    1.64999998
   13.19777775  213.50999451    4.90999985    1.64999998
   13.20083332  232.70100403    4.90999985    1.64999998
   13.20583344  232.70100403    4.90999985    1.69000006
   13.21000004  283.87600708    4.90999985    1.75000000
   13.21333313  278.19000244    4.90999985    1.78999996
   13.21638870  284.30499268    4.90999985    1.80999994
   13.21888828  288.67098999    4.90999985    1.78999996
   13.22027779  299.16101074    4.90999985    1.78999996
   13.22361088  280.39700317    4.90999985    1.78999996
   13.22666645  291.95001221    4.90999985    1.83000004
   13.22999954  259.44601440    4.90999985    1.85000002
   13.23305511  260.89001465    4.90999985    1.85000002
   13.23638916  235.04699707    4.90999985    1.85000002
   13.23972225  241.89100647    4.90999985    1.86000001
   13.24277782  241.05299377    4.90999985    1.88000000
   13.24888897  241.05299377    4.90999985    1.88000000
   13.25277805  230.69999695    4.90999985    1.88000000
   13.25611115  255.09500122    4.90999985    1.88000000
   13.25944424  244.69500732    4.90999985    1.86000001
   13.26249981  246.87199402    4.90999985    1.86000001
   13.26583290  222.42199707    4.90999985    1.89999998
   13.26916599  229.82699585    4.90999985    1.89999998
   13.27222157  251.01300049    4.90999985    1.89999998
   13.27555561  281.04998779    4.90999985    1.89999998
   13.27861118  292.52801514    4.90999985    1.89999998
   13.28194427  299.33999634    4.90999985    1.89999998
   13.28527832  316.35198975    4.90999985    1.89999998
   13.28583336  314.79901123    4.90999985    1.89999998
   13.29166698  314.79901123    4.90999985    1.89999998
   13.29583359  325.38400269    4.90999985    1.88000000
   13.29888916  265.72000122    4.90999985    1.89999998
   13.30222225  360.11099243    4.90999985    1.89999998
   13.30555534  377.76000977    4.90999985    1.88000000
   13.30861092  314.33599854    4.90999985    1.83000004
   13.31194496  131.47799683    4.90999985    1.69000006
   13.31500053   -1.00000000    4.90999985    1.50000000
   13.31833363   -1.00000000    4.90999985    1.16999996
   13.32194424   -1.00000000    4.90999985    1.07000005
   13.32499981   -1.00000000    4.90999985    1.05999994
   13.32833290   -1.00000000    4.90999985    1.09000003
   13.33861065   -1.00000000    4.90999985    1.07000005
   13.34166622   -1.00000000    4.90999985    1.14999998
   13.34499931   -1.00000000    4.90999985    1.23000002
   13.34805489   -1.00000000    4.90999985    1.25000000
   13.35138893   -1.00000000    4.90999985    1.30999994
   13.35500050   -1.00000000    4.90999985    1.39999998
   13.35833359   -1.00000000   -1.00000000   -1.00000000
   13.36138916   -1.00000000    4.90999985    1.41999996
   13.36472225   -1.00000000    4.90999985    1.39999998
   13.36777782   -1.00000000   -1.00000000   -1.00000000
   13.37111092   -1.00000000    4.90999985    1.46000004
   13.37722206   -1.00000000    4.90999985    1.39999998
   13.38138866   52.62860107    4.90999985    1.41999996
   13.38472176  123.17700195    4.90999985    1.48000002
   13.38583279  123.72100067    4.90999985    1.50000000
   13.38833332  127.61599731    4.90999985    1.55999994
   13.39166641  162.14300537    4.90999985    1.58000004
   13.39499950  141.55700684    4.90999985    1.58000004
   13.39805508  140.55000305    4.90999985    1.58000004
   13.40138817  131.93099976    4.90999985    1.61000001
   13.40444374  164.89100647    4.90999985    1.63000000
   13.40777779  188.41099548    4.90999985    1.66999996
   13.41111088  175.45399475    4.90999985    1.64999998
   13.41416645  171.53100586    4.90999985    1.63000000
   13.42027855  171.53100586    4.90999985    1.66999996
   13.42416668  288.54501343    4.90999985    1.76999998
   13.42750072  226.38900757    4.90999985    1.76999998
   13.43083382  203.44299316    4.90999985    1.75000000
   13.43388939  231.44400024    4.90999985    1.76999998
   13.43722248  141.33099365    4.90999985    1.76999998
   13.44055557  132.38200378    4.90999985    1.71000004
   13.44361115  171.10299683    4.90999985    1.66999996
   13.44694424  122.31199646    4.90999985    1.66999996
   13.44999981   80.97129822    4.90999985    1.60000002
   13.45249939   49.90560150    4.90999985    1.53999996
   13.45361137   -1.00000000    4.90999985    1.51999998
   13.45694447   -1.00000000   -1.00000000   -1.00000000
   13.46305561   -1.00000000   -1.00000000   -1.00000000
   13.46722221   -1.00000000    4.90999985    1.39999998
   13.47027779   -1.00000000    4.90999985    1.34000003
   13.47361088   -1.00000000    4.90999985    1.28999996
   13.47666645   -1.00000000    4.90999985    1.26999998
   13.47999954   -1.00000000    4.90999985    1.26999998
   13.48333359   -1.00000000    4.90999985    1.25000000
   13.48694515   -1.00000000    4.90999985    1.25000000
   13.49027824   -1.00000000    4.90999985    1.26999998
   13.49333382   -1.00000000    4.90999985    1.26999998
   13.49666691   -1.00000000    4.90999985    1.23000002
   13.49972248   -1.00000000    4.90999985    1.19000006
   13.50972176   -1.00000000    4.90999985    1.00000000
   13.51305580   -1.00000000    4.90999985    0.94000000
   13.51638889   -1.00000000    4.90999985    0.89999998
   13.51999950   -1.00000000    4.90999985    0.92000002
   13.52305508   -1.00000000    4.90999985    0.92000002
   13.52638817   -1.00000000    4.90999985    0.89999998
   13.52972221   -1.00000000    4.90999985    0.89999998
   13.53277779   -1.00000000    4.90999985    0.89999998
   13.53611183   -1.00000000    4.90999985    0.94000000
   13.53944492   -1.00000000    4.90999985    0.95999998
   13.54250050   -1.00000000    4.90999985    0.95999998
   13.55277824   -1.00000000    4.90999985    0.81999999
   13.55583382   -1.00000000    4.90999985    0.80000001
   13.55916691   -1.00000000    4.90999985    0.76999998
   13.56250000   -1.00000000    4.90999985    0.70999998
   13.56555557   -1.00000000    4.90999985    0.75000000
   13.56888866   -1.00000000    4.90999985    0.79000002
   13.57194424   -1.00000000    4.90999985    0.73000002
   13.57527733   -1.00000000    4.90999985    0.67000002
   13.57861137   -1.00000000    4.90999985    0.61000001
   13.58166695   -1.00000000    4.90999985    0.61000001
   13.58500004   -1.00000000    4.90999985    0.61000001
   13.94916630  261.61700439    4.90999985    1.91999996
   13.95249939  241.44200134    4.90999985    1.94000006
   13.95555496  269.25500488    4.90999985    1.94000006
   13.95888901  225.64399719    4.90999985    1.91999996
   13.96222210  211.79600525    4.90999985    1.96000004
   13.96527767  222.71299744    4.90999985    1.96000004
   13.96944427  222.71299744    4.90999985    1.96000004
   13.97361088  207.44200134    4.90999985    2.01999998
   13.97694397  207.90199280    4.90999985    2.01999998
   13.97999954  208.71200562    4.90999985    2.00000000
   13.98249912  212.19299316    4.90999985    2.01999998
   13.98388958  183.90299988    4.90999985    2.03999996
   13.98694515  210.59599304    4.90999985    2.03999996
   13.99027824  193.34899902    4.90999985    2.01999998
   13.99361134  207.95599365    4.90999985    2.00000000
   13.99666691  188.06199646    4.90999985    2.01999998
   14.00000000  194.83200073    4.90999985    2.01999998
   14.00333309  227.34100342    4.90999985    2.00000000
   14.00638866  222.64700317    4.90999985    1.96000004
   14.01222229  222.64700317    4.90999985    1.98000002
   14.01638889  220.86500549    4.90999985    1.96000004
   14.01972198  202.06300354    4.90999985    1.96000004
   14.02305508  190.46299744    4.90999985    2.00000000
   14.02611065  194.66600037    4.90999985    2.01999998
   14.02944374  214.72099304    4.90999985    2.00000000
   14.03249931  177.23599243    4.90999985    1.98000002
   14.03583336  206.43699646    4.90999985    2.00000000
   14.03916740  183.42100525    4.90999985    2.00000000
   14.04222298  185.31199646    4.90999985    2.00000000
   14.04555607  192.42100525    4.90999985    2.03999996
   14.04861164  188.73199463    4.90999985    2.05999994
   14.04916668  193.71699524    4.90999985    2.03999996
   14.05527782  193.71699524    4.90999985    2.03999996
   14.05916691  180.10299683    4.90999985    2.03999996
   14.06250000  185.93899536    4.90999985    2.05999994
   14.06583309  188.91600037    4.90999985    2.03999996
   14.06888866  177.33900452    4.90999985    2.05999994
   14.07222176  207.24800110    4.90999985    2.05999994
   14.07555580  180.53999329    4.90999985    2.05999994
   14.07861137  182.34100342    4.90999985    2.05999994
   14.08194447  185.76400757    4.90999985    2.07999992
   14.08249950  188.13000488    4.90999985    2.07999992
   14.08555508  217.71099854    4.90999985    2.05999994
   14.08888817  212.07499695    4.90999985    2.00000000
   14.09194374  192.43899536    4.90999985    1.98000002
   14.09805489  192.43899536    4.90999985    1.98000002
   14.10222244  193.58799744    4.90999985    1.96000004
   14.10527802  203.26600647    4.90999985    2.00000000
   14.10861111  234.69200134    4.90999985    1.98000002
   14.11194515  234.96499634    4.90999985    1.94000006
   14.11500072  210.31799316    4.90999985    1.98000002
   14.11583328  221.91400146    4.90999985    1.98000002
   14.11861134  204.56500244    4.90999985    1.98000002
   14.12194443  220.32400513    4.90999985    1.98000002
   14.12500000  245.09199524    4.90999985    1.94000006
   14.12833309  268.22399902    4.90999985    1.89999998
   14.13166714  287.57000732    4.90999985    1.88000000
   14.13472176  311.62600708    4.90999985    1.85000002
   14.14083290  311.62600708    4.90999985    1.76999998
   14.14499950  309.32299805    4.90999985    1.76999998
   14.14833355  330.70199585    4.90999985    1.76999998
   14.14944458  294.43600464    4.90999985    1.78999996
   14.15194416  314.19198608    4.90999985    1.80999994
   14.15527725  283.71798706    4.90999985    1.85000002
   14.15861034  315.08801270    4.90999985    1.83000004
   14.16166592  315.87100220    4.90999985    1.85000002
   14.16499996  256.11499023    4.90999985    1.85000002
   14.16805553  220.47900391    4.90999985    1.91999996
   14.17138958  206.05900574    4.90999985    2.00000000
   14.17472267  202.46200562    4.90999985    2.03999996
   14.17777824  188.20700073    4.90999985    2.07999992
   14.18388939  188.20700073    4.90999985    2.05999994
   14.18777752  199.97099304    4.90999985    2.01999998
   14.19111156  191.55799866    4.90999985    2.07999992
   14.19444466  188.09599304    4.90999985    2.09999990
   14.19750023  168.81399536    4.90999985    2.13000011
   14.20083332  178.03399658    4.90999985    2.13000011
   14.20416641  188.13099670    4.90999985    2.13000011
   14.20722198  176.84899902    4.90999985    2.13000011
   14.21055508  176.41900635    4.90999985    2.19000006
   14.21361065  179.46400452    4.90999985    2.15000010
   14.21611118  186.37399292    4.90999985    2.15000010
   14.21722221  176.30000305    4.90999985    2.17000008
   14.22055531  177.88600159    4.90999985    2.19000006
   14.22666645  177.88600159    4.90999985    2.17000008
   14.23083305  173.29899597    4.90999985    2.19000006
   14.23388958  181.04899597    4.90999985    2.19000006
   14.23722267  190.15699768    4.90999985    2.17000008
   14.24027824  202.67700195    4.90999985    2.11999989
   14.24361134  220.64500427    4.90999985    2.07999992
   14.24694443  229.21000671    4.90999985    2.05999994
   14.24944496  249.78599548    4.90999985    2.03999996
   14.25055599  238.18099976    4.90999985    2.03999996
   14.25388908  270.90798950    4.90999985    2.00000000
   14.25694466  269.51699829    4.90999985    1.98000002
   14.26027775  304.94299316    4.90999985    1.98000002
   14.26361084  264.66500854    4.90999985    1.94000006
   14.26944447  264.66500854    4.90999985    1.94000006
   14.27361107  326.63000488    4.90999985    1.96000004
   14.27666664  317.75100708    4.90999985    1.94000006
   14.27999973  350.81900024    4.90999985    1.89999998
   14.28277779  335.72500610    4.90999985    1.86000001
   14.28361130  318.69198608    4.90999985    1.86000001
   14.28694534  343.97601318    4.90999985    1.88000000
   14.29000092  295.45098877    4.90999985    1.89999998
   14.29333401  309.05700684    4.90999985    1.86000001
   14.29666710  335.13800049    4.90999985    1.85000002
   14.29972267  346.28799438    4.90999985    1.85000002
   14.30305576  353.78399658    4.90999985    1.85000002
   14.30638885  350.64599609    4.90999985    1.85000002
   14.31222248  350.64599609    4.90999985    1.76999998
   14.31638908  460.62899780    4.90999985    1.76999998
   14.31833363  395.29199219    4.90999985    1.78999996
   14.31972218  419.74499512    4.90999985    1.76999998
   14.32111073  469.80499268    4.90999985    1.76999998
   14.32250023  474.28900146    4.90999985    1.78999996
   14.32388878  438.40798950    4.90999985    1.78999996
   14.32527733  419.81298828    4.90999985    1.76999998
   14.32666683  467.45800781    4.90999985    1.76999998
   14.32805538  414.83599854    4.90999985    1.76999998
   14.32944393  352.20401001    4.90999985    1.78999996
   14.33083344  437.41198730    4.90999985    1.78999996
   14.33222198  467.51998901    4.90999985    1.80999994
   14.33361053  430.77899170    4.90999985    1.83000004
   14.33500004  380.92700195    4.90999985    1.78999996
   14.33638859  411.69100952    4.90999985    1.76999998
   14.33777714  369.75799561    4.90999985    1.76999998
   14.33916664  408.89898682    4.90999985    1.78999996
   14.34055519  434.93499756    4.90999985    1.78999996
   14.34194374  491.17700195    4.90999985    1.78999996
   14.34333324  489.30300903    4.90999985    1.78999996
   14.34472179  412.35501099    4.90999985    1.78999996
   14.34611034  501.40899658    4.90999985    1.80999994
   14.34749985  472.81100464    4.90999985    1.83000004
   14.34888840  517.20300293    4.90999985    1.85000002
   14.35027790  462.63400269    4.90999985    1.85000002
   14.35166740  575.07098389    4.90999985    1.86000001
   14.35305595  454.69100952    4.90999985    1.85000002
   14.35444450  487.07501221    4.90999985    1.86000001
   14.35583401  458.93600464    4.90999985    1.85000002
   14.35722256  513.11602783    4.90999985    1.85000002
   14.35861111  446.30599976    4.90999985    1.85000002
   14.36000061  477.46301270    4.90999985    1.86000001
   14.36138916  432.88598633    4.90999985    1.86000001
   14.36277771  295.52899170    4.90999985    1.80999994
   14.36277771  346.28799438    4.90999985    1.85000002
   14.36305618  353.78399658    4.90999985    1.85000002
   14.36305618  350.64599609    4.90999985    1.85000002
   14.36305618  460.62899780    4.90999985    1.76999998
   14.36333370  318.69198608    4.90999985    1.86000001
   14.36333370  343.97601318    4.90999985    1.88000000
   14.36333370  295.45098877    4.90999985    1.89999998
   14.36361122  309.05700684    4.90999985    1.86000001
   14.36361122  335.13800049    4.90999985    1.85000002
   14.36416721  355.57699585    4.90999985    1.78999996
   14.36750031  410.00900269    4.90999985    1.83000004
   14.36944485  371.84298706    4.90999985    1.78999996
   14.37083340  303.30999756    4.90999985    1.78999996
   14.37083340  355.57699585    4.90999985    1.78999996
   14.37111092  410.00900269    4.90999985    1.83000004
   14.37222195  311.73999023    4.90999985    1.76999998
   14.37527752  215.26899719    4.90999985    1.75000000
   14.37861156  234.59300232    4.90999985    1.71000004
   14.38166714  236.73300171    4.90999985    1.73000002
   14.38500023  152.61099243    4.90999985    1.71000004
   14.39166641  152.61099243    4.90999985    1.69000006
   14.39583302  151.99499512    4.90999985    1.64999998
   14.39888859   80.15419769    4.90999985    1.63000000
   14.40222168   90.67720032    4.90999985    1.58000004
   14.40472221   68.43969727    4.90999985    1.58000004
   14.40583324   69.31269836    4.90999985    1.55999994
   14.40916634   71.88860321    4.90999985    1.53999996
   14.41249943   71.89029694    4.90999985    1.50000000
   14.41555500   72.59200287    4.90999985    1.48000002
   14.41888905   47.13909912    4.90999985    1.44000006
   14.42222214   -1.00000000    4.90999985    1.39999998
   14.42527771   -1.00000000    4.90999985    1.36000001
   14.42861176   -1.00000000    4.90999985    1.33000004
   14.43444443   -1.00000000    4.90999985    1.33000004
   14.43861103   -1.00000000    4.90999985    1.30999994
   14.44166660   -1.00000000    4.90999985    1.30999994
   14.44499969   -1.00000000    4.90999985    1.33000004
   14.44833374   -1.00000000    4.90999985    1.30999994
   14.45138836   -1.00000000    4.90999985    1.25000000
   14.45472240   -1.00000000    4.90999985    1.25000000
   14.45805550   -1.00000000    4.90999985    1.25000000
   14.46111107   -1.00000000    4.90999985    1.23000002
   14.46444416   -1.00000000    4.90999985    1.23000002
   14.46749973   -1.00000000    4.90999985    1.19000006
   14.47083282   -1.00000000    4.90999985    1.14999998
   14.48138809   -1.00000000    4.90999985    1.14999998
   14.48444462   -1.00000000    4.90999985    1.16999996
   14.48777771   -1.00000000    4.90999985    1.16999996
   14.49111176   -1.00000000    4.90999985    1.16999996
   14.49416733   -1.00000000    4.90999985    1.16999996
   14.49750042   -1.00000000    4.90999985    1.13000000
   14.50083351   -1.00000000    4.90999985    1.13000000
   14.50388908   -1.00000000    4.90999985    1.13000000
   14.50749969   -1.00000000    4.90999985    1.09000003
   14.51083374   -1.00000000    4.90999985    1.09000003
   14.51416683   -1.00000000    4.90999985    1.07000005
   14.52416611   -1.00000000    4.90999985    1.11000001
   14.52750015   -1.00000000    4.90999985    1.11000001
   14.53055573   -1.00000000    4.90999985    1.09000003
   14.53388977   -1.00000000    4.90999985    1.09000003
   14.53722286   -1.00000000    4.90999985    1.07000005
   14.54055595   -1.00000000    4.90999985    1.09000003
   14.54388905   -1.00000000    4.90999985    1.09000003
   14.54722309   -1.00000000    4.90999985    1.09000003
   14.55027771   -1.00000000    4.90999985    1.09000003
   14.55361176   -1.00000000    4.90999985    1.11000001
   14.55666733   -1.00000000    4.90999985    1.16999996
   14.56694412   -1.00000000    4.90999985    1.25000000
   14.57027817   -1.00000000    4.90999985    1.28999996
   14.57361126   -1.00000000    4.90999985    1.26999998
   14.57694435   -1.00000000    4.90999985    1.25000000
   14.58027744   -1.00000000    4.90999985    1.25000000
   14.58333302   -1.00000000    4.90999985    1.26999998
   14.58666611   -1.00000000    4.90999985    1.25000000
   14.58972168   -1.00000000    4.90999985    1.26999998
   14.59305477   -1.00000000    4.90999985    1.26999998
   14.59638882   -1.00000000    4.90999985    1.26999998
   14.59944439   -1.00000000    4.90999985    1.25000000
   14.61000061   -1.00000000    4.90999985    1.23000002
   14.61305618   -1.00000000    4.90999985    1.23000002
   14.61638927   -1.00000000    4.90999985    1.23000002
   14.61944485   -1.00000000    4.90999985    1.21000004
   14.62277794   -1.00000000    4.90999985    1.19000006
   14.62611103   -1.00000000    4.90999985    1.13000000
   14.62916660   -1.00000000    4.90999985    1.11000001
   14.63249969   -1.00000000    4.90999985    1.09000003
   14.63583279   -1.00000000    4.90999985    1.11000001
   14.63916683   -1.00000000    4.90999985    1.09000003
   14.64249992   -1.00000000    4.90999985    1.13000000
   14.65277767   -1.00000000    4.90999985    1.07000005
   14.65583324   -1.00000000    4.90999985    1.07000005
   14.65916634   -1.00000000    4.90999985    1.07000005
   14.66249943   -1.00000000    4.90999985    1.09000003
   14.66555500   -1.00000000    4.90999985    1.09000003
   14.66888905   -1.00000000    4.90999985    1.07000005
   14.67222214   -1.00000000    4.90999985    1.05999994
   14.67555618   -1.00000000    4.90999985    1.05999994
   14.67888927   -1.00000000    4.90999985    1.03999996
   14.68194485   -1.00000000    4.90999985    1.05999994
   14.68527794   -1.00000000    4.90999985    1.05999994
   14.69555569   -1.00000000    4.90999985    1.09000003
   14.69888878   -1.00000000    4.90999985    1.07000005
   14.70194435   -1.00000000    4.90999985    1.05999994
   14.70555496   -1.00000000    4.90999985    1.01999998
   14.70888901   -1.00000000    4.90999985    1.00000000
   14.71222210   -1.00000000    4.90999985    1.01999998
   14.71527767   -1.00000000    4.90999985    1.00000000
   14.71861076   -1.00000000    4.90999985    1.00000000
   14.72166634   -1.00000000    4.90999985    1.03999996
   14.72499943   -1.00000000    4.90999985    1.03999996
   14.72833252   -1.00000000    4.90999985    1.00000000
   14.73833370   -1.00000000    4.90999985    1.00000000
   14.74166679   -1.00000000    4.90999985    1.01999998
   14.74472237   -1.00000000    4.90999985    1.00000000
   14.74805546   -1.00000000    4.90999985    1.00000000
   14.75138855   -1.00000000    4.90999985    1.00000000
   14.75444412   -1.00000000    4.90999985    1.03999996
   14.75777817   -1.00000000    4.90999985    1.05999994
   14.76111126   -1.00000000    4.90999985    1.07000005
   14.76416683   -1.00000000    4.90999985    1.07000005
   14.76749992   -1.00000000    4.90999985    1.07000005
   14.77055550   -1.00000000    4.90999985    1.01999998
   14.78111076   -1.00000000    4.90999985    1.05999994
   14.78444481   -1.00000000    4.90999985    1.05999994
   14.78777790   -1.00000000    4.90999985    1.05999994
   14.79083347   -1.00000000    4.90999985    1.05999994
   14.79416752   -1.00000000    4.90999985    1.05999994
   14.79750061   -1.00000000    4.90999985    1.09000003
   14.80055618   -1.00000000    4.90999985    1.09000003
   14.80388927   -1.00000000    4.90999985    1.09000003
   14.80722237   -1.00000000    4.90999985    1.07000005
   14.81055546   -1.00000000    4.90999985    1.09000003
   14.81388950   -1.00000000    4.90999985    1.13000000
   14.82416630   -1.00000000    4.90999985    1.14999998
   14.82722187   -1.00000000    4.90999985    1.16999996
   14.83055592   -1.00000000    4.90999985    1.16999996
   14.83388901   -1.00000000    4.90999985    1.16999996
   14.83694458   -1.00000000    4.90999985    1.19000006
   14.84027767   -1.00000000    4.90999985    1.16999996
   14.84361076   -1.00000000    4.90999985    1.16999996
   14.84694386   -1.00000000    4.90999985    1.19000006
   14.85000038   -1.00000000    4.90999985    1.26999998
   14.85333347   -1.00000000    4.90999985    1.28999996
   14.85666752   -1.00000000    4.90999985    1.28999996
   14.86694431   -1.00000000    4.90999985    1.26999998
   14.87027836   -1.00000000    4.90999985    1.26999998
   14.87361145   -1.00000000    4.90999985    1.26999998
   14.87694454   -1.00000000    4.90999985    1.25000000
   14.88027763   -1.00000000    4.90999985    1.25000000
   14.88333321   -1.00000000    4.90999985    1.25000000
   14.88666630   -1.00000000    4.90999985    1.28999996
   14.89000034   -1.00000000    4.90999985    1.26999998
   14.89305496   -1.00000000    4.90999985    1.25000000
   14.89638901   -1.00000000    4.90999985    1.26999998
   14.89972210   -1.00000000    4.90999985    1.25000000
   14.90972137   -1.00000000    4.90999985    1.23000002
   14.91305542   -1.00000000    4.90999985    1.28999996
   14.91638851   -1.00000000    4.90999985    1.28999996
   14.91944504   -1.00000000    4.90999985    1.34000003
   14.92277813   -1.00000000    4.90999985    1.36000001
   14.92583370   -1.00000000    4.90999985    1.38000000
   14.92916679   -1.00000000    4.90999985    1.38000000
   14.93249989   -1.00000000    4.90999985    1.34000003
   14.93555546   -1.00000000    4.90999985    1.38000000
   14.93944454   -1.00000000    4.90999985    1.39999998
   14.94250011   -1.00000000    4.90999985    1.38000000
   14.94861126   -1.00000000    4.90999985    1.39999998
   14.96694374   -1.00000000    4.90999985    1.36000001
   14.97027779   -1.00000000    4.90999985    1.39999998
   14.97361088   -1.00000000    4.90999985    1.41999996
   14.97694397   84.87090302    4.90999985    1.48000002
   14.98027706   43.17089844    4.90999985    1.55999994
   14.98333359   93.66329956    4.90999985    1.50000000
   14.98666668   84.83499908    4.90999985    1.51999998
   14.99166679   84.83499908    4.90999985    1.61000001
   14.99583340  122.08899689    4.90999985    1.69000006
   14.99916649   79.04689789    4.90999985    1.63000000
   15.00222206   67.21309662    4.90999985    1.58000004
   15.00500011   83.41110229    4.90999985    1.53999996
   15.00611115   87.69170380    4.90999985    1.51999998
   15.00916672   -1.00000000    4.90999985    1.51999998
   15.01249981   63.17910004    4.90999985    1.50000000
   15.01583290   -1.00000000   -1.00000000   -1.00000000
   15.01888847   -1.00000000    4.90999985    1.44000006
   15.02222157   40.13610077    4.90999985    1.46000004
   15.02527714   -1.00000000    4.90999985    1.46000004
   15.02861118   62.10839844    4.90999985    1.48000002
   15.03444481   62.10839844    4.90999985    1.55999994
   15.03861141   83.92600250    4.90999985    1.53999996
   15.04194450   92.90560150    4.90999985    1.51999998
   15.04500008   77.33809662    4.90999985    1.51999998
   15.04833412   73.19080353    4.90999985    1.55999994
   15.05166721   69.44380188    4.90999985    1.53999996
   15.05472279   85.30470276    4.90999985    1.53999996
   15.05805588   82.11219788    4.90999985    1.51999998
   15.06138897   84.30419922    4.90999985    1.50000000
   15.06444454   74.45649719    4.90999985    1.55999994
   15.06777763  136.26699829    4.90999985    1.51999998
   15.07083321  106.12100220    4.90999985    1.60000002
   15.07166672  124.06600189    4.90999985    1.60000002
   15.07750034  124.06600189    4.90999985    1.60000002
   15.08138847  105.33499908    4.90999985    1.61000001
   15.08472157   90.27480316    4.90999985    1.58000004
   15.08805561  108.57900238    4.90999985    1.58000004
   15.09111118   98.65720367    4.90999985    1.58000004
   15.09444427   99.70860291    4.90999985    1.58000004
   15.09777737   79.11000061    4.90999985    1.61000001
   15.10083389  112.23500061    4.90999985    1.58000004
   15.10416698  108.16799927    4.90999985    1.64999998
   15.10500050  107.09400177    4.90999985    1.61000001
   15.10777855   87.03610229    4.90999985    1.60000002
   15.11083412   93.91889954    4.90999985    1.55999994
   15.11416721  108.11299896    4.90999985    1.58000004
   15.12027836  108.11299896    4.90999985    1.58000004
   15.12444496  341.23498535    4.90999985    1.83000004
   15.12750053  316.26400757    4.90999985    1.96000004
   15.13083363  433.33499146    4.90999985    1.94000006
   15.13277817  370.34600830    4.90999985    1.86000001
   15.13416672  436.90899658    4.90999985    1.85000002
   15.13555527  333.74099731    4.90999985    1.86000001
   15.13555527  316.26400757    4.90999985    1.96000004
   15.13583279  433.33499146    4.90999985    1.94000006
   15.13583279   79.11000061    4.90999985    1.61000001
   15.13583279  112.23500061    4.90999985    1.58000004
   15.13611126  108.16799927    4.90999985    1.64999998
   15.13611126   87.03610229    4.90999985    1.60000002
   15.13611126   93.91889954    4.90999985    1.55999994
   15.13638878  108.11299896    4.90999985    1.58000004
   15.13638878  341.23498535    4.90999985    1.83000004
   15.13694477  460.95800781    4.90999985    1.76999998
   15.13916683  431.99301147    4.90999985    1.86000001
   15.14027786  345.08499146    4.90999985    1.88000000
   15.14055538  460.95800781    4.90999985    1.76999998
   15.14138889  434.44400024    4.90999985    1.88000000
   15.14333344  285.92800903    4.90999985    1.91999996
   15.14499950  321.28201294    4.90999985    1.98000002
   15.14833355  332.20300293    4.90999985    2.01999998
   15.15138817  323.85598755    4.90999985    2.03999996
   15.15472221  414.21301270    4.90999985    1.98000002
   15.15666676  362.67098999    4.90999985    1.89999998
   15.15805531  397.80599976    4.90999985    1.86000001
   15.15944386  428.31399536    4.90999985    1.94000006
   15.16083336  487.17800903    4.90999985    1.91999996
   15.16222191  426.33401489    4.90999985    1.85000002
   15.16361046  418.26699829    4.90999985    1.85000002
   15.16499996  463.42401123    4.90999985    1.85000002
   15.16638851  362.10501099    4.90999985    1.83000004
   15.16777802  332.65399170    4.90999985    1.88000000
   15.16777802  321.28201294    4.90999985    1.98000002
   15.16805553  332.20300293    4.90999985    2.01999998
   15.16805553  323.85598755    4.90999985    2.03999996
   15.16805553  414.21301270    4.90999985    1.98000002
   15.16861153  336.75201416    4.90999985    1.91999996
   15.17194462  310.99600220    4.90999985    1.96000004
   15.17527771  338.99301147    4.90999985    1.96000004
   15.17833328  262.76000977    4.90999985    1.96000004
   15.18166733  300.42498779    4.90999985    2.07999992
   15.18472195  257.73599243    4.90999985    2.05999994
   15.18888855  257.73599243    4.90999985    2.11999989
   15.19305515  241.08099365    4.90999985    2.07999992
   15.19638920  241.75900269    4.90999985    2.17000008
   15.19944477  245.66900635    4.90999985    2.13000011
   15.20166683  259.82000732    4.90999985    2.11999989
   15.20333290  234.92799377    4.90999985    2.05999994
   15.20638847  234.19000244    4.90999985    2.11999989
   15.20972157  239.70199585    4.90999985    2.07999992
   15.21305561  227.75399780    4.90999985    2.09999990
   15.21611118  266.51699829    4.90999985    2.09999990
   15.21944427  221.12399292    4.90999985    2.13000011
   15.22249985  223.98199463    4.90999985    2.11999989
   15.22583294  235.25799561    4.90999985    2.11999989
   15.23194408  235.25799561    4.90999985    2.05999994
   15.23583317  247.13800049    4.90999985    2.07999992
   15.23916721  240.74600220    4.90999985    2.11999989
   15.24250031  213.43400574    4.90999985    2.09999990
   15.24555588  205.35400391    4.90999985    2.23000002
   15.24888897  222.36000061    4.90999985    2.21000004
   15.25222206  203.43200684    4.90999985    2.21000004
   15.25527763  183.87300110    4.90999985    2.23000002
   15.25861073  191.14700317    4.90999985    2.26999998
   15.26166630  179.98800659    4.90999985    2.28999996
   15.26500034  166.44400024    4.90999985    2.36999989
   15.26833344  168.29600525    4.90999985    2.34999990
   15.26888847  156.88099670    4.90999985    2.32999992
   15.27472210  156.88099670    4.90999985    2.34999990
   15.27888870  152.35299683    4.90999985    2.32999992
   15.28194427  161.96600342    4.90999985    2.34999990
   15.28527832  164.55299377    4.90999985    2.34999990
   15.28861141  155.46499634    4.90999985    2.34999990
   15.29166698  160.23300171    4.90999985    2.39000010
   15.29500008  160.43600464    4.90999985    2.46000004
   15.29805565  150.67799377    4.90999985    2.48000002
   15.30138874  158.39900208    4.90999985    2.46000004
   15.30222225  157.44700623    4.90999985    2.46000004
   15.30500031  148.98500061    4.90999985    2.46000004
   15.30833340  153.57899475    4.90999985    2.46000004
   15.31166649  160.07299805    4.90999985    2.44000006
   15.31750011  160.07299805    4.90999985    2.36999989
   15.32166672  145.59899902    4.90999985    2.39000010
   15.32499981  156.78999329    4.90999985    2.39000010
   15.32805538  155.66499329    4.90999985    2.39000010
   15.33138847  151.49200439    4.90999985    2.40000010
   15.33444405  149.05000305    4.90999985    2.42000008
   15.33555508  156.06199646    4.90999985    2.40000010
   15.33805561  163.01899719    4.90999985    2.44000006
   15.34138870  155.93600464    4.90999985    2.42000008
   15.34472179  149.49299622    4.90999985    2.40000010
   15.34777737  157.97200012    4.90999985    2.36999989
   15.35111141  160.61000061    4.90999985    2.30999994
   15.35416698  166.92199707    4.90999985    2.30999994
   15.36027813  166.92199707    4.90999985    2.32999992
   15.36444473  165.68899536    4.90999985    2.30999994
   15.36777782  170.19200134    4.90999985    2.28999996
   15.36888885  181.30499268    4.90999985    2.28999996
   15.37138939  170.10000610    4.90999985    2.28999996
   15.37472248  161.58000183    4.90999985    2.28999996
   15.37805557  154.68299866    4.90999985    2.30999994
   15.38111115  149.36799622    4.90999985    2.36999989
   15.38444424  157.84300232    4.90999985    2.39000010
   15.38749981  156.01300049    4.90999985    2.36999989
   15.39083290  152.31300354    4.90999985    2.34999990
   15.39416695  147.03599548    4.90999985    2.36999989
   15.50972176   -1.00000000   -1.00000000   -1.00000000
   15.74388885   -1.00000000   -1.00000000   -1.00000000
   16.03194427   -1.00000000   -1.00000000   -1.00000000
   16.06305504  175.33599854    4.90999985    2.42000008
   16.06638718  181.84700012    4.90999985    2.46000004
   16.06944466  177.69700623    4.90999985    2.50000000
   16.07277870  170.87199402    4.90999985    2.48000002
   16.07611275  168.99000549    4.90999985    2.46000004
   16.07916832  155.37199402    4.90999985    2.55999994
   16.08333397  155.37199402    4.90999985    2.57999992
   16.08750153  159.42900085    4.90999985    2.53999996
   16.09083366  144.20199585    4.90999985    2.46000004
   16.09388924  165.03399658    4.90999985    2.48000002
   16.09638977  139.87500000    4.90999985    2.57999992
   16.09749985  148.98899841    4.90999985    2.55999994
   16.10083389  158.80000305    4.90999985    2.51999998
   16.10416794  142.27200317    4.90999985    2.55999994
   16.10722351  149.44500732    4.90999985    2.51999998
   16.11055565  142.58099365    4.90999985    2.51999998
   16.11388969  156.10400391    4.90999985    2.48000002
   16.11694527  153.30200195    4.90999985    2.50000000
   16.12027740  145.03599548    4.90999985    2.51999998
   16.12611198  145.03599548    4.90999985    2.53999996
   16.13027763  146.04400635    4.90999985    2.55999994
   16.13361168  142.79400635    4.90999985    2.53999996
   16.13666725  152.05099487    4.90999985    2.48000002
   16.13999939  156.49800110    4.90999985    2.48000002
   16.14333344  147.05499268    4.90999985    2.44000006
   16.14638901  151.65699768    4.90999985    2.40000010
   16.14972115  146.44000244    4.90999985    2.42000008
   16.15305519  155.44299316    4.90999985    2.40000010
   16.15611076  151.32000732    4.90999985    2.42000008
   16.15944481  156.65600586    4.90999985    2.46000004
   16.16250038  163.09700012    4.90999985    2.46000004
   16.16305542  155.63000488    4.90999985    2.46000004
   16.16916656  155.63000488    4.90999985    2.48000002
   16.17305565  148.50199890    4.90999985    2.48000002
   16.17638779  150.69999695    4.90999985    2.48000002
   16.17972183  160.45799255    4.90999985    2.44000006
   16.18277740  156.26100159    4.90999985    2.42000008
   16.18610954  172.64100647    4.90999985    2.44000006
   16.18944359  171.98399353    4.90999985    2.44000006
   16.19249916  171.70899963    4.90999985    2.44000006
   16.19583321  171.15800476    4.90999985    2.40000010
   16.19638824  171.75999451    4.90999985    2.39000010
   16.19944382  166.19200134    4.90999985    2.39000010
   16.20277786  173.90400696    4.90999985    2.36999989
   16.20583344  173.62100220    4.90999985    2.36999989
   16.21194458  173.62100220    4.90999985    2.40000010
   16.21611214  156.42199707    4.90999985    2.40000010
   16.21916771  153.70700073    4.90999985    2.40000010
   16.22249985  159.48699951    4.90999985    2.39000010
   16.22583389  156.53199768    4.90999985    2.39000010
   16.22888947  160.84599304    4.90999985    2.36999989
   16.22972298  157.07299805    4.90999985    2.36999989
   16.23277855  158.72799683    4.90999985    2.39000010
   16.23611069  151.49099731    4.90999985    2.40000010
   16.23916626  163.68699646    4.90999985    2.42000008
   16.24250031  171.14900208    4.90999985    2.40000010
   16.24583435  155.08700562    4.90999985    2.40000010
   16.24888992  150.89399719    4.90999985    2.40000010
   16.25472260  150.89399719    4.90999985    2.44000006
   16.25888824  146.89900208    4.90999985    2.40000010
   16.26222229  140.44999695    4.90999985    2.42000008
   16.26305580  157.38699341    4.90999985    2.42000008
   16.26583290  152.69900513    4.90999985    2.40000010
   16.26944351  159.78300476    4.90999985    2.39000010
   16.27249908  164.26800537    4.90999985    2.34999990
   16.27583313  157.72099304    4.90999985    2.30999994
   16.27916718  159.69700623    4.90999985    2.25000000
   16.28222275  160.40400696    4.90999985    2.25000000
   16.28555489  160.35699463    4.90999985    2.25000000
   16.28888893  181.52499390    4.90999985    2.25000000
   16.29194450  186.03599548    4.90999985    2.21000004
   16.29749870  186.03599548    4.90999985    2.15000010
   16.30166626  187.30400085    4.90999985    2.17000008
   16.30499840  189.34500122    4.90999985    2.17000008
   16.30805397  187.07899475    4.90999985    2.15000010
   16.31138802  179.88400269    4.90999985    2.11999989
   16.31472206  206.07000732    4.90999985    2.15000010
   16.31777954  184.67799377    4.90999985    2.13000011
   16.32111168  191.61300659    4.90999985    2.13000011
   16.32444572  196.00000000    4.90999985    2.19000006
   16.32750130  191.63000488    4.90999985    2.11999989
   16.32972336  198.65100098    4.90999985    2.17000008
   16.33111191  189.90299988    4.90999985    2.17000008
   16.33444595  185.56599426    4.90999985    2.15000010
   16.34055710  185.56599426    4.90999985    2.07999992
   16.34444427  203.14700317    4.90999985    2.05999994
   16.34777832  230.44999695    4.90999985    2.05999994
   16.35111237  220.03100586    4.90999985    2.01999998
   16.35416794  223.01300049    4.90999985    2.01999998
   16.35750008  235.38499451    4.90999985    2.00000000
   16.36083412  205.46299744    4.90999985    2.05999994
   16.36305618  218.30900574    4.90999985    2.03999996
   16.36444473  224.90100098    4.90999985    2.03999996
   16.36777878  215.49099731    4.90999985    2.03999996
   16.37083435  228.52499390    4.90999985    2.01999998
   16.37416649  238.47200012    4.90999985    2.00000000
   16.37750053  258.45199585    4.90999985    2.00000000
   16.38333321  258.45199585    4.90999985    2.00000000
   16.38750076  230.32200623    4.90999985    1.98000002
   16.39055634  245.46800232    4.90999985    1.96000004
   16.39388847  195.97799683    4.90999985    1.96000004
   16.39638901  223.03900146    4.90999985    2.00000000
   16.39749908  220.38900757    4.90999985    2.01999998
   16.40083313  220.46600342    4.90999985    2.03999996
   16.40388870  240.41700745    4.90999985    2.00000000
   16.40722275  214.97000122    4.90999985    2.00000000
   16.41055489  222.08999634    4.90999985    2.00000000
   16.41361046  227.13999939    4.90999985    2.03999996
   16.41694450  205.74400330    4.90999985    2.03999996
   16.42027664  219.25700378    4.90999985    2.09999990
   16.42611122  219.25700378    4.90999985    2.01999998
   16.43027687  196.52099609    4.90999985    2.05999994
   16.43361092  218.35000610    4.90999985    2.11999989
   16.43666649  201.51300049    4.90999985    2.05999994
   16.43999863  191.76600647    4.90999985    2.13000011
   16.44305420  208.74200439    4.90999985    2.15000010
   16.44638824  194.67399597    4.90999985    2.11999989
   16.44972038  171.48899841    4.90999985    2.13000011
   16.45277786  181.20599365    4.90999985    2.15000010
   16.45611191  161.37199402    4.90999985    2.21000004
   16.45944595  180.97099304    4.90999985    2.25000000
   16.46250153  180.29200745    4.90999985    2.28999996
   16.46305656  183.65499878    4.90999985    2.28999996
   16.46888924  183.65499878    4.90999985    2.23000002
   16.47305679  182.54699707    4.90999985    2.21000004
   16.47638893  186.61999512    4.90999985    2.21000004
   16.47944450  179.33999634    4.90999985    2.19000006
   16.48277855  187.32499695    4.90999985    2.21000004
   16.48611069  194.23599243    4.90999985    2.17000008
   16.48916626  196.62100220    4.90999985    2.15000010
   16.49250031  180.63999939    4.90999985    2.17000008
   16.49583435  190.53500366    4.90999985    2.17000008
   16.49638939  189.50500488    4.90999985    2.19000006
   16.49916649  172.11700439    4.90999985    2.23000002
   16.50250053  172.39399719    4.90999985    2.25000000
   16.50555611  176.60400391    4.90999985    2.25000000
   16.51194382  176.60400391    4.90999985    2.25000000
   16.51611137  176.10899353    4.90999985    2.26999998
   16.51916695  201.26699829    4.90999985    2.28999996
   16.52249908  177.03799438    4.90999985    2.30999994
   16.52555466  201.55900574    4.90999985    2.32999992
   16.52888870  204.91700745    4.90999985    2.30999994
   16.53000069  185.85099792    4.90999985    2.32999992
   16.53249931  182.42100525    4.90999985    2.32999992
   16.53583336  175.70899963    4.90999985    2.32999992
   16.53888893  218.46499634    4.90999985    2.30999994
   16.54222107  197.19999695    4.90999985    2.26999998
   16.54555511  209.27699280    4.90999985    2.25000000
   16.54861069  204.86000061    4.90999985    2.21000004
   16.55472183  204.86000061    4.90999985    2.26999998
   16.55888748  168.16299438    4.90999985    2.34999990
   16.56194305  172.08999634    4.90999985    2.36999989
   16.56333351  171.63999939    4.90999985    2.36999989
   16.56555557  149.48300171    4.90999985    2.39000010
   16.56888962  161.98199463    4.90999985    2.39000010
   16.57194519  165.47099304    4.90999985    2.40000010
   16.57527924  150.39500427    4.90999985    2.42000008
   16.57861137  161.61799622    4.90999985    2.40000010
   16.58166695  153.07400513    4.90999985    2.40000010
   16.58500099  169.09700012    4.90999985    2.39000010
   16.58833313  162.57200623    4.90999985    2.32999992
   16.59138870  181.03799438    4.90999985    2.32999992
   16.59749985  181.03799438    4.90999985    2.34999990
   16.60166740  164.38699341    4.90999985    2.34999990
   16.60499954  172.58799744    4.90999985    2.34999990
   16.60805511  194.63499451    4.90999985    2.34999990
   16.61138916  178.13400269    4.90999985    2.30999994
   16.61444473  165.50300598    4.90999985    2.36999989
   16.61777878  172.97500610    4.90999985    2.42000008
   16.62111092  165.51199341    4.90999985    2.39000010
   16.62416649  149.38000488    4.90999985    2.44000006
   16.62750053  145.42100525    4.90999985    2.42000008
   16.63000107  158.28500366    4.90999985    2.40000010
   16.63111115  173.35299683    4.90999985    2.40000010
   16.63444519  155.63299561    4.90999985    2.44000006
   16.64027786  155.63299561    4.90999985    2.40000010
   16.64444351  152.51699829    4.90999985    2.42000008
   16.64777756  146.30799866    4.90999985    2.48000002
   16.65083313  157.52499390    4.90999985    2.46000004
   16.65416718  165.19400024    4.90999985    2.46000004
   16.65749931  154.22999573    4.90999985    2.42000008
   16.66055489  150.19500732    4.90999985    2.40000010
   16.66333389  167.11799622    4.90999985    2.46000004
   16.66416550  147.39399719    4.90999985    2.48000002
   16.66749954  148.38999939    4.90999985    2.51999998
   16.67055511  146.99099731    4.90999985    2.51999998
   16.67388916  149.99099731    4.90999985    2.53999996
   16.67722130  140.17300415    4.90999985    2.55999994
   16.68333244  140.17300415    4.90999985    2.55999994
   16.68722153  136.84300232    4.90999985    2.53999996
   16.69055557  152.76699829    4.90999985    2.53999996
   16.69388771  152.59300232    4.90999985    2.51999998
   16.69666672  155.76100159    4.90999985    2.51999998
   16.69749832  145.56399536    4.90999985    2.50000000
   16.70083427  160.22900391    4.90999985    2.48000002
   16.70388985  152.56500244    4.90999985    2.46000004
   16.70722389  149.81700134    4.90999985    2.48000002
   16.71055603  146.24000549    4.90999985    2.51999998
   16.71361160  138.27099609    4.90999985    2.48000002
   16.71694565  130.63200378    4.90999985    2.46000004
   16.72027779  131.22399902    4.90999985    2.50000000
   16.72611237  131.22399902    4.90999985    2.50000000
   16.73027802  134.87199402    4.90999985    2.46000004
   16.73333359  133.82499695    4.90999985    2.51999998
   16.73666763  144.05799866    4.90999985    2.55999994
   16.73999977  132.98800659    4.90999985    2.55999994
   16.74305534  149.57600403    4.90999985    2.53999996
   16.74638939  136.81599426    4.90999985    2.55999994
   16.74972153  120.64499664    4.90999985    2.57999992
   16.75277710  132.06300354    4.90999985    2.57999992
   16.75611115  133.65299988    4.90999985    2.57999992
   16.75944519  137.76600647    4.90999985    2.57999992
   16.76250076  144.90499878    4.90999985    2.57999992
   16.76333427  139.33999634    4.90999985    2.57999992
   16.76888847  139.33999634    4.90999985    2.61999989
   16.77305603  129.49400330    4.90999985    2.64000010
   16.77638817  131.02999878    4.90999985    2.61999989
   16.77944374  133.03500366    4.90999985    2.59999990
   16.78277779  141.61399841    4.90999985    2.59999990
   16.78583336  130.31199646    4.90999985    2.59999990
   16.78916550  126.91899872    4.90999985    2.57999992
   16.79249954  132.89399719    4.90999985    2.61999989
   16.79555511  132.67700195    4.90999985    2.61999989
   16.79666710  132.58000183    4.90999985    2.61999989
   16.79916573  127.98600006    4.90999985    2.61999989
   16.80249977  129.05599976    4.90999985    2.61999989
   16.80583191  124.26799774    4.90999985    2.59999990
   16.81166649  124.26799774    4.90999985    2.59999990
   16.81583214  127.40599823    4.90999985    2.57999992
   16.81916809  132.76699829    4.90999985    2.55999994
   16.82222366  134.50700378    4.90999985    2.55999994
   16.82555580  137.21699524    4.90999985    2.55999994
   16.82888985  138.52999878    4.90999985    2.53999996
   16.83000183  132.73300171    4.90999985    2.53999996
   16.83222389  136.06100464    4.90999985    2.57999992
   16.83555603  138.47900391    4.90999985    2.57999992
   16.83889008  141.72700500    4.90999985    2.53999996
   16.84194565  156.57200623    4.90999985    2.51999998
   16.84527779  167.75700378    4.90999985    2.48000002
   16.84833336  198.06799316    4.90999985    2.48000002
   16.85472298  198.06799316    4.90999985    2.48000002
   16.85888863  196.96800232    4.90999985    2.46000004
   16.86194420  221.98300171    4.90999985    2.48000002
   16.86333466  223.54100037    4.90999985    2.48000002
   16.86555672  194.82699585    4.90999985    2.44000006
   16.86888885  224.05999756    4.90999985    2.46000004
   16.87222290  202.95500183    4.90999985    2.48000002
   16.87527847  219.64399719    4.90999985    2.44000006
   16.87861061  202.88699341    4.90999985    2.40000010
   16.88166618  219.66200256    4.90999985    2.34999990
   16.88500023  206.68499756    4.90999985    2.26999998
   16.88833237  192.41400146    4.90999985    2.32999992
   16.89138794  186.19999695    4.90999985    2.40000010
   16.89749908  186.19999695    4.90999985    2.30999994
   16.90166664  179.04800415    4.90999985    2.42000008
   16.90472221  174.76199341    4.90999985    2.51999998
   16.90805435  172.93400574    4.90999985    2.46000004
   16.91138840  156.02699280    4.90999985    2.48000002
   16.91444397  174.99299622    4.90999985    2.51999998
   16.91777802  164.83299255    4.90999985    2.48000002
   16.92083359  159.88200378    4.90999985    2.48000002
   16.92416573  144.91200256    4.90999985    2.50000000
   16.92749977  156.14399719    4.90999985    2.50000000
   16.93000031  149.09700012    4.90999985    2.48000002
   16.93083191  151.65899658    4.90999985    2.48000002
   16.93416595  152.26400757    4.90999985    2.50000000
   16.94027710  152.26400757    4.90999985    2.42000008
   16.94444275  172.44200134    4.90999985    2.32999992
   16.94777679  178.86900330    4.90999985    2.30999994
   16.95083427  172.22300720    4.90999985    2.28999996
   16.95416832  186.85800171    4.90999985    2.32999992
   16.95750046  205.26899719    4.90999985    2.21000004
   16.96055603  177.30799866    4.90999985    2.19000006
   16.96333504  175.84800720    4.90999985    2.25000000
   16.96416664  182.68200684    4.90999985    2.25000000
   16.96750069  172.45700073    4.90999985    2.28999996
   16.97083473  152.99699402    4.90999985    2.28999996
   16.97389030  158.51300049    4.90999985    2.39000010
   16.97722244  161.98699951    4.90999985    2.42000008
   16.98305511  161.98699951    4.90999985    2.25000000
   16.98722267  175.39300537    4.90999985    2.21000004
   16.99055672  169.50100708    4.90999985    2.28999996
   16.99388885  166.60099792    4.90999985    2.26999998
   16.99666786  158.22500610    4.90999985    2.30999994
   16.99722290  161.21000671    4.90999985    2.30999994
   17.00055504  177.46299744    4.90999985    2.39000010
   17.00388908  166.86500549    4.90999985    2.36999989
   17.00694466  176.13499451    4.90999985    2.34999990
   17.01027870  168.85299683    4.90999985    2.34999990
   17.01333427  166.96400452    4.90999985    2.42000008
   17.01666641  153.86300659    4.90999985    2.39000010
   17.02000046  158.87800598    4.90999985    2.40000010
   17.02611160  158.87800598    4.90999985    2.42000008
   17.03027725  172.54699707    4.90999985    2.36999989
   17.03333282  173.32000732    4.90999985    2.23000002
   17.03666687  221.56599426    4.90999985    2.15000010
   17.03972244  192.80400085    4.90999985    2.15000010
   17.04305458  205.01800537    4.90999985    2.25000000
   17.04638863  232.54899597    4.90999985    2.15000010
   17.04944420  194.89199829    4.90999985    2.09999990
   17.05277634  198.34100342    4.90999985    2.25000000
   17.05611038  193.34700012    4.90999985    2.21000004
   17.05916595  211.80000305    4.90999985    2.28999996
   17.06250000  206.55999756    4.90999985    2.23000002
   17.06333351  195.57299805    4.90999985    2.25000000
   17.08388901  195.57299805    4.90999985    2.25000000
   17.08805656  309.52999878    4.90999985    1.98000002
   17.09138870  229.55099487    4.90999985    1.88000000
   17.09472275  271.29699707    4.90999985    1.83000004
   17.09666824  277.87701416    4.90999985    1.86000001
   17.09805679  176.32899475    4.90999985    1.86000001
   17.10138893  172.81500244    4.90999985    1.76999998
   17.10472298  140.60899353    4.90999985    1.78999996
   17.10777855  170.24899292    4.90999985    1.75000000
   17.11111069  331.27999878    4.90999985    1.85000002
   17.11444473  327.90798950    4.90999985    1.89999998
   17.11750031  289.94400024    4.90999985    1.91999996
   17.12083435  246.06100464    4.90999985    2.05999994
   17.12666702  246.06100464    4.90999985    2.19000006
   17.13083267  253.03500366    4.90999985    2.13000011
   17.13416672  309.53298950    4.90999985    2.07999992
   17.13722229  295.16598511    4.90999985    1.96000004
   17.14055634  324.32901001    4.90999985    1.91999996
   17.14388847  297.08200073    4.90999985    1.88000000
   17.14694405  326.84600830    4.90999985    1.89999998
   17.15027809  336.87600708    4.90999985    2.00000000
   17.15361023  241.76699829    4.90999985    1.89999998
   17.15666580  141.98300171    4.90999985    1.80999994
   17.15999985  160.05099487    4.90999985    1.75000000
   17.16305542  218.28999329    4.90999985    1.78999996
   17.16361046  196.49099731    4.90999985    1.78999996
   17.16944313  196.49099731    4.90999985    1.96000004
   17.17361069  262.75500488    4.90999985    2.00000000
   17.17694473  246.10200500    4.90999985    2.09999990
   17.18027687  243.17700195    4.90999985    2.15000010
   17.18333244  243.81199646    4.90999985    2.07999992
   17.18666649  253.04299927    4.90999985    2.15000010
   17.18999863  253.49000549    4.90999985    2.13000011
   17.19305420  216.78300476    4.90999985    2.01999998
   17.19638824  140.16299438    4.90999985    1.80999994
   17.19694328  162.59700012    4.90999985    1.76999998
   17.20000076   93.55449677    4.90999985    1.63000000
   17.20333481  150.64900208    4.90999985    1.69000006
   17.20639038  263.59201050    4.90999985    1.76999998
   17.21250153  263.59201050    4.90999985    2.01999998
   17.21666718  202.49000549    4.90999985    2.25000000
   17.21972275  194.78399658    4.90999985    2.34999990
   17.22305679  225.15600586    4.90999985    2.30999994
   17.22638893  237.24800110    4.90999985    2.15000010
   17.22944450  220.47399902    4.90999985    2.17000008
   17.23027802  211.12899780    4.90999985    2.21000004
   17.23305511  195.48199463    4.90999985    2.21000004
   17.23638916  204.82600403    4.90999985    2.26999998
   17.23944473  163.35800171    4.90999985    2.30999994
   17.24277878  185.13000488    4.90999985    2.40000010
   17.24611092  199.51600647    4.90999985    2.39000010
   17.24916649  210.07200623    4.90999985    2.26999998
   17.25527763  210.07200623    4.90999985    2.21000004
   17.25944519  277.89498901    4.90999985    2.19000006
   17.26277733  304.22198486    4.90999985    2.05999994
   17.26361084  292.27398682    4.90999985    2.01999998
   17.26638794  249.59599304    4.90999985    2.03999996
   17.26972198  235.36199951    4.90999985    2.13000011
   17.27277756  198.78900146    4.90999985    2.19000006
   17.27611160  188.73800659    4.90999985    2.30999994
   17.27944374  175.06799316    4.90999985    2.40000010
   17.28249931  175.31100464    4.90999985    2.42000008
   17.28583336  173.34399414    4.90999985    2.39000010
   17.28888893  173.62500000    4.90999985    2.39000010
   17.29222107  168.43400574    4.90999985    2.34999990
   17.29805565  168.43400574    4.90999985    2.44000006
   17.30222130  187.38200378    4.90999985    2.50000000
   17.30555534  185.13600159    4.90999985    2.48000002
   17.30861092  173.68600464    4.90999985    2.46000004
   17.31194305  154.02900696    4.90999985    2.48000002
   17.31527710  176.22700500    4.90999985    2.50000000
   17.31833458  175.85800171    4.90999985    2.46000004
   17.32166672  184.77900696    4.90999985    2.44000006
   17.32500076  179.25000000    4.90999985    2.42000008
   17.32805634  176.27999878    4.90999985    2.32999992
   17.33027840  158.52099609    4.90999985    2.34999990
   17.33166695  179.39300537    4.90999985    2.34999990
   17.33500099  177.12800598    4.90999985    2.40000010
   17.34083366  177.12800598    4.90999985    2.46000004
   17.34500122  173.20899963    4.90999985    2.48000002
   17.34833336  164.87699890    4.90999985    2.50000000
   17.35166740  171.33700562    4.90999985    2.50000000
   17.35472298  170.62100220    4.90999985    2.40000010
   17.35805511  171.22099304    4.90999985    2.40000010
   17.36138916  168.37699890    4.90999985    2.40000010
   17.36361122  161.79100037    4.90999985    2.46000004
   17.36499977  166.90699768    4.90999985    2.46000004
   17.36833382  157.13099670    4.90999985    2.53999996
   17.37138939  167.04400635    4.90999985    2.55999994
   17.37472153  162.31100464    4.90999985    2.51999998
   17.37805557  169.71699524    4.90999985    2.46000004
   17.38388824  169.71699524    4.90999985    2.34999990
   17.38805580  193.89199829    4.90999985    2.30999994
   17.39111137  183.72999573    4.90999985    2.25000000
   17.39444351  183.33399963    4.90999985    2.25000000
   17.39694405  180.63299561    4.90999985    2.25000000
   17.39805603  201.80700684    4.90999985    2.23000002
   17.40138817  197.65400696    4.90999985    2.17000008
   17.40444374  214.63299561    4.90999985    2.15000010
   17.40777779  203.21699524    4.90999985    2.09999990
   17.41083336  185.37699890    4.90999985    2.21000004
   17.41416550  178.34300232    4.90999985    2.34999990
   17.41749954  187.71000671    4.90999985    2.34999990
   17.42083359  182.52699280    4.90999985    2.32999992
   17.42666626  182.52699280    4.90999985    2.30999994
   17.43083191  214.19500732    4.90999985    2.26999998
   17.43388748  194.43499756    4.90999985    2.19000006
   17.43722153  218.02299500    4.90999985    2.25000000
   17.44055557  227.93600464    4.90999985    2.19000006
   17.44361115  256.57299805    4.90999985    2.13000011
   17.44694328  283.60101318    4.90999985    2.05999994
   17.45000076  308.22399902    4.90999985    1.98000002
   17.45333481  259.64300537    4.90999985    1.91999996
   17.45666695  289.00201416    4.90999985    1.98000002
   17.45972252  264.17599487    4.90999985    2.00000000
   17.46305656  276.63400269    4.90999985    1.98000002
   17.46361160  285.99700928    4.90999985    1.98000002
   17.46944427  285.99700928    4.90999985    1.98000002
   17.47361183  281.40301514    4.90999985    2.05999994
   17.47694588  286.81100464    4.90999985    2.01999998
   17.48000145  249.71800232    4.90999985    1.96000004
   17.48333359  252.77200317    4.90999985    1.96000004
   17.48638916  220.18600464    4.90999985    2.09999990
   17.48972321  209.54699707    4.90999985    2.21000004
   17.49305534  203.45799255    4.90999985    2.23000002
   17.49611092  188.86199951    4.90999985    2.17000008
   17.49694443  198.04200745    4.90999985    2.19000006
   17.49972153  172.97799683    4.90999985    2.21000004
   17.50305557  179.86199951    4.90999985    2.39000010
   17.50611115  193.33000183    4.90999985    2.44000006
   17.51222229  193.33000183    4.90999985    2.36999989
   17.51638794  188.35499573    4.90999985    2.23000002
   17.51972198  214.26300049    4.90999985    2.25000000
   17.52277756  188.83900452    4.90999985    2.17000008
   17.52611160  175.04600525    4.90999985    2.25000000
   17.52944374  170.26800537    4.90999985    2.42000008
   17.53027725  167.65800476    4.90999985    2.46000004
   17.53305435  152.18200684    4.90999985    2.50000000
   17.53638840  150.64199829    4.90999985    2.48000002
   17.53944397  155.72700500    4.90999985    2.48000002
   17.54277802  169.72799683    4.90999985    2.44000006
   17.54611015  163.23699951    4.90999985    2.40000010
   17.54916573  167.55799866    4.90999985    2.39000010
   17.55527687  167.55799866    4.90999985    2.39000010
   17.55944443  160.82200623    4.90999985    2.39000010
   17.56250000  155.37300110    4.90999985    2.39000010
   17.56361008  164.28999329    4.90999985    2.36999989
   17.56611061  168.87399292    4.90999985    2.39000010
   17.56944466  164.91900635    4.90999985    2.36999989
   17.57250023  168.51199341    4.90999985    2.30999994
   17.57583427  171.73500061    4.90999985    2.32999992
   17.57916832  170.88999939    4.90999985    2.36999989
   17.58250046  179.97300720    4.90999985    2.34999990
   17.58555603  192.39500427    4.90999985    2.26999998
   17.58889008  225.78199768    4.90999985    2.19000006
   17.59194565  225.73399353    4.90999985    2.07999992
   17.59805679  225.73399353    4.90999985    2.09999990
   17.60222244  221.13200378    4.90999985    2.15000010
   17.60527802  193.79899597    4.90999985    2.19000006
   17.60861206  220.41799927    4.90999985    2.19000006
   17.61194420  209.17399597    4.90999985    2.17000008
   17.61499977  233.77099609    4.90999985    2.11999989
   17.61833382  226.02600098    4.90999985    2.09999990
   17.62166595  181.79200745    4.90999985    2.13000011
   17.62472153  183.60200500    4.90999985    2.26999998
   17.62805557  188.72200012    4.90999985    2.30999994
   17.63055611  185.39399719    4.90999985    2.30999994
   17.63166618  200.65299988    4.90999985    2.28999996
   17.63500023  213.06900024    4.90999985    2.21000004
   17.64083290  213.06900024    4.90999985    2.23000002
   17.64500046  187.76400757    4.90999985    2.25000000
   17.64833260  187.77200317    4.90999985    2.26999998
   17.65138817  167.97700500    4.90999985    2.17000008
   17.65472221  181.84100342    4.90999985    2.21000004
   17.65777779  165.57099915    4.90999985    2.28999996
   17.66110992  191.81799316    4.90999985    2.23000002
   17.66388893  188.63999939    4.90999985    2.17000008
   17.66472244  188.35899353    4.90999985    2.19000006
   17.66805458  197.53599548    4.90999985    2.17000008
   17.67138863  195.67100525    4.90999985    2.13000011
   17.67444420  189.17900085    4.90999985    2.19000006
   17.67777634  188.66400146    4.90999985    2.21000004
   17.68361092  188.66400146    4.90999985    2.26999998
   17.68777657  182.11900330    4.90999985    2.28999996
   17.69111061  187.89700317    4.90999985    2.32999992
   17.69416618  180.89999390    4.90999985    2.32999992
   17.69722176  204.50700378    4.90999985    2.23000002
   17.69777679  195.46299744    4.90999985    2.23000002
   17.70111275  199.37199402    4.90999985    2.21000004
   17.70416832  186.66299438    4.90999985    2.21000004
   17.70750046  204.81300354    4.90999985    2.25000000
   17.71083450  206.54100037    4.90999985    2.19000006
   17.71389008  194.96699524    4.90999985    2.25000000
   17.71722221  195.25500488    4.90999985    2.23000002
   17.72027779  207.99499512    4.90999985    2.25000000
   17.72666740  207.99499512    4.90999985    2.26999998
   17.73083305  173.51600647    4.90999985    2.39000010
   17.73388863  180.99499512    4.90999985    2.46000004
   17.73722267  179.81500244    4.90999985    2.53999996
   17.74027824  180.76899719    4.90999985    2.61999989
   17.74361229  179.23500061    4.90999985    2.55999994
   17.74694443  173.01600647    4.90999985    2.50000000
   17.75000000  174.61999512    4.90999985    2.55999994
   17.75333405  168.87899780    4.90999985    2.48000002
   17.75666618  192.52999878    4.90999985    2.46000004
   17.75972176  188.86500549    4.90999985    2.48000002
   17.76305580  178.75900269    4.90999985    2.48000002
   17.76388931  188.94099426    4.90999985    2.48000002
   17.76944351  188.94099426    4.90999985    2.42000008
   17.77361107  181.36500549    4.90999985    2.46000004
   17.77666664  180.68800354    4.90999985    2.46000004
   17.78000069  186.60899353    4.90999985    2.42000008
   17.78333282  166.16000366    4.90999985    2.46000004
   17.78638840  178.88999939    4.90999985    2.44000006
   17.78972244  218.63400269    4.90999985    2.42000008
   17.79277802  183.95399475    4.90999985    2.40000010
   17.79611015  181.85800171    4.90999985    2.40000010
   17.79722214  160.11900330    4.90999985    2.39000010
   17.79972076  194.15299988    4.90999985    2.39000010
   17.80305481  192.35400391    4.90999985    2.32999992
   17.80611038  186.81100464    4.90999985    2.32999992
   17.81222153  186.81100464    4.90999985    2.32999992
   17.81638718  176.96499634    4.90999985    2.30999994
   17.81972313  222.10200500    4.90999985    2.30999994
   17.82277870  226.01400757    4.90999985    2.28999996
   17.82611275  231.17599487    4.90999985    2.25000000
   17.82916832  213.39399719    4.90999985    2.25000000
   17.83055687  209.83599854    4.90999985    2.25000000
   17.83277893  209.71099854    4.90999985    2.25000000
   17.83611107  223.00100708    4.90999985    2.28999996
   17.83916664  227.58799744    4.90999985    2.26999998
   17.84250069  253.50300598    4.90999985    2.19000006
   17.84583473  268.82501221    4.90999985    2.15000010
   17.84889030  235.19000244    4.90999985    2.17000008
   17.85499954  235.19000244    4.90999985    2.23000002
   17.85916710  239.13499451    4.90999985    2.23000002
   17.86250114  217.30200195    4.90999985    2.15000010
   17.86388969  233.86999512    4.90999985    2.15000010
   17.86611176  244.91200256    4.90999985    2.13000011
   17.86944389  231.74200439    4.90999985    2.17000008
   17.87249947  252.21499634    4.90999985    2.15000010
   17.87583351  230.34300232    4.90999985    2.11999989
   17.87916756  218.07299805    4.90999985    2.13000011
   17.88222313  226.13600159    4.90999985    2.11999989
   17.88555527  233.53599548    4.90999985    2.11999989
   17.88888931  224.87800598    4.90999985    2.11999989
   17.89194489  207.25700378    4.90999985    2.17000008
   17.89805603  207.25700378    4.90999985    2.23000002
   17.90194321  228.74299622    4.90999985    2.19000006
   17.90527725  205.37500000    4.90999985    2.21000004
   17.90861130  216.68400574    4.90999985    2.21000004
   17.91166687  242.65499878    4.90999985    2.17000008
   17.91499901  232.96800232    4.90999985    2.15000010
   17.91833305  257.14599609    4.90999985    2.13000011
   17.92138863  257.86099243    4.90999985    2.09999990
   17.92472076  251.69900513    4.90999985    2.07999992
   17.92805481  237.11199951    4.90999985    2.09999990
   17.93055534  251.10800171    4.90999985    2.09999990
   17.93138885  245.62500000    4.90999985    2.09999990
   17.93472099  323.33401489    4.90999985    2.05999994
   17.94083214  323.33401489    4.90999985    2.01999998
   17.94499969  320.02301025    4.90999985    2.00000000
   17.94805527  315.71099854    4.90999985    1.98000002
   17.95138931  336.00799561    4.90999985    1.96000004
   17.95472336  328.06100464    4.90999985    1.94000006
   17.95777893  337.98098755    4.90999985    1.91999996
   17.96111107  317.93301392    4.90999985    1.94000006
   17.96389008  339.14001465    4.90999985    1.94000006
   17.96472359  343.85800171    4.90999985    1.94000006
   17.96805573  340.73098755    4.90999985    1.96000004
   17.97138977  324.48300171    4.90999985    1.44000006
   17.97444534  351.75900269    4.90999985    0.17000000
   17.97777748  386.04400635    4.90999985    1.96000004
   17.98361206  386.04400635    4.90999985    1.88000000
   17.98777771  382.55300903    4.90999985    1.89999998
   17.99111176  374.42599487    4.90999985    1.94000006
   17.99416733  371.53698730    4.90999985    1.94000006
   17.99722290  329.85400391    4.90999985    1.96000004
   17.99777794  343.01501465    4.90999985    1.96000004
   18.00111198  327.33898926    4.90999985    1.98000002
   18.00444412  323.40499878    4.90999985    2.00000000
   18.00749969  277.39801025    4.90999985    2.01999998
   18.01083374  314.36999512    4.90999985    2.01999998
   18.01388931  340.88198853    4.90999985    2.00000000
   18.01722145  307.12600708    4.90999985    2.00000000
   18.02055550  315.35501099    4.90999985    2.00000000
   18.02638817  315.35501099    4.90999985    2.01999998
   18.03055573  297.70901489    4.90999985    2.01999998
   18.03388786  267.94198608    4.90999985    2.03999996
   18.03694344  280.99301147    4.90999985    2.03999996
   18.04027748  267.31600952    4.90999985    2.05999994
   18.04361153  274.55801392    4.90999985    2.11999989
   18.04666710  275.86099243    4.90999985    2.09999990
   18.04999924  264.78698730    4.90999985    2.09999990
   18.05333328  282.38598633    4.90999985    2.09999990
   18.05638885  249.01699829    4.90999985    2.07999992
   18.05972099  305.41799927    4.90999985    2.07999992
   18.06277657  314.20800781    4.90999985    2.03999996
   18.06388855  306.92300415    4.90999985    2.03999996
   18.06944466  306.92300415    4.90999985    2.01999998
   18.07333374  307.21200562    4.90999985    2.09999990
   18.07666779  283.54699707    4.90999985    2.09999990
   18.08000183  277.34600830    4.90999985    2.09999990
   18.09749985  297.92098999    4.90999985    2.11999989
   18.10000038  248.07600403    4.90999985    2.09999990
   18.10305595  259.13299561    4.90999985    2.11999989
   18.10639000  262.88598633    4.90999985    2.13000011
   18.11250114  262.88598633    4.90999985    2.11999989
   18.11638832  265.77398682    4.90999985    2.13000011
   18.11972237  260.90798950    4.90999985    2.13000011
   18.12305641  236.34100342    4.90999985    2.13000011
   18.12611198  240.28700256    4.90999985    2.17000008
   18.12944412  235.63900757    4.90999985    2.19000006
   18.13083267  223.87399292    4.90999985    2.21000004
   18.13305473  248.72799683    4.90999985    2.17000008
   18.13638878  252.91499329    4.90999985    2.15000010
   18.13972282  238.46400452    4.90999985    2.15000010
   18.14277840  238.08000183    4.90999985    2.19000006
   18.14611053  224.41700745    4.90999985    2.17000008
   18.14944458  233.64300537    4.90999985    2.17000008
   18.15527725  233.64300537    4.90999985    2.21000004
   18.15944481  234.63600159    4.90999985    2.21000004
   18.16250038  240.50999451    4.90999985    2.19000006
   18.16416550  239.51800537    4.90999985    2.17000008
   18.16611099  242.51699829    4.90999985    2.17000008
   18.16944313  239.33099365    4.90999985    2.17000008
   18.17277718  238.26400757    4.90999985    2.17000008
   18.17583275  247.99800110    4.90999985    2.17000008
   18.17916679  252.74800110    4.90999985    2.13000011
   18.18249893  280.50698853    4.90999985    2.09999990
   18.18555450  256.42300415    4.90999985    2.09999990
   18.18888855  251.88600159    4.90999985    2.07999992
   18.19222069  257.27999878    4.90999985    2.11999989
   18.19805527  257.27999878    4.90999985    2.11999989
   18.20222282  254.90100098    4.90999985    2.11999989
   18.20527840  272.29800415    4.90999985    2.09999990
   18.20861244  268.70401001    4.90999985    2.09999990
   18.21194458  256.31298828    4.90999985    2.09999990
   18.21305656  256.22100830    4.90999985    2.09999990
   18.21638870  287.86099243    4.90999985    2.07999992
   18.21944427  289.07800293    4.90999985    2.07999992
   18.22277832  278.16299438    4.90999985    2.05999994
   18.22611237  254.81500244    4.90999985    2.07999992
   18.22861099  261.91299438    4.90999985    2.07999992
   18.22972298  261.89599609    4.90999985    2.07999992
   18.23305511  238.45700073    4.90999985    2.11999989
   18.23888969  238.45700073    4.90999985    2.11999989
   18.24305534  284.07501221    4.90999985    2.13000011
   18.24611092  281.14999390    4.90999985    2.07999992
   18.24944496  263.82699585    4.90999985    2.13000011
   18.25277710  289.23999023    4.90999985    2.07999992
   18.25583267  238.14900208    4.90999985    2.03999996
   18.25916672  290.64199829    4.90999985    2.09999990
   18.26194382  265.99301147    4.90999985    2.07999992
   18.26277733  276.76501465    4.90999985    2.11999989
   18.26611137  298.50299072    4.90999985    2.07999992
   18.26916695  243.66499329    4.90999985    2.05999994
   18.27249908  244.57499695    4.90999985    2.09999990
   18.27583313  278.79501343    4.90999985    2.07999992
   18.28166580  278.79501343    4.90999985    2.09999990
   18.28583336  309.19601440    4.90999985    2.07999992
   18.28916550  263.08700562    4.90999985    2.07999992
   18.29222107  293.51501465    4.90999985    2.05999994
   18.29749870  243.22999573    4.90999985    2.07999992
   18.29777718  268.33599854    4.90999985    2.07999992
   18.30111122  244.87100220    4.90999985    2.09999990
   18.30444336  260.46301270    4.90999985    2.11999989
   18.30749893  245.27799988    4.90999985    2.17000008
   18.31083298  267.70999146    4.90999985    2.15000010
   18.31416512  251.18400574    4.90999985    2.13000011
   18.31722260  242.49699402    4.90999985    2.13000011
   18.32055664  225.53300476    4.90999985    2.17000008
   18.32666779  225.53300476    4.90999985    2.25000000
   18.33083344  237.85800171    4.90999985    2.25000000
   18.33111191  242.98800659    4.90999985    2.23000002
   18.33444595  215.70399475    4.90999985    2.15000010
   18.33777809  214.30200195    4.90999985    2.13000011
   18.34083366  220.25700378    4.90999985    2.17000008
   18.34416771  212.91299438    4.90999985    2.19000006
   18.34749985  218.37100220    4.90999985    2.21000004
   18.35055542  201.29100037    4.90999985    2.26999998
   18.35388947  203.19900513    4.90999985    2.28999996
   18.35722351  206.15400696    4.90999985    2.26999998
   18.36027908  200.72999573    4.90999985    2.26999998
   18.36361122  193.24899292    4.90999985    2.26999998
   18.36416626  180.38200378    4.90999985    2.26999998
   18.36944389  180.38200378    4.90999985    2.21000004
   18.37361145  225.61700439    4.90999985    2.17000008
   18.37666702  190.44299316    4.90999985    2.19000006
   18.38000107  191.60000610    4.90999985    2.19000006
   18.38333321  184.31199646    4.90999985    2.23000002
   18.38638878  176.44700623    4.90999985    2.25000000
   18.38972282  185.23500061    4.90999985    2.28999996
   18.39305496  164.87800598    4.90999985    2.28999996
   18.39611053  178.06900024    4.90999985    2.32999992
   18.39749908  171.53900146    4.90999985    2.32999992
   18.39999962  167.08900452    4.90999985    2.32999992
   18.40305519  165.75799561    4.90999985    2.34999990
   18.40638924  184.32200623    4.90999985    2.34999990
   18.41222191  184.32200623    4.90999985    2.23000002
   18.41638756  171.80000305    4.90999985    2.28999996
   18.41972160  165.30200195    4.90999985    2.34999990
   18.42277718  173.95599365    4.90999985    2.30999994
   18.42611122  178.14599609    4.90999985    2.32999992
   18.42944336  164.00500488    4.90999985    2.40000010
   18.43083191  173.92700195    4.90999985    2.40000010
   18.43305397  164.07000732    4.90999985    2.42000008
   18.43610954  170.78799438    4.90999985    2.42000008
   18.43944359  169.33399963    4.90999985    2.44000006
   18.44249916  161.78199768    4.90999985    2.42000008
   18.44583321  161.81300354    4.90999985    2.44000006
   18.44916534  164.17500305    4.90999985    2.44000006
   18.45499992  164.17500305    4.90999985    2.32999992
   18.45916748  192.04800415    4.90999985    2.23000002
   18.46250153  192.32699585    4.90999985    2.26999998
   18.46416664  179.41299438    4.90999985    2.28999996
   18.46638870  162.80999756    4.90999985    2.28999996
   18.46944427  164.90699768    4.90999985    2.34999990
   18.47277832  170.03300476    4.90999985    2.36999989
   18.47583389  162.95799255    4.90999985    2.34999990
   18.47916794  165.08599854    4.90999985    2.36999989
   18.48250008  166.06799316    4.90999985    2.36999989
   18.48555565  175.75700378    4.90999985    2.30999994
   18.48888969  180.95899963    4.90999985    2.25000000
   18.49222183  167.82699585    4.90999985    2.25000000
   18.49805641  167.82699585    4.90999985    2.30999994
   18.50222206  172.30900574    4.90999985    2.25000000
   18.50527763  184.80299377    4.90999985    2.23000002
   18.50861168  172.01800537    4.90999985    2.23000002
   18.51166725  187.07499695    4.90999985    2.19000006
   18.51499939  200.46699524    4.90999985    2.21000004
   18.51833344  174.35400391    4.90999985    2.26999998
   18.52138901  162.83900452    4.90999985    2.34999990
   18.52472115  176.31500244    4.90999985    2.39000010
   18.52805519  166.53500366    4.90999985    2.34999990
   18.53083229  182.01499939    4.90999985    2.32999992
   18.53166580  172.35899353    4.90999985    2.30999994
   18.53472137  172.60899353    4.90999985    2.28999996
   18.54083252  172.60899353    4.90999985    2.44000006
   18.54500008  155.07099915    4.90999985    2.46000004
   18.54805565  165.48699951    4.90999985    2.42000008
   18.55138779  176.53999329    4.90999985    2.36999989
   18.55472183  168.20199585    4.90999985    2.39000010
   18.55777740  157.85299683    4.90999985    2.46000004
   18.56110954  158.35099792    4.90999985    2.48000002
   18.56416512  172.34500122    4.90999985    2.48000002
   18.56472206  180.81199646    4.90999985    2.48000002
   18.56777954  169.48100281    4.90999985    2.44000006
   18.57111168  178.03599548    4.90999985    2.46000004
   18.57416725  172.67599487    4.90999985    2.46000004
   18.57750130  159.63800049    4.90999985    2.53999996
   18.58361244  159.63800049    4.90999985    2.48000002
   18.58777809  158.89399719    4.90999985    2.44000006
   18.59111214  158.66700745    4.90999985    2.46000004
   18.59416771  175.58799744    4.90999985    2.51999998
   18.59749985  179.73399353    4.90999985    2.46000004
   18.59805679  172.40299988    4.90999985    2.44000006
   18.60111237  180.17399597    4.90999985    2.39000010
   18.60444450  183.02799988    4.90999985    2.30999994
   18.60750008  183.53700256    4.90999985    2.32999992
   18.61083412  183.44500732    4.90999985    2.34999990
   18.61416626  182.60699463    4.90999985    2.36999989
   18.61722183  159.36199951    4.90999985    2.34999990
   18.62055588  171.79499817    4.90999985    2.32999992
   18.62638855  171.79499817    4.90999985    2.26999998
   18.63055611  198.55799866    4.90999985    2.25000000
   18.63111115  173.91900635    4.90999985    2.25000000
   18.63444519  173.36500549    4.90999985    2.28999996
   18.63777733  198.93499756    4.90999985    2.30999994
   18.64083290  194.36099243    4.90999985    2.28999996
   18.64416695  181.71600342    4.90999985    2.28999996
   18.64722252  181.09199524    4.90999985    2.34999990
   18.65055466  171.44999695    4.90999985    2.34999990
   18.65388870  198.81500244    4.90999985    2.32999992
   18.65694427  184.72300720    4.90999985    2.28999996
   18.66027832  190.92999268    4.90999985    2.26999998
   18.66361046  195.88800049    4.90999985    2.25000000
   18.66444397  230.54100037    4.90999985    2.23000002
   18.66944313  230.54100037    4.90999985    2.19000006
   18.67361069  206.83700562    4.90999985    2.23000002
   18.67666626  192.53399658    4.90999985    2.25000000
   18.68000031  207.37800598    4.90999985    2.28999996
   18.68305397  198.18200684    4.90999985    2.25000000
   18.68638802  196.04899597    4.90999985    2.26999998
   18.68972206  201.17399597    4.90999985    2.26999998
   18.69305420  176.38800049    4.90999985    2.26999998
   18.69610977  193.66799927    4.90999985    2.26999998
   18.69777679  196.00100708    4.90999985    2.26999998
   18.69972038  195.10400391    4.90999985    2.28999996
   18.70305634  182.33099365    4.90999985    2.28999996
   18.70611191  173.97300720    4.90999985    2.32999992
   18.71222305  173.97300720    4.90999985    2.36999989
   18.71638870  164.27900696    4.90999985    2.39000010
   18.71944427  179.55799866    4.90999985    2.34999990
   18.72277832  165.94000244    4.90999985    2.36999989
   18.72611237  169.59100342    4.90999985    2.36999989
   18.72916794  176.93899536    4.90999985    2.34999990
   18.73111153  177.99600220    4.90999985    2.34999990
   18.73305511  185.02600098    4.90999985    2.34999990
   18.73638916  168.33599854    4.90999985    2.32999992
   18.73944473  172.59199524    4.90999985    2.32999992
   18.74277878  172.46200562    4.90999985    2.34999990
   18.74583435  173.93099976    4.90999985    2.34999990
   18.74916649  170.40800476    4.90999985    2.36999989
   18.75499916  170.40800476    4.90999985    2.39000010
   18.75916672  172.30299377    4.90999985    2.34999990
   18.76250076  199.72300720    4.90999985    2.34999990
   18.76444435  185.40899658    4.90999985    2.32999992
   18.76611137  181.13999939    4.90999985    2.34999990
   18.76944351  169.78399658    4.90999985    2.36999989
   18.77249908  178.39100647    4.90999985    2.36999989
   18.77583313  196.57299805    4.90999985    2.34999990
   18.77888870  218.36099243    4.90999985    2.32999992
   18.78222275  237.07600403    4.90999985    2.28999996
   18.78555489  244.56399536    4.90999985    2.23000002
   18.78861046  242.97599792    4.90999985    2.21000004
   18.79194450  249.79400635    4.90999985    2.21000004
   18.79805565  249.79400635    4.90999985    2.21000004
   18.80194283  236.87899780    4.90999985    2.19000006
   18.80527687  213.13600159    4.90999985    2.25000000
   18.80861092  220.88600159    4.90999985    2.26999998
   18.81166649  247.94500732    4.90999985    2.26999998
   18.81499863  260.98699951    4.90999985    2.17000008
   18.81805611  231.83000183    4.90999985    2.07999992
   18.82139015  246.21000671    4.90999985    2.21000004
   18.82472229  288.82901001    4.90999985    2.17000008
   18.82777786  264.73498535    4.90999985    2.17000008
   18.83111191  296.65301514    4.90999985    2.09999990
   18.83166695  308.03201294    4.90999985    2.15000010
   18.83500099  290.79598999    4.90999985    2.15000010
   18.84083366  290.79598999    4.90999985    2.19000006
   18.84500122  343.72698975    4.90999985    2.19000006
   18.84805679  362.35299683    4.90999985    2.09999990
   18.85138893  384.56298828    4.90999985    2.09999990
   18.85444450  398.51699829    4.90999985    2.01999998
   18.85777855  419.32699585    4.90999985    2.07999992
   18.85972214  396.32800293    4.90999985    2.03999996
   18.86111069  385.83401489    4.90999985    2.03999996
   18.86250114  347.75698853    4.90999985    2.03999996
   18.86250114  296.65301514    4.90999985    2.09999990
   18.86277771  290.79598999    4.90999985    2.15000010
   18.86277771  343.72698975    4.90999985    2.19000006
   18.86277771  362.35299683    4.90999985    2.09999990
   18.86305618  384.56298828    4.90999985    2.09999990
   18.86305618  398.51699829    4.90999985    2.01999998
   18.86333466  419.32699585    4.90999985    2.07999992
   18.86333466  288.82901001    4.90999985    2.17000008
   18.86333466  264.73498535    4.90999985    2.17000008
   18.86388969  363.15399170    4.90999985    2.07999992
   18.86722183  322.29800415    4.90999985    2.23000002
   18.87027740  312.98400879    4.90999985    2.25000000
   18.87361145  315.86300659    4.90999985    2.25000000
   18.87694550  319.00698853    4.90999985    2.25000000
   18.88333321  319.00698853    4.90999985    2.25000000
   18.88750076  305.85000610    4.90999985    2.23000002
   18.89055634  322.95401001    4.90999985    2.13000011
   18.89388847  352.71899414    4.90999985    2.05999994
   18.89638901  337.97698975    4.90999985    2.07999992
   18.89777756  346.04998779    4.90999985    2.07999992
   18.90083313  348.14498901    4.90999985    2.03999996
   18.90416718  335.74099731    4.90999985    2.01999998
   18.90749931  292.23199463    4.90999985    2.01999998
   18.91055489  281.83898926    4.90999985    2.05999994
   18.91388893  272.90301514    4.90999985    2.15000010
   18.91694450  208.33599854    4.90999985    2.25000000
   18.92027664  236.43699646    4.90999985    2.36999989
   18.92611122  236.43699646    4.90999985    2.21000004
   18.93027687  269.16198730    4.90999985    2.09999990
   18.93361092  270.70098877    4.90999985    2.09999990
   18.93666649  257.60501099    4.90999985    2.05999994
   18.93999863  230.90499878    4.90999985    2.23000002
   18.94333267  243.96699524    4.90999985    2.26999998
   18.94638824  319.21798706    4.90999985    2.03999996
   18.94972038  394.21398926    4.90999985    1.88000000
   18.95277786  407.22198486    4.90999985    1.80999994
   18.95499992  311.15200806    4.90999985    1.80999994
   18.95499992  257.60501099    4.90999985    2.05999994
   18.95499992  230.90499878    4.90999985    2.23000002
   18.95527840  243.96699524    4.90999985    2.26999998
   18.95527840  319.21798706    4.90999985    2.03999996
   18.95555687  394.21398926    4.90999985    1.88000000
   18.95555687  407.22198486    4.90999985    1.80999994
   18.95555687  236.43699646    4.90999985    2.36999989
   18.95583344  269.16198730    4.90999985    2.09999990
   18.95583344  270.70098877    4.90999985    2.09999990
   18.95777893  405.08599854    4.90999985    1.86000001
   18.95972252  299.50000000    4.90999985    1.85000002
   18.96194458  311.20401001    4.90999985    1.91999996
   18.96500015  269.34600830    4.90999985    1.98000002
   18.96833420  286.93200684    4.90999985    2.03999996
   18.97138977  319.71200562    4.90999985    2.03999996
   18.97472191  336.53601074    4.90999985    1.94000006
   18.98055649  336.53601074    4.90999985    1.83000004
   18.98472214  237.29899597    4.90999985    2.05999994
   18.98805618  201.59599304    4.90999985    2.17000008
   18.99111176  213.66299438    4.90999985    2.25000000
   18.99361229  199.64100647    4.90999985    2.23000002
   18.99500084  200.52099609    4.90999985    2.28999996
   18.99833298  195.89799500    4.90999985    2.28999996
   19.00138855  206.67999268    4.90999985    2.32999992
   19.00472260  201.13499451    4.90999985    2.34999990
   19.00777817  206.22900391    4.90999985    2.32999992
   19.01111031  192.11999512    4.90999985    2.28999996
   19.01444435  185.78399658    4.90999985    2.30999994
   19.01749992  205.36300659    4.90999985    2.32999992
   19.02361107  205.36300659    4.90999985    2.30999994
   19.02750015  188.32299805    4.90999985    2.32999992
   19.03083229  195.46099854    4.90999985    2.32999992
   19.03416634  201.35800171    4.90999985    2.30999994
   19.03722191  183.14100647    4.90999985    2.28999996
   19.04055595  172.81500244    4.90999985    2.34999990
   19.04388809  183.62800598    4.90999985    2.44000006
   19.04694366  176.07099915    4.90999985    2.46000004
   19.05027771  182.87199402    4.90999985    2.44000006
   19.05333328  177.79200745    4.90999985    2.44000006
   19.05666542  178.18400574    4.90999985    2.42000008
   19.05999947  166.03500366    4.90999985    2.42000008
   19.06055450  172.40499878    4.90999985    2.42000008
   19.06638718  172.40499878    4.90999985    2.36999989
   19.07055664  173.25599670    4.90999985    2.40000010
   19.07361221  170.49299622    4.90999985    2.40000010
   19.07694626  166.89599609    4.90999985    2.42000008
   19.08027840  167.03500366    4.90999985    2.42000008
   19.08333397  165.10200500    4.90999985    2.40000010
   19.08666801  165.05599976    4.90999985    2.42000008
   19.08972359  158.67900085    4.90999985    2.42000008
   19.09305573  171.23599243    4.90999985    2.44000006
   19.09388924  163.61000061    4.90999985    2.44000006
   19.09666824  164.53900146    4.90999985    2.44000006
   19.11833382  164.53900146    4.90999985    2.46000004
   19.12249947  163.99499512    4.90999985    2.46000004
   19.12555504  168.18200684    4.90999985    2.46000004
   19.12722206  167.77000427    4.90999985    2.44000006
   19.12916756  164.82699585    4.90999985    2.36999989
   19.13249969  170.69700623    4.90999985    2.36999989
   19.13555527  180.84300232    4.90999985    2.36999989
   19.13888931  170.53999329    4.90999985    2.36999989
   19.14222145  191.54200745    4.90999985    2.30999994
   19.14527702  171.14900208    4.90999985    2.30999994
   19.14861107  165.83700562    4.90999985    2.32999992
   19.15194321  160.66600037    4.90999985    2.40000010
   19.15499878  162.58000183    4.90999985    2.42000008
   19.16110992  162.58000183    4.90999985    2.46000004
   19.16527748  162.51600647    4.90999985    2.42000008
   19.16833305  159.62500000    4.90999985    2.46000004
   19.17166519  180.48300171    4.90999985    2.48000002
   19.17472076  171.85899353    4.90999985    2.40000010
   19.17805481  159.11300659    4.90999985    2.39000010
   19.18138885  180.88999939    4.90999985    2.34999990
   19.18444443  171.32899475    4.90999985    2.34999990
   19.18777657  182.61799622    4.90999985    2.34999990
   19.19111061  181.86999512    4.90999985    2.34999990
   19.19416618  193.62100220    4.90999985    2.32999992
   19.19472122  215.12500000    4.90999985    2.32999992
   19.19805527  192.95500183    4.90999985    2.28999996
   19.20388985  192.95500183    4.90999985    2.21000004
   19.20805550  271.16799927    4.90999985    2.09999990
   19.21111107  285.59399414    4.90999985    2.05999994
   19.21444511  262.27700806    4.90999985    2.07999992
   19.21777916  293.81201172    4.90999985    2.09999990
   19.22111130  288.24200439    4.90999985    2.07999992
   19.22444534  261.37500000    4.90999985    2.11999989
   19.22750092  267.45599365    4.90999985    2.07999992
   19.22805595  310.45800781    4.90999985    2.07999992
   19.23139000  253.88200378    4.90999985    2.05999994
   19.23444557  215.27099609    4.90999985    2.11999989
   19.23777771  322.33499146    4.90999985    2.15000010
   19.24111176  349.02301025    4.90999985    2.01999998
   19.24666786  349.02301025    4.90999985    2.05999994
   19.25083351  226.00500488    4.90999985    2.23000002
   19.25416756  235.51300049    4.90999985    2.30999994
   19.25722313  290.10598755    4.90999985    2.21000004
   19.26055527  243.42700195    4.90999985    2.13000011
   19.26111031  224.83799744    4.90999985    2.13000011
   19.26444435  248.23800659    4.90999985    2.25000000
   19.26749992  258.21798706    4.90999985    2.25000000
   19.27083397  261.17599487    4.90999985    2.17000008
   19.27388954  231.89599609    4.90999985    2.13000011
   19.27722168  268.20800781    4.90999985    2.13000011
   19.28055573  279.71398926    4.90999985    2.07999992
   19.28361130  289.10501099    4.90999985    2.13000011
   19.28944397  289.10501099    4.90999985    2.17000008
   19.29361153  298.25601196    4.90999985    2.13000011
   19.29444313  289.89300537    4.90999985    2.09999990
   19.29749870  352.10900879    4.90999985    2.05999994
   19.30055428  351.55999756    4.90999985    2.00000000
   19.30388832  333.75500488    4.90999985    2.00000000
   19.30694389  374.47299194    4.90999985    1.98000002
   19.31027794  347.88198853    4.90999985    1.88000000
   19.31361008  305.11099243    4.90999985    1.89999998
   19.31666756  187.06300354    4.90999985    1.88000000
   19.32000160  251.94400024    4.90999985    1.80999994
   19.32333374  364.07400513    4.90999985    1.86000001
   19.32638931  236.76400757    4.90999985    1.85000002
   19.32777786  182.32899475    4.90999985    1.83000004
   19.33250046  182.32899475    4.90999985    1.76999998
   19.33666801  250.80499268    4.90999985    1.75000000
   19.33972359  305.45001221    4.90999985    1.80999994
   19.34305573  186.57099915    4.90999985    1.85000002
   19.34611130  266.11499023    4.90999985    1.80999994
   19.34944534  288.29800415    4.90999985    1.80999994
   19.35277748  205.41299438    4.90999985    1.80999994
   19.35583305  162.98800659    4.90999985    1.75000000
   19.35916710  200.28300476    4.90999985    1.73000002
   19.36111069  160.08799744    4.90999985    1.75000000
   19.36305618  165.23599243    4.90999985    1.73000002
   19.36611176  155.09199524    4.90999985    1.71000004
   19.36944389  151.57400513    4.90999985    1.69000006
   19.37527847  151.57400513    4.90999985    1.60000002
   19.37944412  114.61399841    4.90999985    1.55999994
   19.38249969  105.14299774    4.90999985    1.51999998
   19.38583374   85.21790314    4.90999985    1.48000002
   19.38916588  107.32900238    4.90999985    1.46000004
   19.39222145   23.57019997    4.90999985    1.46000004
   19.39444351   77.04049683    4.90999985    1.44000006
   19.39611053   59.46409988    4.90999985    1.44000006
   19.39916611   78.57720184    4.90999985    1.44000006
   19.40250015   83.29319763    4.90999985    1.46000004
   19.40555573   -1.00000000   -1.00000000   -1.00000000
   19.40888786   -1.00000000   -1.00000000   -1.00000000
   19.41222191   -1.00000000    4.90999985    1.36000001
   19.41805458   -1.00000000    4.90999985    1.36000001
   19.42222214   23.57019997    4.90999985    1.36000001
   19.42555428   65.46910095    4.90999985    1.39999998
   19.42777634   48.98049927    4.90999985    1.39999998
   19.42916679   -1.00000000    4.90999985    1.39999998
   19.43222237   73.42929840    4.90999985    1.39999998
   19.43555450   85.74479675    4.90999985    1.41999996
   19.43888855   77.34269714    4.90999985    1.41999996
   19.44194412   55.51119995    4.90999985    1.39999998
   19.44527626  105.49800110    4.90999985    1.44000006
   19.44833183   93.19660187    4.90999985    1.44000006
   19.45166779   98.76529694    4.90999985    1.50000000
   19.45499992  124.45999908    4.90999985    1.51999998
   19.46083450  124.45999908    4.90999985    1.53999996
   19.46500015  122.60199738    4.90999985    1.58000004
   19.46833420  131.68099976    4.90999985    1.55999994
   19.47166634   93.78500366    4.90999985    1.50000000
   19.47472191   66.36190033    4.90999985    1.46000004
   19.47805595   90.25140381    4.90999985    1.46000004
   19.48111153  135.30099487    4.90999985    1.50000000
   19.48444557  145.00199890    4.90999985    1.53999996
   19.48777771  129.25700378    4.90999985    1.55999994
   19.49083328  124.23899841    4.90999985    1.53999996
   19.49416733  110.69699860    4.90999985    1.58000004
   19.49611092  132.62500000    4.90999985    1.53999996
   19.49777794  145.15199280    4.90999985    1.53999996
   19.50388908  145.15199280    4.90999985    1.58000004
   19.50805473  130.63000488    4.90999985    1.60000002
   19.51111031   50.27259827    4.90999985    1.50000000
   19.51444435   -1.00000000   -1.00000000   -1.00000000
   19.51749992   -1.00000000    4.90999985    1.38000000
   19.52083397   72.71559906    4.90999985    1.41999996
   19.52416611   -1.00000000    4.90999985    1.39999998
   19.52722168  108.32900238    4.90999985    1.38000000
   19.52944374  118.76200104    4.90999985    1.46000004
   19.53083229  109.10800171    4.90999985    1.50000000
   19.53416634  132.70199585    4.90999985    1.60000002
   19.53750038  130.75799561    4.90999985    1.58000004
   19.54055595  151.84700012    4.90999985    1.55999994
   19.54666710  151.84700012    4.90999985    1.46000004
   19.55083275  155.17700195    4.90999985    1.55999994
   19.55388832  157.91099548    4.90999985    1.66999996
   19.55722237  152.20199585    4.90999985    1.69000006
   19.56055450  154.47599792    4.90999985    1.63000000
   19.56277657  142.01100159    4.90999985    1.71000004
   19.56416512  143.56799316    4.90999985    1.71000004
   19.56750107   87.98069763    4.90999985    1.55999994
   19.57055664  130.40400696    4.90999985    1.50000000
   19.57389069  179.80799866    4.90999985    1.63000000
   19.57694626  121.11599731    4.90999985    1.73000002
   19.58027840  134.15199280    4.90999985    1.51999998
   19.58361244  130.53799438    4.90999985    1.55999994
   19.58944511  130.53799438    4.90999985    1.53999996
   19.59361267  146.46699524    4.90999985    1.55999994
   19.59611130  170.93600464    4.90999985    1.64999998
   19.59722328  161.55700684    4.90999985    1.66999996
   19.60055542  175.71000671    4.90999985    1.64999998
   19.60361099  298.42199707    4.90999985    1.69000006
   19.60694504  129.79800415    4.90999985    1.64999998
   19.61000061  119.25099945    4.90999985    1.55999994
   19.61333466   61.09249878    4.90999985    1.51999998
   19.61666679   97.57180023    4.90999985    1.48000002
   19.61972237   62.89559937    4.90999985    1.51999998
   19.62305641   27.35619926    4.90999985    1.51999998
   19.62638855   -1.00000000    4.90999985    1.44000006
   19.63638878   -1.00000000    4.90999985    1.38000000
   19.63972282   -1.00000000    4.90999985    1.38000000
   19.64277840   -1.00000000    4.90999985    1.28999996
   19.64611053   -1.00000000    4.90999985    1.23000002
   19.64916611   -1.00000000    4.90999985    1.25000000
   19.65250015   -1.00000000    4.90999985    1.26999998
   19.65583229   -1.00000000    4.90999985    1.38000000
   19.65888786   -1.00000000    4.90999985    1.41999996
   19.66222191   -1.00000000    4.90999985    1.38000000
   19.66583252   -1.00000000    4.90999985    1.44000006
   19.66916656   -1.00000000    4.90999985    1.44000006
   19.67916679   -1.00000000    4.90999985    1.39999998
   19.68249893   -1.00000000    4.90999985    1.34000003
   19.68583298   -1.00000000    4.90999985    1.36000001
   19.68888855   -1.00000000    4.90999985    1.34000003
   19.69222069   -1.00000000    4.90999985    1.30999994
   19.69527626   -1.00000000    4.90999985    1.16999996
   19.69888878   -1.00000000    4.90999985    1.11000001
   19.70222282   -1.00000000    4.90999985    1.11000001
   19.70527840   -1.00000000    4.90999985    1.09000003
   19.70861244   -1.00000000    4.90999985    1.03999996
   19.71166801   -1.00000000    4.90999985    0.94000000
   19.72222328   -1.00000000    4.90999985    0.95999998
   19.72527885   -1.00000000    4.90999985    0.89999998
   19.72861099   -1.00000000    4.90999985    0.86000001
   19.73222351   -1.00000000    4.90999985    0.81999999
   19.73527718   -1.00000000    4.90999985    0.79000002
   19.73861122   -1.00000000    4.90999985    0.79000002
   19.74194527   -1.00000000    4.90999985    0.80000001
   19.74500084   -1.00000000    4.90999985    0.75000000
   19.74833298   -1.00000000    4.90999985    0.64999998
   19.75166702   -1.00000000    4.90999985    0.63000000
   19.75472260   -1.00000000    4.90999985    0.69000000
   19.76499939   -1.00000000    4.90999985    0.73000002
   19.76805496   -1.00000000    4.90999985    0.73000002
   19.77138901   -1.00000000    4.90999985    0.69000000
   19.77472115   -1.00000000    4.90999985    0.69000000
   19.77777672   -1.00000000    4.90999985    0.67000002
   19.78111076   -1.00000000    4.90999985    0.64999998
   19.78444481   -1.00000000    4.90999985    0.61000001
   19.78750038   -1.00000000    4.90999985    0.61000001
   19.79083252   -1.00000000    4.90999985    0.64999998
   19.79388809   -1.00000000    4.90999985    0.69000000
   19.79749870   -1.00000000    4.90999985    0.70999998
   19.80777740   -1.00000000    4.90999985    0.70999998
   19.81110954   -1.00000000    4.90999985    0.76999998
   19.81416512   -1.00000000    4.90999985    0.76999998
   19.81750107   -1.00000000    4.90999985    0.75000000
   19.82083511   -1.00000000    4.90999985    0.73000002
   19.82389069   -1.00000000    4.90999985    0.67000002
   19.82722282   -1.00000000    4.90999985    0.64999998
   19.83083344   -1.00000000    4.90999985    0.63000000
   19.83388901   -1.00000000    4.90999985    0.61000001
   19.83722305   -1.00000000    4.90999985    0.58999997
   19.84055710   -1.00000000    4.90999985    0.61000001
   19.85055542   -1.00000000    4.90999985    0.63000000
