    HOUR (UT)   FLARE FACTOR    SKY TESTER    SUN TESTER
   11.15083313   -1.00000000   -1.00000000   -1.00000000
   11.17722225   -1.00000000    2.84999990    2.42000008
   11.18055630   -1.00000000    2.82999992    2.42000008
   11.18361092   -1.00000000    2.84999990    2.42000008
   11.18694496  142.34100342    2.84999990    2.42000008
   11.19027805  154.85299683    2.80999994    2.42000008
   11.19444466  154.85299683    2.80999994    2.44000006
   11.19861126  157.60899353    2.82999992    2.42000008
   11.20194435  156.10499573    2.82999992    2.42000008
   11.20527744  158.70300293    2.82999992    2.42000008
   11.20694447  157.94999695    2.80999994    2.44000006
   11.20888901  153.86399841    2.82999992    2.44000006
   11.21194458  157.93800354    2.82999992    2.44000006
   11.21527767  155.48100281    2.84999990    2.44000006
   11.21861076  161.60200500    2.82999992    2.44000006
   11.22166634  155.21400452    2.86999989    2.42000008
   11.22499943  148.69599915    2.82999992    2.44000006
   11.22805500  149.27099609    2.82999992    2.44000006
   11.23138809  152.33000183    2.82999992    2.44000006
   11.23722267  152.33000183    2.80999994    2.44000006
   11.24138927  148.52000427    2.80999994    2.44000006
   11.24444485  145.82000732    2.82999992    2.44000006
   11.24777794  143.57400513    2.80999994    2.46000004
   11.25083351  146.63900757    2.80999994    2.46000004
   11.25416660  145.41200256    2.82999992    2.44000006
   11.25749969  141.93499756    2.82999992    2.46000004
   11.26055527  147.01899719    2.82999992    2.46000004
   11.26388931  151.93400574    2.82999992    2.44000006
   11.26722240  146.60000610    2.82999992    2.46000004
   11.27055550  142.86700439    2.82999992    2.46000004
   11.27361107  141.61500549    2.86999989    2.46000004
   11.27444458  147.87500000    2.86999989    2.46000004
   11.27999973  147.87500000    2.86999989    2.46000004
   11.28416729  139.70700073    2.84999990    2.46000004
   11.28722286  144.31100464    2.84999990    2.46000004
   11.29055595  152.12100220    2.84999990    2.46000004
   11.29388905  144.98800659    2.86999989    2.46000004
   11.29694462  145.16099548    2.86999989    2.46000004
   11.30027771  147.05400085    2.86999989    2.46000004
   11.30361176  147.66999817    2.89000010    2.46000004
   11.30666733  139.51899719    2.86999989    2.46000004
   11.30722237  153.70199585    2.86999989    2.46000004
   11.31055546  138.45799255    2.84999990    2.46000004
   11.31361103  140.82600403    2.84999990    2.46000004
   11.31694412  143.40400696    2.82999992    2.46000004
   11.32277775  143.40400696    2.82999992    2.48000002
   11.32694435  153.47099304    2.78999996    2.46000004
   11.33027744  136.00799561    2.78999996    2.46000004
   11.33361053  144.58200073    2.78999996    2.46000004
   11.33694458  145.15199280    2.76999998    2.46000004
   11.34027767  147.43800354    2.78999996    2.48000002
   11.34055519  137.77400208    2.78999996    2.48000002
   11.34361076  138.89500427    2.78999996    2.46000004
   11.34694386  141.19599915    2.76999998    2.46000004
   11.35000038  140.69200134    2.73000002    2.48000002
   11.35333347  138.03599548    2.75000000    2.48000002
   11.35666752  142.52499390    2.75000000    2.48000002
   11.35972214  140.00900269    2.71000004    2.48000002
   11.36555576  140.00900269    2.67000008    2.48000002
   11.36972237  142.39500427    2.71000004    2.48000002
   11.37305546  137.79400635    2.71000004    2.48000002
   11.37388897  142.43200684    2.71000004    2.48000002
   11.37666702  140.40400696    2.69000006    2.48000002
   11.38000011  134.36500549    2.67000008    2.48000002
   11.38305569  136.16499329    2.69000006    2.48000002
   11.38638878  135.02799988    2.67000008    2.48000002
   11.38972187  138.71400452    2.66000009    2.50000000
   11.39277744  139.95199585    2.67000008    2.48000002
   11.39611053  135.48899841    2.71000004    2.48000002
   11.39916611  146.66999817    2.69000006    2.50000000
   11.40249920  140.05999756    2.67000008    2.50000000
   11.40861034  140.05999756    2.66000009    2.50000000
   11.41249943  140.96299744    2.64000010    2.50000000
   11.41583252  141.33799744    2.66000009    2.50000000
   11.41916656  134.16600037    2.66000009    2.50000000
   11.42222214  140.07800293    2.64000010    2.50000000
   11.42555618  143.59800720    2.66000009    2.50000000
   11.42888927  134.43899536    2.66000009    2.50000000
   11.43194485  138.46899414    2.67000008    2.50000000
   11.43527794  135.28500366    2.69000006    2.50000000
   11.43833351  135.22700500    2.67000008    2.50000000
   11.44055557  132.92199707    2.67000008    2.50000000
   11.44222260  134.98100281    2.67000008    2.50000000
   11.44555569  137.62899780    2.66000009    2.50000000
   11.45138836  137.62899780    2.61999989    2.50000000
   11.45555496  131.07600403    2.59999990    2.50000000
   11.45861053  134.85499573    2.59999990    2.50000000
   11.46194458  132.21800232    2.64000010    2.50000000
   11.46500015  138.92500305    2.64000010    2.50000000
   11.46833324  137.50199890    2.64000010    2.51999998
   11.47166634  134.27699280    2.61999989    2.51999998
   11.47388840  134.26300049    2.59999990    2.51999998
   11.47527695  131.62500000    2.59999990    2.51999998
   11.47861099  133.21000671    2.57999992    2.51999998
   11.48166656  133.79400635    2.57999992    2.51999998
   11.48500061  145.54499817    2.55999994    2.51999998
   11.48805618  134.23100281    2.53999996    2.51999998
   11.49416733  134.23100281    2.53999996    2.50000000
   11.49833393  139.08399963    2.51999998    2.51999998
   11.50138855  132.04800415    2.50000000    2.51999998
   11.50472260  137.48599243    2.48000002    2.51999998
   11.50722218  130.13200378    2.48000002    2.51999998
   11.50833321  131.78799438    2.50000000    2.51999998
   11.51166630  132.82600403    2.50000000    2.53999996
   11.51472187  131.02000427    2.50000000    2.53999996
   11.51805496  127.61000061    2.50000000    2.51999998
   11.52111053  136.98300171    2.51999998    2.53999996
   11.52444458  135.96000671    2.50000000    2.53999996
   11.52777767  133.89500427    2.51999998    2.53999996
   11.53083324  133.88400269    2.51999998    2.53999996
   11.53694534  133.88400269    2.50000000    2.53999996
   11.54111195  128.54100037    2.48000002    2.53999996
   11.54444504  126.16400146    2.50000000    2.53999996
   11.54750061  127.09999847    2.50000000    2.53999996
   11.55083370  128.08099365    2.50000000    2.53999996
   11.55416679  132.38099670    2.50000000    2.53999996
   11.55722237  125.10399628    2.50000000    2.53999996
   11.56055546  137.33799744    2.53999996    2.53999996
   11.56361103  126.64600372    2.51999998    2.53999996
   11.56694412  125.73799896    2.53999996    2.53999996
   11.57027817  129.70300293    2.53999996    2.53999996
   11.57333374  124.58399963    2.50000000    2.53999996
   11.57388878  129.24699402    2.50000000    2.53999996
   11.57972240  129.24699402    2.46000004    2.55999994
   11.58388901  133.09700012    2.50000000    2.53999996
   11.58722210  128.27900696    2.50000000    2.53999996
   11.59055519  131.47900391    2.50000000    2.53999996
   11.59361076  132.77000427    2.48000002    2.53999996
   11.59694386  130.84800720    2.50000000    2.53999996
   11.60000038  128.52499390    2.50000000    2.53999996
   11.60333347  127.38099670    2.50000000    2.53999996
   11.60666752  129.53100586    2.51999998    2.53999996
   11.60722256  131.52999878    2.51999998    2.55999994
   11.61027813  126.99900055    2.50000000    2.53999996
   11.61361122  128.58299255    2.51999998    2.55999994
   11.61666679  127.24800110    2.51999998    2.53999996
   11.62277794  127.24800110    2.50000000    2.53999996
   11.62694454  132.53900146    2.50000000    2.53999996
   11.63000011  126.99299622    2.50000000    2.53999996
   11.63333321  121.55899811    2.48000002    2.53999996
   11.63638878  127.05300140    2.46000004    2.55999994
   11.63972187  121.89900208    2.44000006    2.55999994
   11.64055538  130.39399719    2.44000006    2.55999994
   11.64333344  122.50399780    2.46000004    2.55999994
   11.64666653  120.79499817    2.46000004    2.55999994
   11.64972210  133.19400024    2.46000004    2.55999994
   11.65305519  128.23300171    2.46000004    2.55999994
   11.65638828  124.27700043    2.48000002    2.55999994
   11.65944386  132.82299805    2.51999998    2.55999994
   11.66555500  132.82299805    2.46000004    2.55999994
   11.66972256  125.81700134    2.46000004    2.55999994
   11.67277813  125.80200195    2.46000004    2.55999994
   11.67388916  121.37400055    2.46000004    2.55999994
   11.67638874  129.91200256    2.46000004    2.55999994
   11.67972279  131.27499390    2.46000004    2.55999994
   11.68277836  128.89199829    2.48000002    2.55999994
   11.68611145  125.80100250    2.48000002    2.55999994
   11.68944454  132.86799622    2.48000002    2.55999994
   11.69250011  133.81900024    2.53999996    2.55999994
   11.69583321  124.40799713    2.55999994    2.55999994
   11.69888878  128.26400757    2.55999994    2.55999994
   11.70222187  135.54800415    2.51999998    2.55999994
   11.70833302  135.54800415    2.55999994    2.55999994
   11.71249962  125.55400085    2.50000000    2.55999994
   11.71583271  132.38200378    2.50000000    2.55999994
   11.71888828  130.93099976    2.50000000    2.55999994
   11.72222137  130.60899353    2.48000002    2.57999992
   11.72555542  129.77400208    2.48000002    2.55999994
   11.72861099  131.13499451    2.48000002    2.57999992
   11.73194408  132.31500244    2.48000002    2.57999992
   11.73500061  120.03700256    2.44000006    2.57999992
   11.73833370  128.26499939    2.40000010    2.57999992
   11.74055576  134.25500488    2.36999989    2.55999994
   11.74194431  125.09600067    2.36999989    2.57999992
   11.74527836  127.84500122    2.36999989    2.57999992
   11.75111103  127.84500122    2.36999989    2.57999992
   11.75527763  135.58700562    2.34999990    2.59999990
   11.75861073  122.67800140    2.32999992    2.57999992
   11.76166630  126.54299927    2.32999992    2.57999992
   11.76500034  129.09899902    2.34999990    2.57999992
   11.76833344  122.27500153    2.32999992    2.57999992
   11.77138901  128.10800171    2.34999990    2.57999992
   11.77388859  125.49500275    2.36999989    2.57999992
   11.77499962  123.55100250    2.36999989    2.59999990
   11.77833271  128.08599854    2.36999989    2.59999990
   11.78138828  137.09500122    2.40000010    2.57999992
   11.78472233  124.47399902    2.42000008    2.57999992
   11.78805637  131.76600647    2.42000008    2.57999992
   11.79416752  131.76600647    2.40000010    2.57999992
   11.79805565  126.87899780    2.40000010    2.57999992
   11.80138874  130.20500183    2.40000010    2.57999992
   11.80472279  128.15400696    2.40000010    2.57999992
   11.80749989  123.67299652    2.40000010    2.57999992
   11.80833340  127.43699646    2.40000010    2.57999992
   11.81166649  128.40299988    2.42000008    2.57999992
   11.81472206  130.78599548    2.44000006    2.57999992
   11.81805515  127.51599884    2.46000004    2.57999992
   11.82138920  127.26699829    2.46000004    2.59999990
   11.82444477  124.62599945    2.48000002    2.57999992
   11.82777786  132.02299500    2.46000004    2.59999990
   11.83083344  133.97300720    2.44000006    2.57999992
   11.83694458  133.97300720    2.50000000    2.59999990
   11.84111118  129.05400085    2.51999998    2.57999992
   11.84416676  134.02299500    2.51999998    2.59999990
   11.84749985  133.55499268    2.50000000    2.57999992
   11.85083389  130.11500549    2.48000002    2.59999990
   11.85388947  127.69999695    2.48000002    2.59999990
   11.85722256  135.20300293    2.48000002    2.57999992
   11.86055565  136.51899719    2.46000004    2.59999990
   11.86361122  131.94299316    2.46000004    2.59999990
   11.86694431  119.40399933    2.42000008    2.59999990
   11.87027836  125.79199982    2.42000008    2.59999990
   11.87333393  135.93899536    2.42000008    2.59999990
   11.87416649  134.80400085    2.42000008    2.59999990
   11.87972260  134.80400085    2.46000004    2.59999990
   11.88388920  129.03199768    2.46000004    2.57999992
   11.88722229  124.08499908    2.44000006    2.59999990
   11.89027786  129.92999268    2.46000004    2.61999989
   11.89361095  128.77400208    2.44000006    2.59999990
   11.89666653  130.63800049    2.42000008    2.59999990
   11.89999962  121.84500122    2.48000002    2.59999990
   11.90333271  133.16999817    2.50000000    2.59999990
   11.90638828  131.37100220    2.51999998    2.59999990
   11.90749931  119.11499786    2.51999998    2.59999990
   11.90999985  129.20300293    2.53999996    2.59999990
   11.91333294  122.15699768    2.53999996    2.59999990
   11.91638851  131.33599854    2.53999996    2.59999990
   11.92250061  131.33599854    2.53999996    2.59999990
   11.92666721  121.76599884    2.53999996    2.61999989
   11.93000031  138.11000061    2.55999994    2.59999990
   11.93305588  118.03500366    2.53999996    2.59999990
   11.93638897  117.13999939    2.51999998    2.59999990
   11.93972206  136.75500488    2.53999996    2.61999989
   11.94083309  123.05100250    2.51999998    2.59999990
   11.94305515  131.83000183    2.51999998    2.59999990
   11.94638920  129.28399658    2.50000000    2.59999990
   11.94944477  135.04299927    2.50000000    2.61999989
   11.95277786  131.09800720    2.48000002    2.59999990
   11.95611095  129.16400146    2.46000004    2.61999989
   11.95916653  135.70100403    2.44000006    2.61999989
   11.96555519  135.70100403    2.46000004    2.61999989
   11.96944427  126.08399963    2.48000002    2.61999989
   11.97277737  130.94000244    2.48000002    2.61999989
   11.97416592  126.02300262    2.46000004    2.61999989
   11.97638798  129.27999878    2.46000004    2.61999989
   11.97972202  115.78199768    2.48000002    2.61999989
   11.98277760  137.59500122    2.48000002    2.61999989
   11.98611164  131.42799377    2.48000002    2.61999989
   11.98944473  138.31300354    2.48000002    2.61999989
   11.99250031  129.22599792    2.48000002    2.59999990
   11.99583340  124.39099884    2.48000002    2.61999989
   11.99916649  124.00800323    2.51999998    2.61999989
   12.00222206  141.04299927    2.53999996    2.61999989
   12.00833321  141.04299927    2.51999998    2.61999989
   12.01249981  125.78900146    2.51999998    2.61999989
   12.01555538  142.58500671    2.51999998    2.61999989
   12.01888847  130.80000305    2.50000000    2.61999989
   12.02222157  121.44400024    2.50000000    2.61999989
   12.02527714  123.30899811    2.50000000    2.64000010
   12.02861118  133.84700012    2.51999998    2.61999989
   12.03194427  125.77799988    2.50000000    2.61999989
   12.03500080  126.52400208    2.50000000    2.61999989
   12.03833389  129.57299805    2.50000000    2.61999989
   12.04083347  134.50199890    2.48000002    2.64000010
   12.04194450  130.84599304    2.48000002    2.61999989
   12.04527855  131.15100098    2.46000004    2.61999989
   12.05111122  131.15100098    2.46000004    2.61999989
   12.05527782  128.07800293    2.44000006    2.61999989
   12.05861092  122.89700317    2.46000004    2.64000010
   12.06166649  121.55899811    2.50000000    2.64000010
   12.06500053  130.22099304    2.51999998    2.61999989
   12.06805515  124.84600067    2.67000008    2.61999989
   12.07138920  125.60099792    3.00000000    2.64000010
   12.07416630  126.09899902    3.11999989    2.61999989
   12.07499981  126.48799896    3.09999990    2.61999989
   12.07833290  125.26999664    2.76999998    2.61999989
   12.08138847  120.77500153    2.71000004    2.61999989
   12.08472157  121.28299713    2.71000004    2.61999989
   12.08805561  122.56500244    2.64000010    2.61999989
   12.09388828  122.56500244    2.55999994    2.64000010
   12.09805489  124.58100128    2.51999998    2.64000010
   12.10138893  123.36100006    2.50000000    2.64000010
   12.10444450  124.07399750    2.48000002    2.64000010
   12.10750008  125.68299866    2.48000002    2.64000010
   12.10805607  134.03500366    2.48000002    2.64000010
   12.11138916  126.87200165    2.48000002    2.64000010
   12.11444473  130.42199707    2.44000006    2.64000010
   12.11777782  117.18599701    2.44000006    2.64000010
   12.12111092  128.21699524    2.42000008    2.64000010
   12.12416649  120.12899780    2.42000008    2.64000010
   12.12750053  121.50399780    2.42000008    2.64000010
   12.13083363  122.09799957    2.42000008    2.64000010
   12.13694477  122.09799957    2.44000006    2.64000010
   12.14083290  124.76300049    2.46000004    2.64000010
   12.14416695  119.79699707    2.46000004    2.64000010
   12.14750004  120.84899902    2.48000002    2.64000010
   12.15055561  130.32899475    2.48000002    2.64000010
   12.15388870  124.43000031    2.46000004    2.64000010
   12.15722179  125.26999664    2.46000004    2.64000010
   12.16027737  129.60200500    2.44000006    2.64000010
   12.16361046  126.90499878    2.40000010    2.64000010
   12.16666698  124.98200226    2.40000010    2.64000010
   12.17000008  129.88600159    2.44000006    2.64000010
   12.17333412  124.88700104    2.48000002    2.66000009
   12.17416668  125.26899719    2.48000002    2.64000010
   12.19472218  125.26899719    2.59999990    2.64000010
   12.19888878  127.12899780    2.61999989    2.64000010
   12.20222187  126.10500336    2.61999989    2.64000010
   12.20527744  134.32099915    2.59999990    2.61999989
   12.20749950  130.60200500    2.59999990    2.64000010
   12.20888901  122.65399933    2.59999990    2.64000010
   12.21222210  139.37199402    2.57999992    2.64000010
   12.21555519  130.76600647    2.53999996    2.64000010
   12.21861076  126.65100098    2.53999996    2.64000010
   12.22194386  126.07800293    2.51999998    2.64000010
   12.22499943  122.55000305    2.51999998    2.64000010
   12.22833252  121.58899689    2.50000000    2.66000009
   12.23166656  125.29000092    2.48000002    2.66000009
   12.23750019  125.29000092    2.44000006    2.66000009
   12.24166679  134.12300110    2.44000006    2.66000009
   12.24472237  130.40699768    2.42000008    2.66000009
   12.24805546  131.68099976    2.42000008    2.66000009
   12.25138855  120.41799927    2.48000002    2.66000009
   12.25444412  131.24099731    2.51999998    2.66000009
   12.25777817  130.58200073    2.51999998    2.66000009
   12.26111126  125.97599792    2.50000000    2.66000009
   12.26416683  128.70100403    2.48000002    2.66000009
   12.26749992  133.60000610    2.46000004    2.66000009
   12.27055550  127.21299744    2.44000006    2.66000009
   12.27388859  127.69599915    2.42000008    2.67000008
   12.27444458  129.50100708    2.42000008    2.67000008
   12.28027725  129.50100708    2.36999989    2.66000009
   12.28444481  127.37300110    2.36999989    2.66000009
   12.28777790  130.71400452    2.39000010    2.66000009
   12.29083347  137.49899292    2.34999990    2.66000009
   12.29416752  125.47399902    2.30999994    2.66000009
   12.29750061  128.02099609    2.28999996    2.66000009
   12.30055618  121.42400360    2.28999996    2.66000009
   12.30388927  132.39199829    2.26999998    2.67000008
   12.30694485  126.33699799    2.28999996    2.67000008
   12.30777836  135.86300659    2.28999996    2.67000008
   12.31055546  130.53900146    2.30999994    2.66000009
   12.31388950  131.22999573    2.34999990    2.66000009
   12.31722260  129.52699280    2.30999994    2.67000008
   12.32333374  129.52699280    2.25000000    2.67000008
   12.32722187  122.19400024    2.28999996    2.67000008
   12.33055592  127.51899719    2.34999990    2.67000008
   12.33388901  129.48500061    2.34999990    2.67000008
   12.33694458  127.17099762    2.32999992    2.66000009
   12.34027767  128.07200623    2.34999990    2.67000008
   12.34111118  128.72000122    2.34999990    2.67000008
   12.34361076  126.13600159    2.30999994    2.67000008
   12.34694386  127.58599854    2.26999998    2.67000008
   12.35027790  132.00900269    2.23000002    2.67000008
   12.35333347  126.51100159    2.23000002    2.66000009
   12.35666752  125.63800049    2.25000000    2.67000008
   12.36000061  141.46699524    2.25000000    2.67000008
   12.36611176  141.46699524    2.19000006    2.67000008
   12.37027836  132.40100098    2.21000004    2.67000008
   12.37333393  145.20300293    2.15000010    2.69000006
   12.37444496  135.73599243    2.09999990    2.67000008
   12.37694454  132.02799988    2.05999994    2.69000006
   12.38027763  135.22099304    2.05999994    2.69000006
   12.38361073  124.03299713    2.09999990    2.69000006
   12.38666630  130.64300537    2.15000010    2.67000008
   12.39000034  131.70100403    2.17000008    2.67000008
   12.39333344  132.64799500    2.19000006    2.69000006
   12.39638901  135.18800354    2.21000004    2.67000008
   12.39972210  121.41100311    2.21000004    2.67000008
   12.40277767  132.90199280    2.21000004    2.67000008
   12.40888882  132.90199280    2.21000004    2.69000006
   12.41305542  130.78700256    2.21000004    2.67000008
   12.41611099  130.18899536    2.21000004    2.69000006
   12.41944504  134.59899902    2.19000006    2.67000008
   12.42277813  121.22599792    2.17000008    2.69000006
   12.42583370  135.27699280    2.15000010    2.67000008
   12.42916679  120.42099762    2.13000011    2.69000006
   12.43249989  127.59100342    2.13000011    2.67000008
   12.43555546  123.45999908    2.13000011    2.69000006
   12.43888855  122.69999695    2.09999990    2.69000006
   12.44111156  131.26499939    2.11999989    2.69000006
   12.44250011  127.77999878    2.11999989    2.69000006
   12.44555569  130.69400024    2.15000010    2.67000008
   12.45166683  130.69400024    2.23000002    2.69000006
   12.45583344  129.34500122    2.28999996    2.67000008
   12.45916653  126.59300232    2.30999994    2.67000008
   12.46222210  130.83999634    2.30999994    2.67000008
   12.46555519  124.23300171    2.30999994    2.69000006
   12.46888828  131.39900208    2.28999996    2.67000008
   12.47194386  132.49499512    2.28999996    2.67000008
   12.47444439  132.12100220    2.25000000    2.69000006
   12.47583294  135.71699524    2.25000000    2.67000008
   12.47888851  132.78900146    2.21000004    2.69000006
   12.48222160  128.50100708    2.17000008    2.69000006
   12.48527813  133.56799316    2.13000011    2.69000006
   12.48861122  126.42400360    2.11999989    2.69000006
   12.49444485  126.42400360    2.07999992    2.69000006
   12.49861145  130.70799255    2.07999992    2.71000004
   12.50194454  129.35899353    2.09999990    2.69000006
   12.50527763  124.23500061    2.11999989    2.69000006
   12.50777817  128.37899780    2.15000010    2.69000006
   12.50888920  126.53700256    2.15000010    2.69000006
   12.51194477  129.75000000    2.17000008    2.69000006
   12.51527786  126.40799713    2.17000008    2.69000006
   12.51833344  143.12699890    2.19000006    2.71000004
   12.52166653  138.25500488    2.19000006    2.69000006
   12.52499962  131.81599426    2.21000004    2.71000004
   12.52805519  128.50700378    2.25000000    2.71000004
   12.53138828  131.37500000    2.25000000    2.69000006
   12.53750038  131.37500000    2.21000004    2.69000006
   12.54138947  131.13299561    2.21000004    2.69000006
   12.54472256  125.18800354    2.23000002    2.69000006
   12.54805565  126.26599884    2.23000002    2.69000006
   12.55111122  134.55700684    2.25000000    2.69000006
   12.55444431  130.92599487    2.25000000    2.71000004
   12.55777836  138.88699341    2.25000000    2.71000004
   12.56083393  131.16700745    2.26999998    2.69000006
   12.56416702  124.32900238    2.23000002    2.69000006
   12.56722260  134.25799561    2.19000006    2.69000006
   12.57055569  131.04100037    2.15000010    2.69000006
   12.57388878  130.30299377    2.15000010    2.69000006
   12.57444477  140.14500427    2.15000010    2.69000006
   12.58027744  140.14500427    2.17000008    2.69000006
   12.58444405  129.69999695    2.19000006    2.69000006
   12.58749962  141.74899292    2.23000002    2.69000006
   12.59083271  131.68600464    2.23000002    2.71000004
   12.59416676  149.51899719    2.23000002    2.71000004
   12.59722233  136.67799377    2.23000002    2.71000004
   12.60055637  137.58099365    2.19000006    2.71000004
   12.60388947  135.03799438    2.19000006    2.69000006
   12.60694504  133.43400574    2.17000008    2.69000006
   12.60777855  131.67999268    2.17000008    2.69000006
   12.61055565  134.23199463    2.17000008    2.71000004
   12.61361122  139.11900330    2.19000006    2.71000004
   12.61694431  145.03700256    2.19000006    2.71000004
   12.62305546  145.03700256    2.17000008    2.71000004
   12.62722206  134.53300476    2.15000010    2.71000004
   12.63055611  137.99099731    2.17000008    2.71000004
   12.63361073  143.94299316    2.15000010    2.69000006
   12.63694477  133.36799622    2.13000011    2.71000004
   12.64000034  144.74600220    2.13000011    2.71000004
   12.64111137  151.14100647    2.13000011    2.71000004
   12.64388847  152.52000427    2.13000011    2.71000004
   12.64694405  152.14199829    2.13000011    2.71000004
   12.65027714  157.22300720    2.13000011    2.71000004
   12.65361118  153.62399292    2.15000010    2.71000004
   12.65666676  162.45399475    2.13000011    2.71000004
   12.65999985  167.09500122    2.11999989    2.71000004
   12.66583252  167.09500122    2.09999990    2.71000004
   12.67000008  154.97099304    2.11999989    2.71000004
   12.67333412  198.22200012    2.11999989    2.69000006
   12.67444515  197.46800232    2.11999989    2.71000004
   12.67694473  165.08599854    2.11999989    2.71000004
   12.68000031  178.34399414    2.09999990    2.71000004
   12.68333340  198.45100403    2.09999990    2.71000004
   12.68666649  201.22799683    2.09999990    2.71000004
   12.68972206  199.23300171    2.07999992    2.71000004
   12.69305515  196.35699463    2.05999994    2.71000004
   12.69611073  214.57299805    2.05999994    2.71000004
   12.69944477  184.76499939    2.03999996    2.71000004
   12.70277786  209.06100464    2.01999998    2.71000004
   12.70888901  209.06100464    1.96000004    2.71000004
   12.71305561  212.64300537    1.94000006    2.71000004
   12.71611118  220.31199646    1.94000006    2.71000004
   12.71944427  225.39599609    1.91999996    2.71000004
   12.72249985  283.40200806    1.89999998    2.71000004
   12.72583294  263.99301147    1.89999998    2.71000004
   12.72916603  286.13598633    1.89999998    2.73000002
   12.73222160  252.73300171    1.89999998    2.71000004
   12.73555565  245.15400696    1.86000001    2.71000004
   12.73888874  250.98599243    1.91999996    2.71000004
   12.74111176  247.89199829    1.96000004    2.71000004
   12.74250031  261.02999878    1.98000002    2.71000004
   12.74555588  286.31500244    1.98000002    2.71000004
   12.75166702  286.31500244    1.98000002    2.71000004
   12.75583363  283.72100830    2.01999998    2.71000004
   12.75916672  278.59100342    2.03999996    2.71000004
   12.76222229  306.06399536    2.07999992    2.71000004
   12.76555538  307.87100220    2.05999994    2.71000004
   12.76861095  315.83700562    2.03999996    2.71000004
   12.77194405  271.42999268    2.01999998    2.71000004
   12.77444458  329.49798584    2.03999996    2.71000004
   12.77555561  287.71899414    2.07999992    2.71000004
   12.77861118  291.42999268    2.07999992    2.71000004
   12.78194427  303.84600830    2.05999994    2.71000004
   12.78527832  279.95001221    2.01999998    2.71000004
   12.78833389  301.02499390    1.98000002    2.73000002
   12.79444504  301.02499390    1.96000004    2.71000004
   12.79861164  274.79400635    1.96000004    2.71000004
   12.80194473  321.58200073    2.00000000    2.73000002
   12.80500031  324.61599731    1.98000002    2.73000002
   12.80777836  313.98800659    1.98000002    2.73000002
   12.80888939  310.20300293    1.98000002    2.71000004
   12.81194496  292.50500488    1.98000002    2.71000004
   12.81527805  280.43701172    1.98000002    2.73000002
   12.81861115  265.32598877    1.98000002    2.73000002
   12.82166672  289.74700928    2.00000000    2.73000002
   12.82499981  277.87399292    2.01999998    2.73000002
   12.82805538  312.64001465    2.01999998    2.71000004
   12.83138847  300.23098755    2.05999994    2.73000002
   12.83749962  300.23098755    2.05999994    2.71000004
   12.84138870  316.92700195    2.07999992    2.71000004
   12.84472179  295.24899292    2.09999990    2.71000004
   12.84805489  291.35900879    2.15000010    2.71000004
   12.85111141  289.05700684    2.17000008    2.71000004
   12.85444450  305.11401367    2.21000004    2.71000004
   12.85750008  299.48901367    2.21000004    2.71000004
   12.86083412  294.06100464    2.21000004    2.71000004
   12.86416721  293.20498657    2.19000006    2.73000002
   12.86722279  274.52099609    2.17000008    2.71000004
   12.87055588  310.96301270    2.13000011    2.71000004
   12.87388897  289.43200684    2.09999990    2.73000002
   12.87444496  287.15301514    2.07999992    2.73000002
   12.88027763  287.15301514    2.05999994    2.73000002
   12.88444424  283.01400757    2.09999990    2.73000002
   12.88749981  301.34698486    2.15000010    2.73000002
   12.89083290  289.05398560    2.15000010    2.73000002
   12.89388847  293.76199341    2.09999990    2.73000002
   12.89722252  269.33499146    2.05999994    2.73000002
   12.90055561  297.01699829    2.01999998    2.73000002
   12.90361118  283.80499268    2.00000000    2.73000002
   12.90694427  281.06500244    1.98000002    2.75000000
   12.90777779  296.75500488    1.98000002    2.75000000
   12.91055489  273.05099487    1.98000002    2.73000002
   12.91388893  252.98199463    1.96000004    2.73000002
   12.91722298  284.77499390    1.96000004    2.73000002
   12.92305565  284.77499390    1.88000000    2.73000002
   12.92722225  263.67401123    1.85000002    2.73000002
   12.93027782  277.94198608    1.85000002    2.75000000
   12.93361092  287.54098511    1.86000001    2.73000002
   12.93694496  284.59201050    1.86000001    2.73000002
   12.94000053  291.33300781    1.86000001    2.73000002
   12.94111156  286.48999023    1.86000001    2.73000002
   12.94361115  282.69100952    1.89999998    2.75000000
   12.94694424  285.02099609    1.89999998    2.73000002
   12.94999981  277.97500610    1.91999996    2.73000002
   12.95333290  278.35400391    2.00000000    2.73000002
   12.95638847  267.24600220    1.98000002    2.73000002
   12.95972157  275.58499146    1.98000002    2.73000002
   12.96583271  275.58499146    1.96000004    2.73000002
   12.96999931  255.26199341    1.96000004    2.73000002
   12.97333336  258.87298584    1.96000004    2.73000002
   12.97444439  268.77398682    1.98000002    2.73000002
   12.97694397  246.68899536    1.98000002    2.73000002
   12.97999954  267.64401245    1.98000002    2.73000002
   12.98333359  267.08599854    1.98000002    2.75000000
   12.98666668  263.43798828    1.98000002    2.73000002
   12.98972225  254.81399536    1.98000002    2.75000000
   12.99305534  261.62701416    1.98000002    2.73000002
   12.99638939  247.58700562    2.00000000    2.73000002
   12.99944496  261.95800781    1.98000002    2.73000002
   13.00277805  260.42700195    1.98000002    2.73000002
   13.00861073  260.42700195    2.03999996    2.75000000
   13.01277733  263.18600464    2.07999992    2.75000000
   13.01611137  264.94299316    2.09999990    2.73000002
   13.01944447  258.76000977    2.11999989    2.73000002
   13.02250004  248.31399536    2.13000011    2.73000002
   13.02583313  243.86599731    2.15000010    2.73000002
   13.02916622  273.40200806    2.15000010    2.71000004
   13.03222179  259.54998779    2.17000008    2.73000002
   13.03555584  255.86099243    2.17000008    2.73000002
   13.03888893  262.79901123    2.19000006    2.73000002
   13.04111195  261.45098877    2.21000004    2.73000002
   13.04250050  263.17098999    2.21000004    2.73000002
   13.04555607  258.52999878    2.21000004    2.73000002
   13.05166721  258.52999878    2.19000006    2.73000002
   13.05583382  261.01098633    2.19000006    2.73000002
   13.05888939  258.24700928    2.21000004    2.73000002
   13.06222248  248.57899475    2.25000000    2.73000002
   13.06527805  253.76400757    2.26999998    2.73000002
   13.06861115  267.64498901    2.26999998    2.73000002
   13.07194424  271.70800781    2.28999996    2.73000002
   13.07444477  251.72399902    2.28999996    2.73000002
   13.07555580  257.65701294    2.28999996    2.71000004
   13.07861137  266.52700806    2.28999996    2.73000002
   13.08194447  251.06599426    2.28999996    2.75000000
   13.08527756  262.81600952    2.28999996    2.73000002
   13.08833313  255.91099548    2.28999996    2.73000002
   13.09444427  255.91099548    2.28999996    2.73000002
   13.09861088  272.56399536    2.26999998    2.73000002
   13.10166740  259.29098511    2.25000000    2.75000000
   13.10500050  272.17498779    2.25000000    2.73000002
   13.10777855  249.55200195    2.25000000    2.73000002
   13.10861111  275.41900635    2.25000000    2.73000002
   13.11166668  258.34201050    2.25000000    2.73000002
   13.11500072  264.66699219    2.23000002    2.73000002
   13.11833382  249.92599487    2.23000002    2.73000002
   13.12138939  256.09100342    2.21000004    2.73000002
   13.12472248  253.24000549    2.19000006    2.73000002
   13.12805557  248.13999939    2.19000006    2.75000000
   13.13111115  241.89399719    2.21000004    2.75000000
   13.13722229  241.89399719    2.17000008    2.73000002
   13.14138889  240.97799683    2.17000008    2.73000002
   13.14472198  258.42098999    2.15000010    2.75000000
   13.14777756  243.17300415    2.13000011    2.75000000
   13.15111065  257.09500122    2.09999990    2.75000000
   13.15444374  272.30899048    2.05999994    2.75000000
   13.15749931  261.73901367    2.03999996    2.73000002
   13.16083336  269.96499634    2.03999996    2.75000000
   13.16416645  270.27899170    2.01999998    2.75000000
   13.16722298  276.09500122    2.00000000    2.75000000
   13.17055607  272.46301270    1.98000002    2.73000002
   13.17361164  249.92399597    1.98000002    2.75000000
   13.17444515  269.25698853    2.00000000    2.73000002
   13.18000031  269.25698853    2.00000000    2.73000002
   13.18416691  251.70300293    2.00000000    2.75000000
   13.18750000  252.95399475    1.98000002    2.75000000
   13.19083309  266.99700928    1.94000006    2.75000000
   13.20833302  267.51400757    1.91999996    2.75000000
   13.21083355  275.22399902    1.91999996    2.75000000
   13.21388912  246.92199707    1.91999996    2.75000000
   13.21722221  255.80700684    1.91999996    2.75000000
   13.22305489  255.80700684    1.89999998    2.75000000
   13.22722149  249.16799927    1.86000001    2.75000000
   13.23055553  260.19500732    1.85000002    2.76999998
   13.23361111  252.86700439    1.85000002    2.76999998
   13.23694515  233.26699829    1.83000004    2.75000000
   13.24027824  253.36099243    1.83000004    2.76999998
   13.24166679  254.84300232    1.83000004    2.76999998
   13.24361134  276.13598633    1.83000004    2.75000000
   13.24694443  249.84599304    1.80999994    2.76999998
   13.25027752  258.61401367    1.78999996    2.76999998
   13.25333309  248.63800049    1.78999996    2.76999998
   13.25666714  251.42199707    1.76999998    2.76999998
   13.25972176  249.44099426    1.75000000    2.76999998
   13.26611137  249.44099426    1.71000004    2.76999998
   13.26999950  252.49400330    1.71000004    2.78999996
   13.27333355  234.55900574    1.71000004    2.76999998
   13.27499962  234.05099487    1.71000004    2.76999998
   13.27694416  239.55799866    1.71000004    2.76999998
   13.28027725  231.37500000    1.71000004    2.76999998
   13.28361130  221.43499756    1.69000006    2.76999998
   13.28666687  246.29499817    1.66999996    2.78999996
   13.29000092  233.09700012    1.69000006    2.76999998
   13.29333401  228.11099243    1.66999996    2.76999998
   13.29666710  222.23699951    1.66999996    2.75000000
   13.29972267  239.68899536    1.66999996    2.76999998
   13.30305576  237.68899536    1.66999996    2.76999998
   13.30888939  237.68899536    1.69000006    2.76999998
   13.31305599  245.45799255    1.66999996    2.76999998
   13.31611156  242.90899658    1.69000006    2.76999998
   13.31944466  247.41200256    1.66999996    2.76999998
   13.32250023  233.57099915    1.69000006    2.76999998
   13.32583332  235.46400452    1.66999996    2.76999998
   13.32916641  236.17799377    1.66999996    2.76999998
   13.33222198  223.82600403    1.66999996    2.78999996
   13.33555508  206.58200073    1.66999996    2.76999998
   13.33888817  231.79100037    1.66999996    2.78999996
   13.34166622  213.11000061    1.64999998    2.78999996
   13.34222221  232.88999939    1.64999998    2.78999996
   13.34555531  224.94400024    1.66999996    2.76999998
   13.35166740  224.94400024    1.69000006    2.76999998
   13.35583401  229.57499695    1.71000004    2.76999998
   13.35888958  229.48800659    1.69000006    2.76999998
   13.36222267  225.34500122    1.66999996    2.76999998
   13.36555576  214.53999329    1.69000006    2.76999998
   13.36861134  202.99499512    1.69000006    2.76999998
   13.37194443  235.15100098    1.71000004    2.78999996
   13.37500000  202.22799683    1.71000004    2.78999996
   13.37583351  218.91099548    1.71000004    2.78999996
   13.37888908  217.20300293    1.73000002    2.76999998
   13.38222218  232.92900085    1.75000000    2.76999998
   13.38527775  211.58599854    1.75000000    2.76999998
   13.38861084  224.37300110    1.76999998    2.76999998
   13.39444447  224.37300110    1.78999996    2.76999998
   13.39861107  213.52000427    1.78999996    2.76999998
   13.40194416  215.70399475    1.78999996    2.78999996
   13.40499973  193.60600281    1.80999994    2.78999996
   13.40833282  195.14999390    1.78999996    2.78999996
   13.40861034  204.36500549    1.78999996    2.78999996
   13.41194439  194.19299316    1.78999996    2.78999996
   13.41527748  207.85400391    1.78999996    2.78999996
   13.41833401  187.11099243    1.78999996    2.78999996
   13.42166710  194.28199768    1.78999996    2.76999998
   13.42500019  203.96899414    1.78999996    2.78999996
   13.42805576  197.25399780    1.78999996    2.78999996
   13.43138885  186.50199890    1.78999996    2.78999996
   13.43750000  186.50199890    1.76999998    2.78999996
   13.44138908  192.83099365    1.75000000    2.76999998
   13.44194412  209.33799744    1.75000000    2.76999998
   13.44527817  195.31599426    1.75000000    2.78999996
   13.44833374  213.30000305    1.75000000    2.78999996
   13.45166683  213.05499268    1.75000000    2.78999996
   13.45499992  201.56500244    1.75000000    2.78999996
   13.45805550  205.06100464    1.76999998    2.78999996
   13.46138859  208.25399780    1.76999998    2.78999996
   13.46472168  208.96299744    1.76999998    2.78999996
   13.46777725  201.48699951    1.78999996    2.78999996
   13.47111034  192.90499878    1.78999996    2.76999998
   13.47416592  192.22700500    1.78999996    2.78999996
   13.47527695  210.11399841    1.78999996    2.78999996
   13.48027706  210.11399841    1.78999996    2.78999996
   13.48444462  188.89500427    1.78999996    2.76999998
   13.48750019  184.86999512    1.76999998    2.76999998
   13.49083328  168.88200378    1.75000000    2.76999998
   13.49388885  165.88499451    1.75000000    2.76999998
   13.49722290  176.03900146    1.76999998    2.78999996
   13.50055599  189.25999451    1.78999996    2.78999996
   13.50361156  195.46099854    1.78999996    2.78999996
   13.50694466  190.78599548    1.78999996    2.78999996
   13.50861073  202.44799805    1.78999996    2.78999996
   13.51055527  175.82299805    1.78999996    2.78999996
   13.51388931  190.90499878    1.78999996    2.78999996
   13.51694393  183.23899841    1.78999996    2.78999996
   13.52305508  183.23899841    1.76999998    2.78999996
   13.52722168  190.23699951    1.76999998    2.76999998
   13.53027725  190.92999268    1.78999996    2.78999996
   13.53361130  186.48300171    1.80999994    2.76999998
   13.53694534  187.87699890    1.80999994    2.78999996
   13.54027843  192.28900146    1.80999994    2.78999996
   13.54194450  181.40800476    1.80999994    2.78999996
   13.54388905  174.91099548    1.80999994    2.78999996
   13.54722309  195.82200623    1.80999994    2.78999996
   13.55027771  194.07299805    1.83000004    2.76999998
   13.55361176  193.10000610    1.80999994    2.76999998
   13.55666733  184.85000610    1.80999994    2.78999996
   13.56000042  171.35600281    1.78999996    2.80999994
   13.56583309  171.35600281    1.76999998    2.76999998
   13.56999969  186.14100647    2.01999998    2.78999996
   13.57333374  171.75900269    2.75000000    2.78999996
   13.57527733  168.78399658    4.76000023    2.78999996
   13.57694435  179.91499329    4.90999985    2.78999996
   13.58027744  160.60600281    4.90999985    2.75000000
   13.58333302  182.49899292    4.90999985    2.75000000
   13.58666611  185.44099426    4.90999985    2.73000002
   13.58972168  181.12800598    4.90999985    2.71000004
   13.59305477  197.75900269    4.90999985    2.73000002
   13.59638882  190.13900757    4.90999985    2.69000006
   13.59944439  172.61900330    4.90999985    2.67000008
   13.60277843  188.72700500    4.90999985    2.64000010
   13.60861111  188.72700500    4.90999985    2.66000009
   13.61277771  199.00000000    4.90999985    2.61999989
   13.61611176  201.41400146    4.90999985    2.67000008
   13.61944485  188.55900574    4.90999985    2.57999992
   13.62250042  184.72799683    4.90999985    2.64000010
   13.62583351  180.68600464    4.90999985    2.59999990
   13.62916660  198.58999634    4.90999985    2.64000010
   13.63222218  194.93899536    4.90999985    2.57999992
   13.63555527  171.32200623    4.90999985    2.61999989
   13.63861084  202.37800598    4.90999985    2.48000002
   13.64194393  174.60200500    4.90999985    2.51999998
   13.64249992  175.74600220    4.90999985    2.55999994
   13.64555550  166.53700256    4.90999985    2.64000010
   13.65166664  166.53700256    4.90999985    2.50000000
   13.65583324  192.81100464    4.90999985    2.48000002
   13.65888882  191.75100708    4.90999985    2.59999990
   13.66222191  208.44700623    4.90999985    2.40000010
   13.66527748  220.07499695    4.90999985    2.46000004
   13.66861153  199.06599426    4.90999985    2.51999998
   13.67194462  213.45500183    4.90999985    2.53999996
   13.67500019  181.38099670    4.90999985    2.59999990
   13.67583370  181.03100586    4.90999985    2.59999990
   13.67888927  182.17999268    4.90999985    2.64000010
   13.68194485  155.51600647    4.90999985    2.66000009
   13.68527794  177.58099365    4.90999985    2.75000000
   13.68833351  163.42500305    4.90999985    2.73000002
   13.69444466  163.42500305    4.90999985    2.71000004
   13.69861126  168.32000732    4.90999985    2.67000008
   13.70166683  162.30999756    4.90999985    2.75000000
   13.70499992  156.75000000    4.90999985    2.75000000
   13.70833302  178.58700562    4.90999985    2.75000000
   13.70916653  172.52699280    4.90999985    2.75000000
   13.71194458  156.80200195    4.78000021    2.76999998
   13.71500015  163.50000000    4.00000000    2.76999998
   13.71833324  166.28199768    3.20000005    2.78999996
   13.72138882  151.83299255    2.53999996    2.78999996
   13.72472191  155.69700623    2.13000011    2.78999996
   13.72805500  155.05200195    2.05999994    2.78999996
   13.73111057  164.79200745    2.03999996    2.78999996
   13.73722267  164.79200745    1.83000004    2.78999996
   13.74138927  155.49800110    1.75000000    2.78999996
   13.74250031  155.79499817    1.75000000    2.78999996
   13.74499989  169.76499939    1.75000000    2.78999996
   13.74805546  161.07200623    1.71000004    2.78999996
   13.75138855  156.21600342    1.69000006    2.78999996
   13.75444412  159.75399780    1.66999996    2.78999996
   13.75777817  166.34100342    1.66999996    2.78999996
   13.76111126  163.08500671    1.66999996    2.78999996
   13.76416683  152.55200195    1.66999996    2.78999996
   13.76749992  146.03100586    1.66999996    2.80999994
   13.77083302  159.17500305    1.69000006    2.80999994
   13.77388859  161.18299866    1.69000006    2.78999996
   13.77583313  152.47999573    1.69000006    2.78999996
   13.77999973  152.47999573    1.69000006    2.78999996
   13.78416729  152.87300110    1.64999998    2.78999996
   13.78750038  149.10499573    1.64999998    2.78999996
   13.79083347  157.45300293    1.64999998    2.78999996
   13.79388905  147.26199341    1.63000000    2.80999994
   13.79722309  157.10000610    1.63000000    2.80999994
   13.80055618  138.08299255    1.63000000    2.80999994
   13.80361176  151.32499695    1.63000000    2.78999996
   13.80694485  143.29100037    1.64999998    2.80999994
   13.80916691  135.42100525    1.64999998    2.80999994
   13.81055546  143.02900696    1.64999998    2.80999994
   13.81361103  150.20899963    1.64999998    2.78999996
   13.81694412  151.46800232    1.66999996    2.78999996
   13.82305527  151.46800232    1.64999998    2.80999994
   13.82722187  155.51600647    1.64999998    2.78999996
   13.83055592  165.69500732    1.64999998    2.78999996
   13.83361053  138.94700623    1.64999998    2.78999996
   13.83694458  156.38499451    1.64999998    2.78999996
   13.84027767  165.64799500    1.64999998    2.78999996
   13.84249973  145.01300049    1.64999998    2.78999996
   13.84388828  148.36399841    1.63000000    2.80999994
   13.84694386  155.06700134    1.63000000    2.80999994
   13.85027790  144.86099243    1.61000001    2.80999994
   13.85333347  154.15199280    1.60000002    2.78999996
   13.85666752  148.47300720    1.60000002    2.80999994
   13.86000061  133.97599792    1.60000002    2.80999994
   13.86583328  133.97599792    1.60000002    2.80999994
   13.86999989  139.34300232    1.60000002    2.80999994
   13.87305546  135.99499512    1.58000004    2.80999994
   13.87583351  135.12699890    1.53999996    2.80999994
   13.87694454  131.53399658    1.53999996    2.80999994
   13.88027763  157.30400085    1.53999996    2.80999994
   13.88333321  149.17100525    1.51999998    2.80999994
   13.88666630  140.37800598    1.51999998    2.80999994
   13.89000034  154.11300659    1.51999998    2.80999994
   13.89305496  160.76199341    1.53999996    2.80999994
   13.89638901  143.00999451    1.58000004    2.80999994
   13.89944458  157.55700684    1.58000004    2.78999996
   13.90277767  142.38000488    1.60000002    2.80999994
   13.90861034  142.38000488    1.60000002    2.80999994
   13.91277695  133.82899475    1.60000002    2.80999994
   13.91611099  144.50500488    1.60000002    2.80999994
   13.91916656  136.99200439    1.60000002    2.80999994
   13.92250061  134.70399475    1.61000001    2.82999992
   13.92583370  149.32800293    1.63000000    2.80999994
   13.92888927  136.47700500    1.66999996    2.80999994
   13.93222237  139.22500610    1.64999998    2.80999994
   13.93527794  147.33200073    1.64999998    2.80999994
   13.93861103  137.17199707    1.64999998    2.80999994
   13.94194412  153.38999939    1.64999998    2.80999994
   13.94361115  132.41400146    1.63000000    2.80999994
   13.94555569  139.56100464    1.63000000    2.80999994
   13.95138836  139.56100464    1.63000000    2.78999996
   13.95555496  152.96400452    1.63000000    2.80999994
   13.95888901  141.31500244    1.64999998    2.80999994
   13.96194458  143.11500549    1.64999998    2.80999994
   13.96527767  139.96099854    1.64999998    2.80999994
   13.96861076  147.58000183    1.64999998    2.80999994
   13.97166634  140.35899353    1.66999996    2.80999994
   13.97499943  154.52000427    1.66999996    2.80999994
   13.97694397  151.22700500    1.66999996    2.80999994
   13.97861099  158.38400269    1.69000006    2.80999994
   13.98194408  153.23300171    1.69000006    2.80999994
   13.98527813  155.75900269    1.69000006    2.80999994
   13.98833370  158.91499329    1.66999996    2.78999996
   13.99444485  158.91499329    1.66999996    2.80999994
   13.99833393  146.32899475    1.73000002    2.80999994
   14.00194454  149.81799316    1.75000000    2.78999996
   14.00500011  151.48500061    1.76999998    2.78999996
   14.00833321  146.72999573    1.76999998    2.78999996
   14.01055527  146.96200562    1.73000002    2.82999992
   14.01194477  149.60699463    1.73000002    2.82999992
   14.01500034  141.41299438    1.75000000    2.80999994
   14.01833344  147.58000183    1.78999996    2.80999994
   14.02138901  161.64700317    2.00000000    2.80999994
   14.02472210  143.12600708    1.96000004    2.80999994
   14.02805519  146.51600647    1.96000004    2.80999994
   14.03111076  143.47200012    1.91999996    2.80999994
   14.03722286  143.47200012    2.30999994    2.78999996
   14.04138947  147.58500671    2.28999996    2.78999996
   14.04388905  155.49099731    2.40000010    2.80999994
   14.04500008  143.91999817    2.55999994    2.78999996
   14.04805565  141.01800537    3.75000000    2.78999996
   14.05138874  148.13699341    3.75000000    2.76999998
   14.05444431  147.36500549    3.57999992    2.78999996
   14.05777836  147.98100281    3.18000007    2.76999998
   14.06111145  141.72399902    2.57999992    2.78999996
   14.06416702  142.29600525    2.32999992    2.80999994
   14.06750011  138.80299377    2.26999998    2.80999994
   14.07083321  146.47700500    2.40000010    2.80999994
   14.07388878  132.73800659    2.71000004    2.80999994
   14.07999992  132.73800659    3.39000010    2.80999994
   14.08416653  150.92999268    3.26999998    2.76999998
   14.08749962  156.44900513    2.66000009    2.78999996
   14.09055519  157.56399536    2.36999989    2.80999994
   14.09388828  149.36900330    2.21000004    2.80999994
   14.09722233  140.45100403    2.23000002    2.80999994
   14.10027790  137.60299683    2.51999998    2.82999992
   14.10361195  152.19000244    3.14000010    2.78999996
   14.10666752  167.48699951    3.46000004    2.76999998
   14.11000061  143.40600586    3.86999989    2.78999996
   14.11083412  144.40100098    3.86999989    2.78999996
   14.11361122  151.02600098    3.70000005    2.76999998
   14.11694431  147.61399841    3.11999989    2.80999994
   14.12277794  147.61399841    2.66000009    2.80999994
   14.12694454  140.32400513    3.07999992    2.80999994
   14.13027763  145.45399475    3.43000007    2.78999996
   14.13361073  135.34399414    3.72000003    2.78999996
   14.13666630  146.75700378    4.01999998    2.78999996
   14.14000034  142.04600525    3.95000005    2.80999994
   14.14333344  153.46099854    4.51000023    2.78999996
   14.14416695  137.71099854    4.90999985    2.78999996
   14.14666653  154.00999451    4.90999985    2.76999998
   14.14999962  137.25700378    4.90999985    2.64000010
   14.15305519  145.91200256    4.90999985    2.64000010
   14.15638828  135.53599548    4.90999985    2.64000010
   14.15972137  150.69299316    4.90999985    2.71000004
   14.16583252  150.69299316    4.90999985    2.75000000
   14.17000008  144.54899597    4.90999985    2.73000002
   14.17305565  140.19500732    4.90999985    2.69000006
   14.17638874  156.69599915    4.90999985    2.66000009
   14.17777824  152.42399597    4.90999985    2.59999990
   14.18000031  140.57600403    4.90999985    2.67000008
   14.18305588  161.69000244    4.90999985    2.73000002
   14.18638897  154.97599792    4.90999985    2.67000008
   14.18972206  159.07200623    4.90999985    2.69000006
   14.19305515  148.74299622    4.90999985    2.73000002
   14.19611073  144.57299805    4.46999979    2.75000000
   14.19944477  147.97399902    3.46000004    2.78999996
   14.20277786  158.84399414    2.80999994    2.78999996
   14.20861053  158.84399414    2.28999996    2.80999994
   14.22694397  151.90600586    4.90999985    2.67000008
   14.23027706  149.11399841    4.90999985    2.66000009
   14.23333359  162.51499939    4.90999985    2.67000008
   14.23666668  174.39199829    4.90999985    2.64000010
   14.24000072  175.73899841    4.90999985    2.57999992
   14.24305534  182.02099609    4.90999985    2.51999998
   14.24638939  167.63099670    4.90999985    2.48000002
   14.25166702  167.63099670    4.90999985    2.46000004
   14.25583363  208.86000061    4.90999985    2.40000010
   14.25888920  173.73399353    4.90999985    2.32999992
   14.26000023  196.80999756    4.90999985    2.25000000
   14.26277733  207.46299744    4.90999985    2.34999990
   14.26583290  186.97000122    4.90999985    2.36999989
   14.26916599  206.06500244    4.90999985    2.44000006
   14.27250004  204.02699280    4.90999985    2.28999996
   14.27555561  204.48100281    4.90999985    2.34999990
   14.27888870  208.92199707    4.90999985    2.30999994
   14.28194427  185.91700745    4.90999985    2.32999992
   14.28527832  202.93099976    4.90999985    2.36999989
   14.28861141  197.69000244    4.90999985    2.36999989
   14.29444504  197.69000244    4.90999985    2.53999996
   14.29861164  194.06900024    4.90999985    2.42000008
   14.30194473  187.62899780    4.90999985    2.40000010
   14.30500031  153.46200562    4.90999985    2.42000008
   14.30861092  173.58900452    4.90999985    2.48000002
   14.31194496  178.62899780    4.90999985    2.30999994
   14.31527805  177.36500549    4.90999985    2.36999989
   14.31833363  202.40100098    4.90999985    2.40000010
   14.32166672  191.52799988    4.90999985    2.28999996
   14.32499981  190.44700623    4.90999985    2.42000008
   14.32666683  152.44400024    4.90999985    2.40000010
   14.32861137  161.53799438    4.90999985    2.53999996
   14.33166695  177.55400085    4.90999985    2.51999998
   14.33722210  177.55400085    4.90999985    2.44000006
   14.34138870  191.30299377    4.90999985    2.51999998
   14.34472179  176.67999268    4.90999985    2.40000010
   14.34805489  211.58999634    4.90999985    2.46000004
   14.35111141  176.80099487    4.90999985    2.30999994
   14.35444450  161.72599792    4.90999985    2.48000002
   14.35750008  153.29200745    4.90999985    2.44000006
   14.36000061  154.31500244    4.90999985    2.42000008
   14.36138916  158.07400513    4.90999985    2.48000002
   14.36444473  140.94799805    4.90999985    2.53999996
   14.36777782  154.82200623    4.90999985    2.61999989
   14.37111092  147.22500610    4.90999985    2.57999992
   14.37416649  146.18299866    4.90999985    2.53999996
   14.38027763  146.18299866    4.90999985    2.64000010
   14.38444424  146.77799988    4.90999985    2.71000004
   14.38749981  152.80000305    4.90999985    2.71000004
   14.39083290  153.01899719    4.90999985    2.51999998
   14.39333344  147.03999329    4.90999985    2.59999990
   14.39444447  143.58099365    4.90999985    2.67000008
   14.39777756  136.97200012    4.90999985    2.76999998
   14.40083313  131.73899841    4.90999985    2.76999998
   14.40416622  141.16299438    4.90999985    2.71000004
   14.40722179  133.84800720    4.90999985    2.73000002
   14.41055489  147.69500732    4.90999985    2.76999998
   14.41388893  144.98300171    4.90999985    2.75000000
   14.41694450  148.62899780    4.90999985    2.76999998
   14.42305565  148.62899780    4.90999985    2.78999996
   14.42722225  202.69900513    4.90999985    2.75000000
   14.43027782  245.77600098    4.90999985    2.76999998
   14.43361092  279.16799927    4.90999985    2.78999996
   14.43694496  325.27700806    4.90999985    2.76999998
   14.44000053  338.46798706    4.90999985    2.76999998
   14.44333363  335.29901123    4.90999985    2.75000000
   14.44666672  326.28201294    4.90999985    2.78999996
   14.44972229  352.61700439    4.90999985    2.78999996
   14.45305538  356.31900024    4.55999994    2.78999996
   14.45611095  360.37500000    4.67999983    2.78999996
   14.45944405  363.39999390    4.90999985    2.80999994
   14.46000004  358.02600098    4.90999985    2.76999998
   14.46583271  358.02600098    4.90999985    2.76999998
   14.46999931  358.17498779    4.90999985    2.75000000
   14.47333336  349.59500122    4.90999985    2.76999998
   14.47638798  384.55899048    4.90999985    2.76999998
   14.47972202  365.40200806    4.90999985    2.80999994
   14.48305511  391.37399292    4.88999987    2.78999996
   14.48611164  403.89700317    4.65999985    2.78999996
   14.48805618  412.56500244    4.40999985    2.78999996
   14.48944473  370.18899536    4.32999992    2.80999994
   14.49083328  370.17999268    4.23999977    2.80999994
   14.49222279  385.27398682    4.15999985    2.78999996
   14.49361134  345.17098999    4.09999990    2.78999996
   14.49361134  403.89700317    4.65999985    2.78999996
   14.49361134  356.31900024    4.55999994    2.78999996
   14.49388885  360.37500000    4.67999983    2.78999996
   14.49388885  363.39999390    4.90999985    2.80999994
   14.49388885  358.17498779    4.90999985    2.75000000
   14.49388885  349.59500122    4.90999985    2.76999998
   14.49416733  384.55899048    4.90999985    2.76999998
   14.49416733  365.40200806    4.90999985    2.80999994
   14.49416733  391.37399292    4.88999987    2.78999996
   14.49472237  383.83401489    4.05999994    2.78999996
   14.49805546  394.37899780    3.75000000    2.78999996
   14.50111103  377.73001099    3.64000010    2.78999996
   14.50444412  355.85501099    3.46000004    2.78999996
   14.50777817  342.72000122    3.01999998    2.80999994
   14.51444435  342.72000122    2.91000009    2.78999996
   14.51861095  337.61801147    2.75000000    2.82999992
   14.52166653  344.96600342    2.78999996    2.80999994
   14.52499962  350.54699707    2.76999998    2.80999994
   14.52750015  336.80300903    2.84999990    2.80999994
   14.52833271  350.21899414    2.84999990    2.80999994
   14.53166676  323.57501221    2.93000007    2.80999994
   14.53500080  308.73800659    3.00000000    2.80999994
   14.53805637  341.97000122    2.89000010    2.80999994
   14.54138947  302.26501465    2.66000009    2.80999994
   14.54472256  289.81600952    2.40000010    2.82999992
   14.54777813  349.39700317    2.19000006    2.82999992
   14.55111122  334.01199341    2.07999992    2.82999992
   14.55722237  334.01199341    2.03999996    2.82999992
   14.56138897  305.96798706    2.03999996    2.80999994
   14.56472206  333.23901367    2.00000000    2.80999994
   14.56777763  313.51000977    1.98000002    2.82999992
   14.57111073  330.71899414    1.83000004    2.82999992
   14.57416630  310.51699829    1.78999996    2.82999992
   14.57750034  302.58499146    1.73000002    2.82999992
   14.58083344  348.84298706    1.69000006    2.82999992
   14.58388901  286.91198730    1.71000004    2.82999992
   14.58722210  308.93899536    1.71000004    2.82999992
   14.59055519  310.47100830    1.73000002    2.82999992
   14.59361076  243.68800354    1.73000002    2.82999992
   14.59416676  315.10998535    1.73000002    2.82999992
   14.60000038  315.10998535    1.69000006    2.80999994
   14.60416698  286.77398682    1.63000000    2.82999992
   14.60750008  225.58200073    1.63000000    2.82999992
   14.61055565  292.78100586    1.63000000    2.82999992
   14.61388969  247.45500183    1.63000000    2.82999992
   14.61722279  246.62699890    1.61000001    2.80999994
   14.62027836  250.83200073    1.61000001    2.80999994
   14.62361145  289.65301514    1.60000002    2.82999992
   14.62694454  242.88499451    1.60000002    2.82999992
   14.62750053  247.90499878    1.60000002    2.82999992
   14.63055611  246.74499512    1.58000004    2.82999992
   14.63361073  253.47700500    1.58000004    2.84999990
   14.63694477  253.57600403    1.58000004    2.84999990
   14.64305496  253.57600403    1.60000002    2.82999992
   14.64694405  227.71600342    1.60000002    2.82999992
   14.65027714  242.82800293    1.55999994    2.84999990
   14.65361118  253.51899719    1.55999994    2.82999992
   14.65666676  250.24099731    1.55999994    2.84999990
   14.65999985  247.91099548    1.55999994    2.84999990
   14.66083336  245.11900330    1.55999994    2.84999990
   14.66361046  247.77400208    1.58000004    2.82999992
   14.66666698  230.83999634    1.60000002    2.82999992
   14.67000008  248.85699463    1.60000002    2.82999992
   14.67333412  250.20199585    1.61000001    2.82999992
   14.67638874  239.55400085    4.32999992    2.80999994
   14.67972279  253.07200623    4.90999985    2.75000000
   14.68583298  253.07200623    4.90999985    2.71000004
   14.69000053  252.94900513    4.90999985    2.67000008
   14.69305515  229.63200378    4.90999985    2.71000004
   14.69416714  247.26600647    4.90999985    2.71000004
   14.69694424  236.00500488    4.90999985    2.69000006
   14.69999981  210.42900085    4.90999985    2.69000006
   14.70333290  225.74099731    4.90999985    2.75000000
   14.70666695  218.60899353    4.90999985    2.71000004
   14.70972157  218.94599915    4.90999985    2.75000000
   14.71305561  227.04499817    4.90999985    2.64000010
   14.71638870  203.86099243    4.90999985    2.61999989
   14.71972179  218.36700439    4.90999985    2.73000002
   14.72277737  216.27499390    3.78999996    2.78999996
   14.72861099  216.27499390    1.96000004    2.82999992
   14.73277760  187.06199646    1.71000004    2.82999992
   14.73611164  219.34300232    1.69000006    2.82999992
   14.73916721  219.88400269    1.66999996    2.82999992
   14.74250031  209.55499268    1.66999996    2.82999992
   14.74555588  195.20199585    1.66999996    2.82999992
   14.74888897  163.21200562    1.66999996    2.82999992
   14.75222206  191.84100342    1.64999998    2.82999992
   14.75527763  190.98599243    1.64999998    2.82999992
   14.75861073  194.45700073    1.69000006    2.84999990
   14.76083374  186.34500122    2.23000002    2.84999990
   14.76222229  209.72200012    2.23000002    2.84999990
   14.76527786  177.46499634    3.51999998    2.80999994
   14.77138901  177.46499634    4.90999985    2.76999998
   14.77555561  162.01300049    4.90999985    2.76999998
   14.77888870  182.21699524    4.90999985    2.76999998
   14.78194427  171.79100037    4.90999985    2.75000000
   14.78527832  212.36300659    4.90999985    2.75000000
   14.78861141  178.13999939    4.90999985    2.73000002
   14.79166698  189.24499512    4.90999985    2.75000000
   14.79416752  163.92100525    4.90999985    2.76999998
   14.79555607  182.17999268    4.90999985    2.75000000
   14.79861164  185.01899719    4.90999985    2.75000000
   14.80194473  182.71000671    4.90999985    2.75000000
   14.80527782  172.65899658    4.90999985    2.75000000
   14.80833340  183.19700623    4.90999985    2.73000002
   14.81444454  183.19700623    4.90999985    2.76999998
   14.81833363  155.62600708    4.90999985    2.78999996
   14.82166672  178.98199463    4.90999985    2.78999996
   14.82499981  165.60400391    4.90999985    2.75000000
   14.82750034  152.83700562    4.90999985    2.71000004
   14.82861137  182.28999329    4.90999985    2.71000004
   14.83166695  173.20899963    4.90999985    2.73000002
   14.83500004  144.16799927    4.90999985    2.73000002
   14.83833313  146.04899597    4.90999985    2.76999998
   14.84138870  155.87800598    4.90999985    2.75000000
   14.84472179  144.91299438    4.90999985    2.76999998
   14.84777737  152.92300415    4.90999985    2.76999998
   14.85111141  184.42900085    4.90999985    2.73000002
   14.85722256  184.42900085    4.90999985    2.76999998
   14.86138916  171.09500122    4.90999985    2.75000000
   14.86444473  164.21400452    4.90999985    2.75000000
   14.86777782  154.19900513    4.90999985    2.78999996
   14.87111092  122.92900085    4.73999977    2.78999996
   14.87416649  172.08299255    4.15999985    2.82999992
   14.87750053  173.65299988    4.30999994    2.78999996
   14.88055611  151.36399841    4.19999981    2.80999994
   14.88388920  155.30900574    4.13999987    2.80999994
   14.88722229  172.38099670    4.48999977    2.78999996
   14.89027786  145.46299744    4.63999987    2.80999994
   14.89361095  164.41400146    4.90999985    2.78999996
   14.89416695  138.76699829    4.90999985    2.78999996
   14.89999962  138.76699829    4.90999985    2.78999996
   14.90416622  150.72500610    4.90999985    2.78999996
   14.90749931  150.51699829    4.90999985    2.76999998
   14.91055489  141.06799316    4.90999985    2.76999998
   14.91388893  136.52299500    4.90999985    2.80999994
   14.91722298  133.15899658    4.55999994    2.80999994
   14.92027855  137.98599243    4.32999992    2.80999994
   14.92361164  150.04499817    4.13999987    2.82999992
   14.92694473  139.43299866    4.05999994    2.80999994
   14.92750072  145.61099243    4.05999994    2.80999994
   14.93055630  141.72399902    3.99000001    2.82999992
   14.93361092  133.65100098    3.86999989    2.80999994
   14.93694496  132.81100464    3.78999996    2.82999992
   14.94277763  132.81100464    3.28999996    2.80999994
   14.94694424  144.78199768    2.86999989    2.82999992
   14.95027733  138.78199768    2.78999996    2.82999992
   14.95333290  140.44299316    2.67000008    2.82999992
   14.95666695  135.13900757    2.44000006    2.82999992
   14.96000004  138.60099792    2.26999998    2.84999990
   14.96083355  133.14100647    2.21000004    2.84999990
   14.96361065  138.95300293    2.09999990    2.84999990
   14.96666622  136.79299927    2.03999996    2.82999992
   14.96999931  122.21399689    1.98000002    2.84999990
   14.97333336  140.99400330    2.05999994    2.84999990
   14.97638798  145.33299255    1.94000006    2.84999990
   14.97972202  130.48100281    1.89999998    2.82999992
   14.98583317  130.48100281    1.88000000    2.82999992
   14.98972225  126.59500122    1.89999998    2.82999992
   14.99305534  124.75199890    1.89999998    2.82999992
   14.99416733  128.17700195    1.89999998    2.82999992
   14.99666691  135.29400635    1.91999996    2.82999992
   14.99972248  128.64599609    1.91999996    2.82999992
   15.00305557  122.84200287    1.91999996    2.82999992
   15.00638866  128.36900330    1.96000004    2.82999992
   15.00944424  133.42599487    1.98000002    2.84999990
   15.01277733  128.60899353    1.98000002    2.84999990
   15.01611137  130.97099304    1.88000000    2.84999990
   15.01916599  129.55700684    1.88000000    2.84999990
   15.02250004  124.76799774    1.73000002    2.84999990
   15.02861118  124.76799774    1.64999998    2.82999992
   15.03277779  113.82700348    1.66999996    2.82999992
   15.03583336  119.49900055    1.66999996    2.84999990
   15.03916740  120.15000153    1.71000004    2.84999990
   15.04250050  119.75099945    1.71000004    2.84999990
   15.04555607  116.90200043    1.86000001    2.82999992
   15.04888916  120.16300201    1.80999994    2.84999990
   15.05222225  122.93399811    1.73000002    2.82999992
   15.05527782  131.02900696    1.71000004    2.84999990
   15.05861092  116.19499969    1.71000004    2.84999990
   15.06083393  122.78399658    1.71000004    2.84999990
   15.06222248  117.96299744    1.69000006    2.84999990
   15.06527805  126.94899750    1.69000006    2.84999990
   15.07138920  126.94899750    1.71000004    2.84999990
   15.07555580  115.40799713    1.76999998    2.84999990
   15.07861137  116.24700165    1.76999998    2.84999990
   15.08194447  114.94200134    1.76999998    2.82999992
   15.08527756  115.83699799    1.76999998    2.82999992
   15.08861065  117.62899780    1.76999998    2.82999992
   15.09166622  123.83599854    1.78999996    2.82999992
   15.09416676  133.46299744    1.78999996    2.82999992
   15.09555531  124.04399872    1.78999996    2.82999992
   15.09861088  120.82399750    1.76999998    2.80999994
   15.10194492  127.89199829    1.76999998    2.80999994
   15.10527802  122.37799835    1.73000002    2.82999992
   15.10833359  121.84799957    1.73000002    2.82999992
   15.11416721  121.84799957    1.66999996    2.84999990
   15.11833382  127.94499969    1.61000001    2.82999992
   15.12166691  125.95800018    1.58000004    2.84999990
   15.12472248  125.26399994    1.58000004    2.84999990
   15.12750053  125.00099945    1.55999994    2.84999990
   15.12861156  121.24900055    1.55999994    2.84999990
   15.23333359   -1.00000000   -1.00000000   -1.00000000
   15.33361053   -1.00000000   -1.00000000   -1.00000000
   15.43500042   -1.00000000   -1.00000000   -1.00000000
   15.48111057  130.41499329    4.90999985    2.75000000
   15.48444462  135.95500183    4.90999985    2.76999998
   15.48750019  143.37500000    4.90999985    2.71000004
   15.49083328  149.84300232    4.90999985    2.64000010
   15.49416733  129.30099487    4.90999985    2.66000009
   15.49722290  123.44999695    4.90999985    2.67000008
   15.50138855  123.44999695    4.90999985    2.73000002
   15.50555515  126.67199707    4.90999985    2.78999996
   15.50888920  128.27799988    4.90999985    2.75000000
   15.51194477  135.35499573    4.90999985    2.71000004
   15.51444435  130.86700439    4.90999985    2.71000004
   15.51555538  125.97599792    4.90999985    2.71000004
   15.51861095  122.03900146    4.90999985    2.75000000
   15.52194405  123.50199890    4.90999985    2.73000002
   15.52527714  127.14800262    4.90999985    2.76999998
   15.52833271  132.72900391    4.90999985    2.75000000
   15.53166676  121.47799683    4.90999985    2.75000000
   15.53500080  118.47000122    4.90999985    2.76999998
   15.53805637  121.02300262    4.90999985    2.76999998
   15.54416752  121.02300262    0.20999999    0.19000000
   15.54833412  124.74900055    0.20999999    0.19000000
   15.55166721  127.99700165    0.20999999    0.19000000
   15.55500031  133.24099731    0.20999999    0.19000000
   15.55805588  129.67599487    0.20999999    0.19000000
   15.56138897  122.61000061    0.20999999    0.19000000
   15.56472206  127.94400024    0.20999999    0.19000000
   15.56777763  117.19499969    0.20999999    0.19000000
   15.57111073  127.75800323    0.20999999    0.19000000
   15.57444477  119.40000153    0.20999999    0.19000000
   15.57777786  132.85099792    0.20999999    0.19000000
   15.58083344  122.38300323    0.20999999    0.19000000
   15.58138847  120.70999908    0.20999999    0.19000000
   15.58722210  120.70999908    0.20999999    0.19000000
   15.59138870  128.50799561    0.20999999    0.19000000
   15.59444427  124.11799622    0.20999999    0.19000000
   15.59777737  120.84999847    0.20999999    0.19000000
   15.60083389  133.16700745    0.20999999    0.19000000
   15.60416698  123.79399872    0.20999999    0.19000000
   15.60750008  131.06399536    0.20999999    0.19000000
   15.61055565  139.90100098    0.20999999    0.19000000
   15.61388969  120.91899872    0.20999999    0.19000000
   15.61472225  131.33799744    0.20999999    0.19000000
   15.61750031  135.90600586    0.20999999    0.19000000
   15.62055588  152.27499390    0.20999999    0.19000000
   15.62388897  152.31100464    0.20999999    0.19000000
   15.63000011  152.31100464    0.20999999    0.19000000
   15.63416672  143.67999268    0.20999999    0.19000000
   15.63722229  138.73699951    0.20999999    0.19000000
   15.64055538  139.82499695    0.20999999    0.19000000
   15.64444447  166.74400330    0.00000000    0.00000000
   15.64833355  148.55999756    0.00000000    0.00000000
   15.64888859  202.93800354    0.00000000    0.00000000
   15.65222168  173.74800110    0.00000000    0.00000000
   15.65611076  162.15800476    0.00000000    0.00000000
   15.65999985  174.95799255    0.00000000    0.00000000
   15.66388893  199.56399536    0.00000000    0.00000000
   15.66777802  167.63200378    0.00000000    0.00000000
   15.67388916  167.63200378    0.00000000    0.00000000
   15.67833328  144.90499878    0.00000000    0.00000000
   15.68305588  149.78999329    0.00000000    0.00000000
   15.68333340  145.76699829    0.00000000    0.00000000
   15.68694496  146.78700256    0.00000000    0.00000000
   15.69083309  147.99099731    0.00000000    0.00000000
   15.69472218  150.25500488    0.00000000    0.00000000
   15.69861126  143.44299316    0.00000000    0.00000000
   15.70249939  137.39199829    0.00000000    0.00000000
   15.70638847  142.81799316    0.00000000    0.00000000
   15.71000004  152.60899353    0.00000000    0.00000000
   15.71749973  152.60899353    0.00000000    0.00000000
   15.72222137  162.52299500    0.00000000    0.00000000
   15.72583294  158.94900513    0.00000000    0.00000000
   15.72999954  164.80599976    0.00000000    0.00000000
   15.73388958  169.67500305    0.00000000    0.00000000
   15.73750019  149.63699341    0.00000000    0.00000000
   15.74138927  155.57000732    0.00000000    0.00000000
   15.74527836  173.51300049    0.00000000    0.00000000
   15.74916649  143.94500732    0.00000000    0.00000000
   15.75305557  165.83000183    0.00000000    0.00000000
   15.75333309  179.00999451    0.00000000    0.00000000
   15.76000023  179.00999451    0.00000000    0.00000000
   15.76472187  153.61000061    0.00000000    0.00000000
   15.76861095  181.48899841    0.00000000    0.00000000
   15.77250004  274.99301147    0.00000000    0.00000000
   15.77638817  194.03100586    0.00000000    0.00000000
   15.78027725  196.62699890    0.00000000    0.00000000
   15.78416729  156.22500610    0.00000000    0.00000000
   15.78583336  141.87199402    0.00000000    0.00000000
   15.78805637  138.37699890    0.00000000    0.00000000
   15.79194450  153.84800720    0.00000000    0.00000000
   15.79583359  165.13299561    0.00000000    0.00000000
   15.80305576  165.13299561    0.00000000    0.00000000
   15.80777836  130.06300354    0.00000000    0.00000000
   15.81166649  142.36700439    0.00000000    0.00000000
   15.81555557  136.75399780    0.00000000    0.00000000
   15.81944466  131.33099365    0.00000000    0.00000000
   15.81999969  134.74099731    0.00000000    0.00000000
