    HOUR (UT)   FLARE FACTOR    SKY TESTER    SUN TESTER
   11.35277843   -1.00000000   -1.00000000   -1.00000000
   11.38805580  130.58200073    0.55000001    2.01999998
   11.39138889  122.69100189    0.55000001    2.03999996
   11.39444447  103.25599670    0.56999999    2.03999996
   11.39777756   99.56310272    0.55000001    2.03999996
   11.40111065  130.24800110    0.55000001    2.03999996
   11.40416622  105.15100098    0.55000001    2.03999996
   11.40833282  105.15100098    0.52999997    2.03999996
   11.41249943  120.01300049    0.52999997    2.03999996
   11.41583252  117.17400360    0.52999997    2.05999994
   11.41888905  108.45600128    0.52999997    2.05999994
   11.42138958  119.80799866    0.52999997    2.05999994
   11.42250061  104.12200165    0.52999997    2.05999994
   11.42583370  112.37200165    0.51999998    2.05999994
   11.42916679  112.23200226    0.51999998    2.07999992
   11.43222237  128.89500427    0.50000000    2.07999992
   11.43555546  124.77500153    0.50000000    2.07999992
   11.43888855  126.61100006    0.50000000    2.07999992
   11.44194412  127.14299774    0.50000000    2.07999992
   11.44527817  122.50499725    0.47999999    2.07999992
   11.45111084  122.50499725    0.47999999    2.09999990
   11.45527744  121.14199829    0.47999999    2.09999990
   11.45861053  105.50700378    0.47999999    2.09999990
   11.46166611  118.54399872    0.47999999    2.09999990
   11.46500015  111.10800171    0.47999999    2.09999990
   11.46833324  105.89600372    0.46000001    2.11999989
   11.47138882  127.86799622    0.46000001    2.11999989
   11.47472191  116.96499634    0.46000001    2.11999989
   11.47777748  122.86299896    0.46000001    2.11999989
   11.48111057  107.47699738    0.46000001    2.11999989
   11.48444462  120.64499664    0.44000000    2.13000011
   11.48750019  126.58999634    0.44000000    2.13000011
   11.48805618  132.63499451    0.46000001    2.13000011
   11.49388885  132.63499451    0.46000001    2.13000011
   11.49805546  130.25799561    0.44000000    2.13000011
   11.50138855  136.67799377    0.46000001    2.13000011
   11.50472260  121.50900269    0.44000000    2.15000010
   11.50777817  114.98500061    0.44000000    2.15000010
   11.51111126  118.28500366    0.44000000    2.13000011
   11.51416683  112.73100281    0.44000000    2.15000010
   11.51749992  123.17600250    0.44000000    2.13000011
   11.52083302  122.88200378    0.44000000    2.15000010
   11.52138901  131.89100647    0.44000000    2.13000011
   11.52444458  106.33100128    0.44000000    2.13000011
   11.52750015  124.71099854    0.46000001    2.13000011
   11.53083324  116.07199860    0.46000001    2.13000011
   11.53694534  116.07199860    0.44000000    2.13000011
   11.54111195  118.64600372    0.44000000    2.13000011
   11.54416752  145.93099976    0.44000000    2.13000011
   11.54750061  113.46199799    0.44000000    2.11999989
   11.55055618  119.74600220    0.44000000    2.13000011
   11.55388927  105.35399628    0.44000000    2.11999989
   11.55472279  118.07199860    0.44000000    2.11999989
   11.55749989  126.03500366    0.44000000    2.11999989
   11.56055546  137.63400269    0.44000000    2.09999990
   11.56388950  128.81900024    0.44000000    2.09999990
   11.56722260  119.42900085    0.44000000    2.09999990
   11.57027817  135.65100098    0.44000000    2.09999990
   11.57361126  109.10600281    0.44000000    2.07999992
   11.57972240  109.10600281    0.44000000    2.07999992
   11.58388901  140.71000671    0.44000000    2.05999994
   11.58722210  140.41600037    0.44000000    2.03999996
   11.58805561  128.08999634    0.41999999    2.03999996
   11.59083271  132.48899841    0.41999999    2.03999996
   11.59388828  131.63800049    0.44000000    2.01999998
   11.59722233  132.93899536    0.41999999    2.00000000
   11.60055637  120.37899780    0.41999999    2.00000000
   11.60361195  128.09500122    0.41999999    1.98000002
   11.60694504  109.89700317    0.41999999    1.96000004
   11.61027813  117.96800232    0.41999999    1.96000004
   11.61333370  124.63999939    0.41999999    1.94000006
   11.61666679  120.83699799    0.41999999    1.91999996
   11.62250042  120.83699799    0.40000001    1.89999998
   11.62666702  150.21499634    0.41999999    1.85000002
   11.63000011  136.98800659    0.40000001    1.83000004
   11.63305569  137.78500366    0.40000001    1.80999994
   11.63638878  125.52300262    0.40000001    1.80999994
   11.63972187  118.78700256    0.40000001    1.80999994
   11.64305496  107.56900024    0.40000001    1.80999994
   11.64638901  115.76100159    0.40000001    1.80999994
   11.64944458  125.86499786    0.40000001    1.78999996
   11.65277767  125.04299927    0.38000000    1.80999994
   11.65472221  132.54499817    0.38000000    1.78999996
   11.65638828  107.62100220    0.38000000    1.80999994
   11.65944386  121.28099823    0.38000000    2.25000000
   11.66527748  121.28099823    0.40000001    2.25000000
   11.66944504  128.17199707    0.38000000    2.25000000
   11.67277813  114.69599915    0.40000001    2.25000000
   11.67611122  106.45800018    0.38000000    2.25000000
   11.67916679  123.57800293    0.38000000    2.26999998
   11.68249989  102.85900116    0.38000000    2.26999998
   11.68555546  120.48899841    0.38000000    2.26999998
   11.68805599  113.56400299    0.38000000    2.26999998
   11.68944454  128.80599976    0.38000000    2.26999998
   11.69250011  106.44000244    0.38000000    2.26999998
   11.69583321  107.73799896    0.38000000    2.26999998
   11.69916630  125.93800354    0.38000000    2.26999998
   11.70222187  108.66500092    0.38000000    2.26999998
   11.70833302  108.66500092    0.38000000    2.26999998
   11.71249962  117.47899628    0.36000001    2.26999998
   11.71555519  115.40799713    0.36000001    2.26999998
   11.71888828  119.32299805    0.36000001    2.26999998
   11.72138882  129.77900696    0.36000001    2.28999996
   11.72249985  126.41600037    0.36000001    2.28999996
   11.72555542  123.78900146    0.38000000    2.28999996
   11.72888851  139.86900330    0.36000001    2.28999996
   11.73222160  114.73500061    0.38000000    2.28999996
   11.73527813  113.02500153    0.36000001    2.28999996
   11.73861122  124.75499725    0.36000001    2.28999996
   11.74194431  124.33799744    0.36000001    2.28999996
   11.74527836  116.79900360    0.38000000    2.28999996
   11.75111103  116.79900360    0.36000001    2.28999996
   11.75527763  133.22700500    0.36000001    2.30999994
   11.75833321  127.59200287    0.36000001    2.30999994
   11.76166630  105.75099945    0.36000001    2.30999994
   11.76500034  106.35700226    0.36000001    2.30999994
   11.76805496  137.06300354    0.36000001    2.30999994
   11.77138901  109.11100006    0.36000001    2.30999994
   11.77472210  111.26699829    0.38000000    2.30999994
   11.77777767  114.26599884    1.05999994    2.26999998
   11.78111076  107.38700104    0.55000001    2.28999996
   11.78416729  111.17500305    0.55000001    2.26999998
   11.78750038  116.52700043    0.55000001    2.26999998
   11.78805637  114.52300262    0.55000001    2.26999998
   11.79388905  114.52300262    0.56999999    2.26999998
   11.79805565  112.61000061    0.55000001    2.28999996
   11.80138874  107.76300049    0.55000001    2.28999996
   11.80444431  131.27600098    0.55000001    2.28999996
   11.80777836  109.70200348    0.55000001    2.28999996
   11.81111145  120.80100250    0.55000001    2.28999996
   11.81416702  112.90100098    0.55000001    2.28999996
   11.81750011  124.95999908    0.56999999    2.28999996
   11.82083321  135.61000061    0.56999999    2.28999996
   11.82138920  117.48300171    0.56999999    2.28999996
   11.82444477  135.57400513    0.56999999    2.28999996
   11.82777786  129.15899658    0.56999999    2.28999996
   11.83083344  117.23200226    0.55000001    2.30999994
   11.83666611  117.23200226    0.55000001    2.28999996
   11.84083271  138.76600647    0.55000001    2.28999996
   11.84416676  132.72700500    0.55000001    2.30999994
   11.84722233  141.56199646    0.52999997    2.30999994
   11.85055637  126.70300293    0.52999997    2.30999994
   11.85388947  153.83999634    0.52999997    2.30999994
   11.85472298  142.63900757    0.52999997    2.30999994
   11.85750008  160.89199829    0.52999997    2.30999994
   11.86083412  145.41299438    0.52999997    2.30999994
   11.86388969  156.48699951    0.52999997    2.32999992
   11.86722279  134.84300232    0.51999998    2.32999992
   11.87027836  150.72700500    0.52999997    2.32999992
   11.87361145  182.65299988    0.52999997    2.32999992
   11.87972260  182.65299988    0.51999998    2.32999992
   11.88388920  177.46499634    0.52999997    2.32999992
   11.88694477  201.57699585    0.52999997    2.32999992
   11.88805580  189.71299744    0.51999998    2.32999992
   11.89055538  203.37800598    0.52999997    2.32999992
   11.89361095  202.02099609    0.52999997    2.32999992
   11.89694405  202.75300598    0.51999998    2.34999990
   11.90027714  181.72200012    0.51999998    2.32999992
   11.90333271  197.00999451    0.51999998    2.34999990
   11.90666676  191.26899719    0.52999997    2.32999992
   11.90999985  201.33700562    0.51999998    2.34999990
   11.91305542  195.85299683    0.51999998    2.34999990
   11.91638851  187.44999695    0.51999998    2.34999990
   11.92250061  187.44999695    0.51999998    2.34999990
   11.92666721  201.98800659    0.51999998    2.34999990
   11.92972279  201.73199463    0.51999998    2.34999990
   11.93305588  200.35699463    0.51999998    2.34999990
   11.93638897  207.50799561    0.51999998    2.34999990
   11.93944454  221.44799805    0.51999998    2.34999990
   11.94277763  203.92500305    0.51999998    2.34999990
   11.94583321  195.07800293    0.51999998    2.34999990
   11.94916630  192.04499817    0.51999998    2.34999990
   11.95249939  207.84100342    0.51999998    2.34999990
   11.95472240  202.38999939    0.51999998    2.34999990
   11.95638847  179.26199341    0.51999998    2.34999990
   11.95972157  164.32400513    0.50000000    2.36999989
   11.96527767  164.32400513    0.50000000    2.36999989
   11.96944427  217.10600281    0.50000000    2.36999989
   11.97277737  179.70500183    0.50000000    2.36999989
   11.97583294  184.35099792    0.50000000    2.36999989
   11.97916603  162.75000000    0.47999999    2.36999989
   11.98249912  167.44599915    0.47999999    2.36999989
   11.98555565  172.38699341    0.50000000    2.36999989
   11.98805618  159.69099426    0.47999999    2.39000010
   11.98916721  147.01899719    0.47999999    2.39000010
   11.99222279  165.18600464    0.47999999    2.39000010
   11.99555588  137.98800659    0.47999999    2.36999989
   11.99888897  141.26699829    0.47999999    2.39000010
   12.00194454  144.95899963    0.47999999    2.36999989
   12.00805569  144.95899963    0.50000000    2.39000010
   12.01222229  152.14999390    0.47999999    2.39000010
   12.01555538  142.13999939    0.47999999    2.39000010
   12.01888847  141.72700500    0.47999999    2.39000010
   12.02138901  142.29600525    0.47999999    2.40000010
   12.02250004  175.51400757    0.47999999    2.40000010
   12.02555561  134.31300354    0.47999999    2.39000010
   12.02888870  158.01600647    0.47999999    2.39000010
   12.03222179  149.64199829    0.47999999    2.39000010
   12.03527832  158.08099365    0.47999999    2.39000010
   12.03861141  159.54800415    0.47999999    2.39000010
   12.04194450  121.95999908    0.47999999    2.39000010
   12.04500008  154.40299988    0.47999999    2.40000010
   12.05111122  154.40299988    0.47999999    2.39000010
   12.05527782  146.90600586    0.47999999    2.40000010
   12.05833340  151.16600037    0.47999999    2.40000010
   12.06166649  155.50399780    0.47999999    2.40000010
   12.06472206  152.24000549    0.47999999    2.40000010
   12.06805515  151.26899719    0.47999999    2.40000010
   12.07138920  161.47399902    0.47999999    2.40000010
   12.07444477  141.82800293    0.47999999    2.40000010
   12.07777786  152.98500061    0.47999999    2.40000010
   12.08083344  147.72399902    0.47999999    2.40000010
   12.08416653  116.76499939    0.47999999    2.40000010
   12.08749962  125.92900085    0.47999999    2.40000010
   12.08805561  143.57400513    0.47999999    2.40000010
   12.09388828  143.57400513    0.47999999    2.40000010
   12.09805489  128.13900757    0.47999999    2.42000008
   12.10111141  139.70799255    0.47999999    2.42000008
   12.10444450  144.87300110    0.47999999    2.40000010
   12.10777855  141.62399292    0.47999999    2.40000010
   12.11111164  129.14900208    0.47999999    2.40000010
   12.11416721  114.01399994    0.47999999    2.42000008
   12.11750031  161.02900696    0.47999999    2.42000008
   12.12083340  125.06600189    0.47999999    2.40000010
   12.12138939  135.29499817    0.47999999    2.40000010
   12.12444496  127.72399902    0.47999999    2.42000008
   12.12777805  148.24800110    0.46000001    2.42000008
   12.13083363  132.07000732    0.47999999    2.42000008
   12.13666630  132.07000732    0.46000001    2.42000008
   12.14083290  137.11799622    0.46000001    2.42000008
   12.14416695  136.80000305    0.46000001    2.42000008
   12.14722252  114.87300110    0.46000001    2.42000008
   12.15055561  143.90899658    0.46000001    2.44000006
   12.15388870  135.64999390    0.46000001    2.42000008
   12.15472221  129.83200073    0.46000001    2.42000008
   12.15722179  146.83200073    0.44000000    2.42000008
   12.16055489  121.93599701    0.44000000    2.44000006
   12.16361046  123.19899750    0.44000000    2.44000006
   12.16694450  138.69999695    0.44000000    2.44000006
   12.17000008  102.22499847    0.46000001    2.44000006
   12.17333412  105.92900085    0.44000000    2.44000006
   12.17944431  105.92900085    0.44000000    2.44000006
   12.18361092  131.26300049    0.44000000    2.44000006
   12.18694496  140.35200500    0.44000000    2.44000006
   12.18805599  135.20199585    0.44000000    2.44000006
   12.19055557  115.22599792    0.44000000    2.44000006
   12.19388866  126.21299744    0.44000000    2.44000006
   12.19694424  140.39100647    0.44000000    2.44000006
   12.20027733  129.04899597    0.44000000    2.46000004
   12.20361137  130.72799683    0.44000000    2.44000006
   12.20666695  131.68600464    0.44000000    2.44000006
   12.21000004  120.44300079    0.44000000    2.46000004
   12.21305561  142.43800354    0.44000000    2.46000004
   12.21638870  149.36999512    0.44000000    2.46000004
   12.22249985  149.36999512    0.44000000    2.46000004
   12.22666645  148.44999695    0.44000000    2.46000004
   12.22972202  128.86900330    0.44000000    2.46000004
   12.23305511  118.62799835    0.44000000    2.46000004
   12.23611164  149.72500610    0.44000000    2.46000004
   12.23944473  135.92199707    0.44000000    2.46000004
   12.24277782  119.57399750    0.44000000    2.46000004
   12.24583340  125.19999695    0.44000000    2.46000004
   12.24916649   99.02390289    0.44000000    2.46000004
   12.25249958  143.87699890    0.44000000    2.46000004
   12.25472260  119.31500244    0.44000000    2.46000004
   12.25583363  127.15399933    0.44000000    2.46000004
   12.25916672  156.66099548    0.44000000    2.46000004
   12.26527786  156.66099548    0.44000000    2.46000004
   12.26944447  143.56599426    0.44000000    2.46000004
   12.27250004  145.38299561    0.44000000    2.46000004
   12.27583313  132.61099243    0.44000000    2.46000004
   12.27916622  115.94599915    0.41999999    2.48000002
   12.28222179  125.18900299    0.41999999    2.48000002
   12.28555584  127.31900024    0.41999999    2.48000002
   12.28805637  129.44999695    0.41999999    2.48000002
   12.28916740  126.80699921    0.41999999    2.48000002
   12.29250050  116.15499878    0.41999999    2.48000002
   12.29555607  130.75999451    0.41999999    2.48000002
   12.29888916  121.47299957    0.41999999    2.48000002
   12.30222225  134.31500244    0.41999999    2.48000002
   12.30805588  134.31500244    0.41999999    2.48000002
   12.31222248  122.26599884    0.41999999    2.48000002
   12.31555557  109.96800232    0.41999999    2.48000002
   12.31861115  116.58000183    0.41999999    2.48000002
   12.32138920  116.64299774    0.41999999    2.48000002
   12.32222176  102.36900330    0.41999999    2.48000002
   12.32555580  115.41999817    0.40000001    2.48000002
   12.32888889  115.05400085    0.40000001    2.50000000
   12.33194447  114.36199951    0.40000001    2.48000002
   12.33527756  114.09600067    0.40000001    2.48000002
   12.33833313  104.77500153    0.40000001    2.48000002
   12.34166622  109.37300110    0.40000001    2.48000002
   12.34499931  105.74800110    0.41999999    2.50000000
   12.35083389  105.74800110    0.40000001    2.50000000
   12.35500050  111.16799927    0.40000001    2.48000002
   12.35833359  112.58000183    0.40000001    2.48000002
   12.36138916  125.49900055    0.41999999    2.50000000
   12.36472225  103.92199707    0.40000001    2.50000000
   12.36805534  113.19699860    0.40000001    2.50000000
   12.37111092  103.74500275    0.40000001    2.50000000
   12.37444496  109.89499664    0.40000001    2.50000000
   12.37777805  112.17400360    0.40000001    2.50000000
   12.38083363  123.83999634    0.40000001    2.50000000
   12.38416672  117.15599823    0.40000001    2.50000000
   12.38722229  104.16000366    0.40000001    2.50000000
   12.38805580  116.90200043    0.40000001    2.50000000
   12.40888882  116.90200043    0.40000001    2.51999998
   12.41305542  100.69999695    0.40000001    2.50000000
   12.41611099  103.22599792    0.40000001    2.50000000
   12.41944504  100.14499664    0.40000001    2.51999998
   12.42138958   95.15720367    0.40000001    2.51999998
   12.42305565  105.85800171    0.40000001    2.50000000
   12.42638874  100.10099792    0.40000001    2.51999998
   12.42972279  107.24199677    0.40000001    2.51999998
   12.43277836  104.76000214    0.40000001    2.50000000
   12.43611145  116.84600067    0.40000001    2.51999998
   12.43944454  102.53399658    0.40000001    2.51999998
   12.44250011  100.43099976    0.40000001    2.51999998
   12.44583321  104.09600067    0.40000001    2.50000000
   12.45166683  104.09600067    0.40000001    2.51999998
   12.45583344  102.51999664    0.40000001    2.51999998
   12.45888901  104.14499664    0.40000001    2.51999998
   12.46222210  108.13999939    0.40000001    2.51999998
   12.46527767  107.70800018    0.40000001    2.51999998
   12.46861076  112.58200073    0.40000001    2.51999998
   12.47194386  104.88300323    0.40000001    2.51999998
   12.47499943  112.80599976    0.40000001    2.51999998
   12.47833252  110.43900299    0.40000001    2.51999998
   12.48166656  103.82900238    0.40000001    2.51999998
   12.48472214  108.52899933    0.40000001    2.51999998
   12.48805618  111.38500214    0.40000001    2.51999998
   12.48861122  108.85299683    0.40000001    2.51999998
   12.49472237  108.85299683    0.40000001    2.53999996
   12.49888897  122.14399719    0.38000000    2.51999998
   12.50194454  118.78299713    0.38000000    2.51999998
   12.50527763  125.44999695    0.38000000    2.51999998
   12.50833321  116.68599701    0.38000000    2.51999998
   12.51166630  114.27500153    0.40000001    2.53999996
   12.51500034  100.94699860    0.38000000    2.53999996
   12.51805496   97.79779816    0.38000000    2.51999998
   12.52138901  111.14800262    0.40000001    2.53999996
   12.52194405  106.76399994    0.40000001    2.53999996
   12.52472210  114.06199646    0.38000000    2.53999996
   12.52805519  103.75099945    0.38000000    2.53999996
   12.53138828   96.12249756    0.40000001    2.53999996
   12.53750038   96.12249756    0.38000000    2.55999994
   12.54166698  103.79900360    0.38000000    2.55999994
   12.54472256  101.22499847    0.38000000    2.53999996
   12.54805565  106.23300171    0.40000001    2.53999996
   12.55138874  106.50599670    0.40000001    2.53999996
   12.55444431   99.73590088    0.40000001    2.53999996
   12.55527782  103.30300140    0.40000001    2.53999996
   12.55805588  104.37599945    0.40000001    2.53999996
   12.56138897  109.80400085    0.40000001    2.53999996
   12.56472206  112.04799652    0.40000001    2.53999996
   12.56777763  116.76100159    0.40000001    2.53999996
   12.57111073  115.68399811    0.40000001    2.53999996
   12.57416630  103.31099701    0.40000001    2.53999996
   12.57999992  103.31099701    0.41999999    2.53999996
   12.58416653  108.02500153    0.41999999    2.53999996
   12.58749962  104.62400055    0.41999999    2.53999996
   12.58861065  114.96299744    0.41999999    2.53999996
   12.59111118  122.85299683    0.40000001    2.53999996
   12.59444427  110.11100006    0.41999999    2.53999996
   12.59777737  104.33699799    0.40000001    2.53999996
   12.60083389  112.54799652    0.40000001    2.55999994
   12.60416698  118.50399780    0.40000001    2.55999994
   12.60722256  105.16300201    0.40000001    2.55999994
   12.61055565  106.49400330    0.41999999    2.53999996
   12.61388969  115.27400208    0.41999999    2.55999994
   12.61694431  121.70600128    0.41999999    2.53999996
   12.62305546  121.70600128    0.41999999    2.55999994
   12.62722206  112.41200256    0.40000001    2.55999994
   12.63027763  118.97000122    0.40000001    2.55999994
   12.63361073  107.27200317    0.40000001    2.55999994
   12.63666630  105.24600220    0.40000001    2.55999994
   12.64000034  106.23500061    0.40000001    2.55999994
   12.64333344  106.86599731    0.40000001    2.55999994
   12.64638901  108.23600006    0.40000001    2.55999994
   12.64972210  111.80000305    0.40000001    2.55999994
   12.65305519  101.40299988    0.40000001    2.55999994
   12.65527725  117.37500000    0.40000001    2.55999994
   12.65638828  107.22000122    0.40000001    2.55999994
   12.65972137  101.27999878    0.40000001    2.57999992
   12.66583252  101.27999878    0.40000001    2.55999994
   12.67000008  100.62999725    0.40000001    2.57999992
   12.67333412  100.45400238    0.40000001    2.55999994
   12.67638874  102.69899750    0.40000001    2.55999994
   12.67972279   95.46990204    0.40000001    2.55999994
   12.68277836  104.22499847    0.41999999    2.55999994
   12.68611145  114.01300049    0.41999999    2.55999994
   12.68861103  108.16500092    0.44000000    2.55999994
   12.68972206   99.50589752    0.44000000    2.55999994
   12.69305515  103.78299713    0.44000000    2.55999994
   12.69638920  107.52300262    0.44000000    2.55999994
   12.69944477  106.09100342    0.44000000    2.55999994
   12.70277786   98.16799927    0.44000000    2.55999994
   12.70861053   98.16799927    0.46000001    2.57999992
   12.71277714  111.68399811    0.47999999    2.57999992
   12.71611118  107.38800049    0.47999999    2.57999992
   12.71916580  102.61000061    0.46000001    2.57999992
   12.72194386  105.07099915    0.46000001    2.57999992
   12.72277737   97.72090149    0.46000001    2.57999992
   12.72611046  103.20999908    0.47999999    2.57999992
   12.72944355  103.16300201    0.47999999    2.57999992
   12.73249912  104.69000244    0.47999999    2.57999992
   12.73583317  102.65200043    0.47999999    2.57999992
   12.73888874  104.02500153    0.46000001    2.57999992
   12.74222279  101.69799805    0.46000001    2.57999992
   12.74555588  104.61399841    0.46000001    2.57999992
   12.75138855  104.61399841    0.44000000    2.57999992
   12.75555515  107.69899750    0.44000000    2.59999990
   12.75888920  113.05599976    0.44000000    2.57999992
   12.76222229  112.71399689    0.46000001    2.59999990
   12.76527786  105.47000122    0.44000000    2.57999992
   12.76861095  102.67600250    0.44000000    2.57999992
   12.77166653  108.62300110    0.44000000    2.59999990
   12.77499962  103.37899780    0.44000000    2.57999992
   12.77833271  109.05500031    0.44000000    2.59999990
   12.78138828  114.79299927    0.44000000    2.57999992
   12.78472233  121.21099854    0.44000000    2.57999992
   12.78805637  101.76699829    0.44000000    2.59999990
   12.78861141  108.54499817    0.44000000    2.57999992
   12.79444504  108.54499817    0.44000000    2.59999990
   12.79861164  120.72799683    0.44000000    2.59999990
   12.80166721  118.22899628    0.44000000    2.59999990
   12.80500031  109.40599823    0.44000000    2.59999990
   12.80805588  100.70800018    0.44000000    2.59999990
   12.81138897  108.01999664    0.44000000    2.59999990
   12.81472206  114.95700073    0.44000000    2.57999992
   12.81777763  115.87500000    0.44000000    2.59999990
   12.82111073  133.65100098    0.44000000    2.57999992
   12.82194424  137.44900513    0.44000000    2.57999992
   12.82444477  119.04599762    0.44000000    2.59999990
   12.82777786  136.72799683    0.44000000    2.59999990
   12.83111095  102.56199646    0.44000000    2.59999990
   12.83722210  102.56199646    0.41999999    2.59999990
   12.84138870  107.62000275    0.41999999    2.59999990
   12.84444427   97.31220245    0.41999999    2.59999990
   12.84777737  118.89399719    0.41999999    2.59999990
   12.85111141  115.53800201    0.41999999    2.59999990
   12.85416698  107.20700073    0.41999999    2.59999990
   12.85527802  120.17500305    0.41999999    2.59999990
   12.85777855  103.42900085    0.41999999    2.59999990
   12.86111164  115.35199738    0.41999999    2.59999990
   12.86444473  107.62100220    0.41999999    2.61999989
   12.86750031  118.46199799    0.41999999    2.61999989
   12.87083340  106.07599640    0.41999999    2.59999990
   12.87416649  124.16400146    0.41999999    2.59999990
   12.88000011  124.16400146    0.41999999    2.59999990
   12.88416672  122.08799744    0.41999999    2.59999990
   12.88749981  109.61499786    0.41999999    2.61999989
   12.88861084  122.31300354    0.41999999    2.61999989
   12.89083290  112.67199707    0.41999999    2.61999989
   12.89416695  144.86700439    0.41999999    2.61999989
   12.89750004  119.38999939    0.44000000    2.61999989
   12.90055561  111.29100037    0.41999999    2.61999989
   12.90388870  123.72699738    0.44000000    2.61999989
   12.90722179  126.61599731    0.44000000    2.61999989
   12.91027737  122.41500092    0.44000000    2.61999989
   12.91361046  118.16799927    0.41999999    2.59999990
   12.91666698  116.65499878    0.44000000    2.61999989
   12.92277813  116.65499878    0.41999999    2.59999990
   12.92694473  109.47499847    0.44000000    2.59999990
   12.93027782  127.32800293    0.44000000    2.61999989
   12.93361092  129.73800659    0.41999999    2.61999989
   12.93666649  121.08300018    0.44000000    2.61999989
   12.94000053  118.13300323    0.44000000    2.61999989
   12.94305515  119.05799866    0.44000000    2.59999990
   12.94638920  118.83200073    0.44000000    2.61999989
   12.94972229  114.04799652    0.41999999    2.61999989
   12.95277786  129.01100159    0.41999999    2.61999989
   12.95527744  129.96499634    0.41999999    2.61999989
   12.95666695  122.52999878    0.41999999    2.61999989
   12.95972157  133.91000366    0.41999999    2.61999989
   12.96583271  133.91000366    0.41999999    2.61999989
   12.96999931  116.50199890    0.41999999    2.61999989
   12.97305489  105.62100220    0.41999999    2.61999989
   12.97638798  118.01300049    0.40000001    2.61999989
   12.97944355  114.34300232    0.40000001    2.61999989
   12.98277760  105.68399811    0.40000001    2.61999989
   12.98611164  116.24299622    0.40000001    2.64000010
   12.98861122  118.72399902    0.38000000    2.64000010
   12.98972225  108.64099884    0.38000000    2.61999989
   12.99277782  118.63899994    0.38000000    2.61999989
   12.99611092  109.44699860    0.38000000    2.61999989
   12.99916649  119.40200043    0.40000001    2.64000010
   13.00249958  128.30599976    0.40000001    2.64000010
   13.00861073  128.30599976    0.38000000    2.61999989
   13.01277733  124.83799744    0.40000001    2.61999989
   13.01583290  122.51899719    0.40000001    2.61999989
   13.01916599  139.50199890    0.40000001    2.61999989
   13.02194405  129.94400024    0.40000001    2.61999989
   13.02305508  112.25800323    0.40000001    2.61999989
   13.02611065  142.96099854    0.40000001    2.61999989
   13.02944374  118.25599670    0.41999999    2.61999989
   13.03249931  131.80400085    0.40000001    2.61999989
   13.03583336  129.11799622    0.41999999    2.64000010
   13.03916740  132.31199646    0.40000001    2.64000010
   13.04222298  138.72099304    0.40000001    2.64000010
   13.04555607  129.65499878    0.40000001    2.64000010
   13.05138874  129.65499878    0.40000001    2.61999989
   13.05555534  154.89399719    0.40000001    2.64000010
   13.05888939  162.21000671    0.38000000    2.61999989
   13.06194496  144.17500305    0.38000000    2.64000010
   13.06527805  175.11099243    0.38000000    2.64000010
   13.06861115  166.37399292    0.40000001    2.64000010
   13.07166672  148.58999634    0.38000000    2.64000010
   13.07499981  161.85800171    0.38000000    2.64000010
   13.07805538  164.80000305    0.40000001    2.64000010
   13.08138847  182.13499451    0.40000001    2.64000010
   13.08472157  175.50999451    0.40000001    2.64000010
   13.08777714  203.25300598    0.40000001    2.64000010
   13.08861065  211.14900208    0.40000001    2.64000010
   13.09416676  211.14900208    0.40000001    2.64000010
   13.09833336  253.29100037    0.40000001    2.64000010
   13.10166740  248.15600586    0.40000001    2.64000010
   13.10500050  230.44000244    0.38000000    2.64000010
   13.10805607  220.45199585    0.38000000    2.64000010
   13.11138916  197.76499939    0.38000000    2.64000010
   13.11472225  191.14100647    0.38000000    2.64000010
   13.11777782  174.80200195    0.38000000    2.64000010
   13.12111092  174.35000610    0.38000000    2.64000010
   13.12194443  168.18899536    0.38000000    2.64000010
   13.12472248  149.81700134    0.36000001    2.64000010
   13.12777805  151.26400757    0.38000000    2.64000010
   13.13111115  148.47000122    0.36000001    2.66000009
   13.13722229  148.47000122    0.36000001    2.66000009
   13.14138889  150.20599365    0.36000001    2.66000009
   13.14444447  138.16999817    0.38000000    2.64000010
   13.14777756  140.71600342    0.38000000    2.66000009
   13.15083313  134.80999756    0.36000001    2.64000010
   13.15416622  138.16900635    0.36000001    2.66000009
   13.15527725  129.07600403    0.36000001    2.64000010
   13.15777779  161.77900696    0.38000000    2.64000010
   13.16083336  135.60899353    0.36000001    2.66000009
   13.16416645  130.29100037    0.36000001    2.66000009
   13.16722298  120.98000336    0.36000001    2.66000009
   13.17055607  128.40400696    0.36000001    2.66000009
   13.17388916  128.66000366    0.36000001    2.64000010
   13.18000031  128.66000366    0.36000001    2.66000009
   13.18416691  126.77600098    0.36000001    2.66000009
   13.18722248  125.63899994    0.36000001    2.66000009
   13.18861103  119.87100220    0.38000000    2.66000009
   13.19111156  105.30500031    0.36000001    2.66000009
   13.19416714  115.55200195    0.36000001    2.64000010
   13.19750023  121.54900360    0.34000000    2.66000009
   13.20083332  123.65899658    0.34000000    2.67000008
   13.20388889  119.37599945    0.36000001    2.66000009
   13.20722198  123.04499817    0.34000000    2.66000009
   13.21055508  135.68499756    0.36000001    2.66000009
   13.21361065  121.24400330    0.34000000    2.67000008
   13.21694374  114.52700043    0.34000000    2.67000008
   13.22277737  114.52700043    0.31999999    2.66000009
   13.22694397  129.52799988    0.34000000    2.66000009
   13.23027706  107.57700348    0.36000001    2.66000009
   13.23333359  120.71099854    0.34000000    2.66000009
   13.23666668  119.83599854    0.34000000    2.66000009
   13.24000072  117.06500244    0.36000001    2.67000008
   13.24305534  107.98300171    0.36000001    2.66000009
   13.24638939  116.55999756    0.36000001    2.66000009
   13.24944496  113.14399719    0.36000001    2.66000009
   13.25277805  105.80000305    0.36000001    2.66000009
   13.25527763  112.41899872    0.38000000    2.66000009
   13.25638866   98.24939728    0.38000000    2.66000009
   13.25944424   97.37539673    0.38000000    2.66000009
   13.26555538   97.37539673    0.36000001    2.66000009
   13.26972198  104.33699799    0.36000001    2.66000009
   13.27305508   97.94300079    0.36000001    2.66000009
   13.27638817  100.93699646    0.36000001    2.66000009
   13.27944374  106.37200165    0.36000001    2.67000008
   13.28277779  100.92199707    0.36000001    2.66000009
   13.28611183  104.16300201    0.36000001    2.66000009
   13.28861141  110.79299927    0.38000000    2.66000009
   13.28972244  127.23200226    0.36000001    2.66000009
   13.29277802  119.61599731    0.36000001    2.67000008
   13.29611111  106.91899872    0.36000001    2.66000009
   13.29916668  106.21299744    0.36000001    2.66000009
   13.30249977  120.58100128    0.34000000    2.66000009
   13.30861092  120.58100128    0.36000001    2.66000009
   13.31277752  110.97299957    0.34000000    2.67000008
   13.31583309  110.66100311    0.34000000    2.66000009
   13.31916618  119.78800201    0.34000000    2.67000008
   13.32194424  119.98200226    0.34000000    2.67000008
   13.32277775  103.57499695    0.34000000    2.67000008
   13.32583332  107.76100159    0.34000000    2.66000009
   13.32916641  104.69000244    0.34000000    2.67000008
   13.33222198  110.59300232    0.34000000    2.66000009
   13.33555508  112.43099976    0.34000000    2.66000009
   13.33888817  104.94599915    0.34000000    2.67000008
   13.34194374  107.10600281    0.34000000    2.67000008
   13.34527779  101.83100128    0.34000000    2.67000008
   13.35138893  101.83100128    0.34000000    2.69000006
   13.35555553  104.70800018    0.34000000    2.67000008
   13.35861111  111.05300140    0.36000001    2.67000008
   13.36194515  114.81199646    0.38000000    2.67000008
   13.36527824  107.48000336    0.36000001    2.67000008
   13.36833382  106.16799927    0.38000000    2.67000008
   13.37166691  113.18299866    0.38000000    2.67000008
   13.37500000  105.49099731    0.38000000    2.67000008
   13.37805557   99.43949890    0.38000000    2.67000008
   13.38138866  104.69899750    0.38000000    2.67000008
   13.38444424  102.48300171    0.38000000    2.67000008
   13.38777733  109.77600098    0.38000000    2.67000008
   13.38861084  117.08699799    0.38000000    2.67000008
   13.39416695  117.08699799    0.41999999    2.67000008
   13.39833355   96.77770233    0.41999999    2.66000009
   13.40166664  103.29900360    0.44000000    2.67000008
   13.40472221  116.29199982    0.44000000    2.67000008
   13.42222214  109.76200104    0.40000001    2.67000008
   13.42472267  100.12400055    0.41999999    2.67000008
   13.42805576   96.99250031    0.38000000    2.69000006
   13.43111134  127.26799774    0.40000001    2.67000008
   13.43722248  127.26799774    0.40000001    2.67000008
   13.44138908  115.51999664    0.38000000    2.67000008
   13.44444466  108.77100372    0.40000001    2.67000008
   13.44777775  110.16000366    0.40000001    2.67000008
   13.45111084  113.26300049    0.38000000    2.67000008
   13.45416641  109.11199951    0.40000001    2.69000006
   13.45555496  107.05100250    0.38000000    2.67000008
   13.45805550  114.85099792    0.38000000    2.67000008
   13.46138859  108.26899719    0.36000001    2.67000008
   13.46444416  111.74400330    0.38000000    2.67000008
   13.46777725  113.88800049    0.36000001    2.69000006
   13.47083282  109.98500061    0.38000000    2.69000006
   13.47416592  105.46199799    0.36000001    2.67000008
   13.47999954  105.46199799    0.36000001    2.69000006
   13.48416710  103.75900269    0.36000001    2.69000006
   13.48750019  108.49600220    0.36000001    2.69000006
   13.48888874  102.93099976    0.38000000    2.69000006
   13.49111176  109.54100037    0.38000000    2.69000006
   13.49444485  108.67700195    0.38000000    2.67000008
   13.49750042  113.69999695    0.40000001    2.69000006
   13.50083351  115.70099640    0.40000001    2.69000006
   13.50388908  107.62599945    0.41999999    2.67000008
   13.50722218  111.10600281    0.41999999    2.67000008
   13.51055527  108.10199738    0.41999999    2.67000008
   13.51361084  110.42600250    0.41999999    2.69000006
   13.51694393  106.57900238    0.41999999    2.67000008
   13.52277756  106.57900238    0.44000000    2.69000006
   13.52694416  126.30400085    0.46000001    2.67000008
   13.53027725  106.47499847    0.47999999    2.69000006
   13.53333378  104.30300140    0.51999998    2.67000008
   13.53666687  105.20700073    0.51999998    2.67000008
   13.54000092   98.40090179    0.52999997    2.67000008
   13.54305553  108.31999969    0.51999998    2.67000008
   13.54638958  113.80100250    0.52999997    2.69000006
   13.54972267  114.28900146    0.55000001    2.69000006
   13.55277824  113.25900269    0.56999999    2.67000008
   13.55555534  104.49700165    0.56999999    2.69000006
   13.55638885  111.95500183    0.56999999    2.69000006
   13.55972195  112.13300323    0.58999997    2.67000008
   13.56583309  112.13300323    0.61000001    2.69000006
   13.56999969  111.14499664    0.61000001    2.67000008
   13.57305527  106.23100281    0.58999997    2.67000008
   13.57638836  107.20300293    0.58999997    2.69000006
   13.57944393  104.71199799    0.55000001    2.69000006
   13.58277798  108.49500275    0.55000001    2.69000006
   13.58611107  113.57800293    0.56999999    2.69000006
   13.58888817  112.58200073    0.56999999    2.67000008
   13.58972168  111.95500183    0.56999999    2.69000006
   13.59305477  116.83899689    0.56999999    2.67000008
   13.59611034  108.69300079    0.55000001    2.69000006
   13.59944439  117.86399841    0.55000001    2.69000006
   13.60249996  112.65599823    0.55000001    2.67000008
   13.60861111  112.65599823    0.52999997    2.69000006
   13.61277771  112.49199677    0.52999997    2.69000006
   13.61583328  106.25800323    0.51999998    2.69000006
   13.61916637   98.76950073    0.51999998    2.69000006
   13.62222195  104.03500366    0.51999998    2.69000006
   13.62277794  104.31099701    0.51999998    2.69000006
   13.62611103  103.44000244    0.50000000    2.69000006
   13.62944412  105.01100159    0.51999998    2.69000006
   13.63249969  114.78500366    0.50000000    2.71000004
   13.63583279   93.15100098    0.50000000    2.69000006
   13.63888836  108.62100220    0.50000000    2.69000006
   13.64222240  113.66600037    0.50000000    2.71000004
   13.64555550  108.12300110    0.47999999    2.69000006
   13.65138817  108.12300110    0.50000000    2.69000006
   13.65555477  106.37500000    0.50000000    2.69000006
   13.65611076  116.87500000    0.50000000    2.69000006
   13.65944386  111.38800049    0.47999999    2.69000006
   13.66249943  105.05999756    0.47999999    2.69000006
   13.66583252  104.23300171    0.47999999    2.69000006
   13.66888905  108.33300018    0.47999999    2.69000006
   13.67222214  109.38899994    0.46000001    2.69000006
   13.67555618   95.76760101    0.47999999    2.69000006
   13.67861176   96.48210144    0.47999999    2.69000006
   13.68194485  102.09600067    0.47999999    2.69000006
   13.68527794  110.69300079    0.50000000    2.71000004
   13.68833351  102.38999939    0.51999998    2.69000006
   13.68944454  107.87300110    0.51999998    2.69000006
   13.69416714  107.87300110    0.52999997    2.69000006
   13.69833374  111.87799835    0.55000001    2.69000006
   13.70166683  102.21700287    0.55000001    2.69000006
   13.70472240  111.31400299    0.55000001    2.69000006
   13.70805550  105.75399780    0.55000001    2.69000006
   13.71138859  101.09999847    0.56999999    2.69000006
   13.71444416  110.78399658    0.56999999    2.69000006
   13.71777725  105.01499939    0.56999999    2.69000006
   13.72111034  104.47899628    0.56999999    2.69000006
   13.72277737  109.14499664    0.55000001    2.67000008
   13.72472191  100.81999969    0.55000001    2.69000006
   13.72777748   98.41699982    0.55000001    2.69000006
   13.73111057  105.75800323    0.52999997    2.71000004
   13.73722267  105.75800323    0.52999997    2.69000006
   13.74138927  106.81099701    0.51999998    2.71000004
   13.74444485  100.42299652    0.52999997    2.71000004
   13.74777794  104.56900024    0.51999998    2.69000006
   13.75083351  111.51899719    0.51999998    2.69000006
   13.75416660  111.50900269    0.47999999    2.69000006
   13.75611115  116.71299744    0.46000001    2.71000004
   13.75777817  115.92199707    0.46000001    2.71000004
   13.76083374  117.33699799    0.46000001    2.69000006
   13.76416683  112.11599731    0.46000001    2.69000006
   13.76722240  108.39600372    0.46000001    2.71000004
   13.77055550  116.57700348    0.46000001    2.71000004
   13.77388859  103.76300049    0.46000001    2.71000004
   13.77999973  103.76300049    0.46000001    2.71000004
   13.78416729  109.93499756    0.46000001    2.69000006
   13.78722286  120.51699829    0.46000001    2.69000006
   13.78944492  116.54699707    0.46000001    2.69000006
   13.79111195  113.07399750    0.46000001    2.69000006
   13.79416752  118.95899963    0.46000001    2.71000004
   13.79750061  116.57499695    0.44000000    2.71000004
   13.80083370  114.23000336    0.44000000    2.69000006
   13.80388927  114.06600189    0.44000000    2.69000006
   13.80722237  114.20099640    0.41999999    2.71000004
   13.81027794  119.12699890    0.41999999    2.71000004
   13.81361103  116.06099701    0.41999999    2.71000004
   13.81694412  111.55899811    0.41999999    2.71000004
   13.82277775  111.55899811    0.40000001    2.71000004
   13.82694435  125.87699890    0.40000001    2.71000004
   13.83027744  120.21399689    0.38000000    2.71000004
   13.83333302  117.43599701    0.38000000    2.71000004
   13.83666611  119.41500092    0.40000001    2.71000004
   13.84000015  125.65599823    0.40000001    2.71000004
   13.84305477  108.11599731    0.38000000    2.71000004
   13.84638882  122.77500153    0.38000000    2.71000004
   13.84972191  123.64299774    0.40000001    2.71000004
   13.85277843  109.04599762    0.40000001    2.71000004
   13.85611153  118.70999908    0.38000000    2.71000004
   13.85638905  119.40499878    0.38000000    2.71000004
   13.85972214  113.23000336    0.40000001    2.69000006
   13.86555576  113.23000336    0.40000001    2.71000004
   13.86972237  105.65499878    0.40000001    2.71000004
   13.87305546  124.91500092    0.40000001    2.71000004
   13.87638855  116.31199646    0.40000001    2.71000004
   13.87944412  113.46099854    0.41999999    2.71000004
   13.88277817  113.48699951    0.41999999    2.71000004
   13.88583279  107.98300171    0.41999999    2.71000004
   13.88916683  112.62400055    0.41999999    2.71000004
   13.88972187  107.01899719    0.41999999    2.71000004
   13.89277744  120.99199677    0.41999999    2.71000004
   13.89611053  115.45999908    0.41999999    2.71000004
   13.89916611  109.40799713    0.41999999    2.71000004
   13.90249920  114.75599670    0.41999999    2.71000004
   13.90861034  114.75599670    0.41999999    2.71000004
   13.91249943  109.59600067    0.40000001    2.71000004
   13.91583252  114.04599762    0.40000001    2.71000004
   13.91916656  114.46700287    0.40000001    2.71000004
   13.92222214  109.23300171    0.40000001    2.73000002
   13.92305565  112.81999969    0.40000001    2.73000002
   13.92583370  114.55100250    0.38000000    2.71000004
   13.92916679  108.57599640    0.38000000    2.71000004
   13.93222237  116.76799774    0.38000000    2.71000004
   13.93555546  110.15499878    0.38000000    2.71000004
   13.93888855  124.74800110    0.36000001    2.71000004
   13.94194412  119.08899689    0.36000001    2.71000004
   13.94527817  125.76000214    0.36000001    2.71000004
   13.95138836  125.76000214    0.34000000    2.71000004
   13.95555496  120.19300079    0.34000000    2.73000002
   13.95638847  117.94999695    0.34000000    2.73000002
   13.95888901  111.47799683    0.34000000    2.73000002
   13.96222210  123.43800354    0.34000000    2.71000004
   13.96527767  122.22100067    0.34000000    2.73000002
   13.96861076  121.68900299    0.34000000    2.71000004
   13.97194386  109.06999969    0.36000001    2.71000004
   13.97499943  113.30500031    0.36000001    2.73000002
   13.97833252  110.85700226    0.36000001    2.73000002
   13.98166656  111.75299835    0.36000001    2.73000002
   13.98472214  121.37500000    0.40000001    2.73000002
   13.98805618  117.10800171    0.40000001    2.73000002
   13.99000072  132.57099915    0.40000001    2.71000004
   13.99416733  132.57099915    0.40000001    2.71000004
   13.99833393  121.26100159    0.41999999    2.73000002
   14.00166702  118.82700348    0.41999999    2.71000004
   14.00500011  120.90100098    0.40000001    2.71000004
   14.00805569  118.46600342    0.40000001    2.71000004
   14.01138878  125.78600311    0.40000001    2.71000004
   14.01472187  124.21900177    0.40000001    2.73000002
   14.01777744  103.92500305    0.40000001    2.73000002
   14.02111053  131.17799377    0.41999999    2.73000002
   14.02333355  120.86000061    0.41999999    2.73000002
   14.02472210  125.44999695    0.41999999    2.73000002
   14.02805519  116.06099701    0.41999999    2.71000004
   14.03111076  122.77400208    0.41999999    2.71000004
   14.03694534  122.77400208    0.40000001    2.73000002
   14.04111195  118.60399628    0.40000001    2.73000002
   14.04444504  124.66200256    0.38000000    2.73000002
   14.04750061  132.66499329    0.38000000    2.73000002
   14.05083370   99.73570251    0.40000001    2.73000002
   14.05416679  125.89900208    0.40000001    2.71000004
   14.05666733  107.03700256    0.40000001    2.71000004
   14.05749989  115.18499756    0.40000001    2.71000004
   14.06083393  126.07499695    0.40000001    2.73000002
   14.06388950  123.86900330    0.40000001    2.73000002
   14.06722260  140.10699463    0.40000001    2.73000002
   14.07055569  142.30400085    0.40000001    2.73000002
   14.07361126  125.29599762    0.41999999    2.73000002
   14.07999992  125.29599762    0.44000000    2.71000004
   14.08388901  126.68199921    0.44000000    2.73000002
   14.08722210  131.83099365    0.44000000    2.73000002
   14.09000015  116.02200317    0.47999999    2.73000002
   14.09083271  115.88600159    0.47999999    2.73000002
   14.09416676  135.98599243    0.63000000    2.73000002
   14.09722233  118.29199982    0.58999997    2.73000002
   14.10055637  135.87500000    0.55000001    2.73000002
   14.10388947  132.67399597    0.44000000    2.73000002
   14.10694504  128.84100342    0.44000000    2.73000002
   14.11027813  126.95099640    0.44000000    2.73000002
   14.11361122  135.74299622    0.52999997    2.73000002
   14.11666679  119.92099762    0.47999999    2.71000004
   14.12277794  119.92099762    0.47999999    2.73000002
   14.12694454  123.31300354    0.46000001    2.73000002
   14.13000011  126.07099915    0.46000001    2.73000002
   14.13333321  123.66300201    0.44000000    2.73000002
   14.13666630  121.95899963    0.41999999    2.73000002
   14.13972187  115.32199860    0.44000000    2.73000002
   14.14305496  119.45099640    0.50000000    2.73000002
   14.14611053  116.07099915    0.44000000    2.73000002
   14.14944458  113.71099854    0.44000000    2.73000002
   14.15444374  124.82399750    0.41999999    2.73000002
   14.15777779  131.23899841    0.40000001    2.75000000
   14.15833282  117.69799805    0.40000001    2.73000002
   14.16138840  135.06900024    0.40000001    2.75000000
   14.16555500  135.06900024    0.40000001    2.73000002
   14.16972256  128.92300415    0.40000001    2.73000002
   14.17305565  113.99299622    0.40000001    2.73000002
   14.17611122  126.19999695    0.40000001    2.73000002
   14.17944431  120.28099823    0.38000000    2.73000002
   14.18277836  103.79199982    0.38000000    2.73000002
   14.18583298  118.93599701    0.38000000    2.73000002
   14.18916702  104.55799866    0.36000001    2.73000002
   14.19111156  109.47799683    0.46000001    2.73000002
   14.19305515  129.70599365    0.46000001    2.73000002
   14.19638920  127.37100220    0.44000000    2.73000002
   14.19972229  119.30000305    0.40000001    2.73000002
   14.20277786  114.65100098    0.40000001    2.73000002
   14.20833302  114.65100098    0.40000001    2.75000000
   14.21249962  130.46299744    0.41999999    2.73000002
   14.21583271  112.52300262    0.38000000    2.75000000
   14.21888828  148.94099426    0.38000000    2.75000000
   14.22222137  113.94100189    0.38000000    2.75000000
   14.22472191  130.57499695    0.38000000    2.75000000
   14.22583294  112.46299744    0.38000000    2.75000000
   14.22916603  125.35099792    0.40000001    2.73000002
   14.23249912  119.15100098    0.40000001    2.75000000
   14.23555565  128.58500671    0.40000001    2.75000000
   14.23888874  144.14399719    0.40000001    2.75000000
   14.24194431  111.68900299    0.41999999    2.75000000
   14.24527836  124.38700104    0.41999999    2.75000000
   14.25138855  124.38700104    0.40000001    2.73000002
   14.25527763  119.50000000    0.40000001    2.73000002
   14.25805569  105.65699768    0.40000001    2.73000002
   14.25888920  128.16900635    0.40000001    2.73000002
   14.26222229  125.58999634    0.36000001    2.75000000
   14.26555538  155.87100220    0.38000000    2.73000002
   14.26861095  142.27999878    0.38000000    2.73000002
   14.27194405  110.11399841    0.40000001    2.73000002
   14.27499962  121.71099854    0.40000001    2.73000002
   14.27833271  123.69100189    0.40000001    2.73000002
   14.28166676  113.58899689    0.38000000    2.73000002
   14.28472233  128.93800354    0.36000001    2.75000000
   14.28805637  119.74700165    0.38000000    2.75000000
   14.29444504  119.74700165    0.38000000    2.73000002
   14.29861164  128.16099548    0.38000000    2.75000000
   14.30166721  122.05400085    0.38000000    2.75000000
   14.30500031  132.35800171    0.36000001    2.75000000
   14.30805588  124.58999634    0.38000000    2.75000000
   14.31138897  115.60900116    0.38000000    2.75000000
   14.31444454  123.12300110    0.38000000    2.73000002
   14.31777763  109.19899750    0.38000000    2.73000002
   14.32111073  114.86000061    0.38000000    2.75000000
   14.32416630  116.09899902    0.38000000    2.75000000
   14.32499981  103.83499908    0.38000000    2.75000000
   14.32777786  114.60900116    0.40000001    2.75000000
   14.33083344  111.56099701    0.38000000    2.75000000
   14.33694458  111.56099701    0.36000001    2.73000002
   14.34111118  118.33100128    0.38000000    2.75000000
   14.34444427  109.09100342    0.40000001    2.75000000
   14.34749985  118.69300079    0.40000001    2.75000000
   14.35083389  116.91200256    0.38000000    2.75000000
   14.35388947  103.09300232    0.38000000    2.75000000
   14.35722256  129.65299988    0.36000001    2.75000000
   14.35833359  110.19000244    0.36000001    2.75000000
   14.36083412  118.54199982    0.38000000    2.75000000
   14.36388969  122.67900085    0.36000001    2.75000000
   14.36722279  116.00199890    0.36000001    2.75000000
   14.37055588  121.75199890    0.36000001    2.75000000
   14.37361145  113.32800293    0.36000001    2.75000000
   14.37972260  113.32800293    0.34000000    2.75000000
   14.38388920  119.77899933    0.31999999    2.75000000
   14.38722229  135.31900024    0.31999999    2.75000000
   14.39027786  125.76100159    0.31999999    2.75000000
   14.39194393  118.31700134    0.31999999    2.75000000
   14.39416695  124.31600189    0.31999999    2.75000000
   14.39722252  128.46200562    0.30000001    2.75000000
   14.40055561  132.64599609    0.30000001    2.75000000
   14.40388870  118.00800323    0.30000001    2.75000000
   14.40694427  132.14300537    0.31999999    2.75000000
   14.41027737  138.72200012    0.44000000    2.75000000
   14.41333294  122.31800079    0.31999999    2.75000000
   14.41666698  127.49700165    0.31999999    2.75000000
   14.42277813  127.49700165    0.30000001    2.75000000
   14.44111156  131.22200012    0.31999999    2.75000000
   14.44444466  128.95599365    0.31999999    2.75000000
   14.44750023  143.53100586    0.31999999    2.75000000
   14.45083332  145.41999817    0.30000001    2.75000000
   14.45388889  153.44400024    0.30000001    2.75000000
   14.45722198  144.99400330    0.30000001    2.75000000
   14.46055508  154.63600159    0.30000001    2.75000000
   14.46583271  154.63600159    0.31999999    2.75000000
   14.46972179  155.45700073    0.31999999    2.75000000
   14.47305489  144.61399841    0.28000000    2.76999998
   14.47416592  158.53100586    0.30000001    2.75000000
   14.47666645  154.84399414    0.30000001    2.75000000
   14.47999954  164.68499756    0.28000000    2.75000000
   14.48305511  151.85099792    0.28000000    2.76999998
   14.48638916  153.31500244    0.28000000    2.75000000
   14.48972225  138.20700073    0.28000000    2.75000000
   14.49305534  139.55799866    0.28000000    2.75000000
   14.49611092  161.58999634    0.25999999    2.76999998
   14.49944496  173.65499878    0.28000000    2.76999998
   14.50249958  170.39500427    0.28000000    2.76999998
   14.50861073  170.39500427    0.28000000    2.75000000
   14.51277733  165.13099670    0.25999999    2.76999998
   14.51583290  155.04200745    0.25999999    2.75000000
   14.51916599  136.32099915    0.25999999    2.76999998
   14.52222157  160.17700195    0.25999999    2.76999998
   14.52555561  193.16799927    0.25999999    2.75000000
   14.52888870  168.72700500    0.25999999    2.76999998
   14.53194427  174.33399963    0.25999999    2.76999998
   14.53527832  159.63200378    0.25999999    2.76999998
   14.53833389  178.53399658    0.25999999    2.76999998
   14.54083347  147.03999329    0.25999999    2.76999998
   14.54194450  152.08500671    0.25999999    2.76999998
   14.54527855  153.53399658    0.25999999    2.75000000
   14.55138874  153.53399658    0.25999999    2.75000000
   14.55555534  140.93299866    0.25999999    2.76999998
   14.55888939  152.67900085    0.25999999    2.76999998
   14.56194496  147.87300110    0.25999999    2.76999998
   14.56527805  153.24299622    0.25999999    2.76999998
   14.56833363  160.06599426    0.25999999    2.76999998
   14.57166672  139.09399414    0.25999999    2.76999998
   14.57416630  158.90800476    0.28000000    2.75000000
   14.57499981  131.90699768    0.28000000    2.76999998
   14.57833290  170.85200500    0.30000001    2.76999998
   14.58138847  149.64700317    0.28000000    2.76999998
   14.58472157  149.92900085    0.28000000    2.76999998
   14.58805561  162.44599915    0.30000001    2.76999998
   14.59416676  162.44599915    0.25999999    2.76999998
   14.59833336  153.59700012    0.25999999    2.78999996
   14.60166740  139.90199280    0.25999999    2.78999996
   14.60500050  151.45500183    0.25999999    2.75000000
   14.60750008  133.74499512    0.25999999    2.75000000
   14.60833359  148.37699890    0.25999999    2.78999996
   14.61166668  115.37000275    0.25999999    2.76999998
   14.61472225  126.55200195    0.25999999    2.76999998
   14.61805534  129.50300598    0.25999999    2.76999998
   14.62138939  122.92700195    0.25999999    2.76999998
   14.62444496  132.35099792    0.25999999    2.76999998
   14.62777805  114.64700317    0.25999999    2.78999996
   14.63083363  131.46899414    0.25999999    2.76999998
   14.63722229  131.46899414    0.25999999    2.76999998
   14.64138889  126.93399811    0.25999999    2.76999998
   14.64444447  131.27499390    0.25999999    2.76999998
   14.64777756  131.29100037    0.25999999    2.76999998
   14.65083313  117.79799652    0.25999999    2.76999998
   14.65416622  139.37899780    0.25999999    2.76999998
   14.65749931  133.79699707    0.25999999    2.76999998
   14.66055489  117.51899719    0.25999999    2.76999998
   14.66388893  112.50299835    0.25999999    2.76999998
   14.66694450  128.17900085    0.25999999    2.76999998
   14.67027855  130.01400757    0.25000000    2.76999998
   14.67361164  122.36100006    0.25000000    2.76999998
   14.67416668  125.29199982    0.25000000    2.76999998
   14.68000031  125.29199982    0.25999999    2.76999998
   14.68416691  121.33200073    0.25999999    2.76999998
   14.68722248  119.39700317    0.25999999    2.76999998
   14.69055557  125.74800110    0.25999999    2.76999998
   14.69361115  116.88099670    0.25999999    2.76999998
   14.69694424  133.85200500    0.25999999    2.76999998
   14.70027733  117.92600250    0.25999999    2.76999998
   14.70333290  115.70600128    0.25999999    2.76999998
   14.70694447  123.64499664    0.25999999    2.76999998
   14.70749950  123.42900085    0.25999999    2.76999998
   14.71055508  144.37399292    0.25999999    2.76999998
   14.71361065  127.28600311    0.25999999    2.78999996
   14.71694374  129.19000244    0.25000000    2.76999998
   14.72277737  129.19000244    0.25999999    2.76999998
   14.72694397  124.71499634    0.25999999    2.76999998
   14.72999954  104.71299744    0.25999999    2.76999998
   14.73333359  130.65800476    0.25000000    2.76999998
   14.73666668  130.42399597    0.25999999    2.76999998
   14.73972225  130.51300049    0.25999999    2.76999998
   14.74083328  147.77699280    0.25999999    2.76999998
   14.74361134  137.18200684    0.25999999    2.76999998
   14.74666691  120.92700195    0.25000000    2.76999998
   14.75000000  123.97699738    0.25000000    2.78999996
   14.75305557  142.21800232    0.25999999    2.78999996
   14.75638866  117.74800110    0.25999999    2.75000000
   14.75972176  130.58399963    0.25000000    2.76999998
   14.76555538  130.58399963    0.25000000    2.76999998
   14.76972198  118.63400269    0.25000000    2.78999996
   14.77388859  126.37899780    0.25000000    2.76999998
   14.77444458  110.25199890    0.25000000    2.76999998
   14.77750015  126.57099915    0.25000000    2.78999996
   14.78083324  138.76800537    0.25000000    2.78999996
   14.78388977  139.24200439    0.25000000    2.78999996
   14.88305569   -1.00000000   -1.00000000   -1.00000000
   15.21999931   -1.00000000   -1.00000000   -1.00000000
   15.46222210   -1.00000000   -1.00000000   -1.00000000
   15.66638851   74.09449768    0.23000000    2.80999994
   15.66972256  133.29400635    0.23000000    2.78999996
   15.67305565  129.84800720    0.23000000    2.80999994
   15.67611122  146.55200195    0.23000000    2.80999994
   15.67944431  141.57000732    0.20999999    2.78999996
   15.68249989  129.82600403    0.23000000    2.80999994
   15.68666649  129.82600403    0.20999999    2.80999994
   15.69083309  109.26799774    0.20999999    2.80999994
   15.69416714  118.27200317    0.23000000    2.80999994
   15.69722271  114.16899872    0.23000000    2.80999994
   15.69972229  116.11799622    0.23000000    2.80999994
   15.70083332  129.27499390    0.23000000    2.80999994
   15.70416641  123.12500000    0.23000000    2.80999994
   15.70722198  131.15199280    0.23000000    2.80999994
   15.71055508   91.42089844    0.23000000    2.80999994
   15.71361065  134.97099304    0.23000000    2.80999994
   15.71694374  131.81799316    0.23000000    2.80999994
   15.72027779  122.78800201    0.23000000    2.80999994
   15.72333336  122.77100372    0.23000000    2.80999994
   15.72972202  122.77100372    0.23000000    2.80999994
   15.73361111  122.07099915    0.23000000    2.80999994
   15.73694515  105.10700226    0.23000000    2.80999994
   15.74027824   94.13089752    0.23000000    2.80999994
   15.74361134  115.18499756    0.23000000    2.80999994
   15.74666691  117.29000092    0.23000000    2.80999994
   15.75000000  125.83300018    0.23000000    2.80999994
   15.75333309  106.23999786    0.25000000    2.80999994
   15.75638866  120.27999878    0.23000000    2.80999994
   15.75972176  121.50399780    0.23000000    2.80999994
   15.76305580  123.06500244    0.23000000    2.80999994
   15.76611137  108.80100250    0.23000000    2.80999994
   15.76666641  114.36199951    0.23000000    2.80999994
   15.77250004  114.36199951    0.23000000    2.80999994
   15.77666664  144.31199646    0.23000000    2.80999994
   15.77972221  110.88999939    0.23000000    2.80999994
   15.78305531  113.90599823    0.23000000    2.80999994
   15.78638935  115.16100311    0.23000000    2.80999994
   15.78972244  109.48500061    0.23000000    2.80999994
   15.79277802  116.22799683    0.23000000    2.80999994
   15.79611111  115.74199677    0.23000000    2.80999994
   15.79916668  114.26000214    0.23000000    2.82999992
   15.80000019  125.09700012    0.23000000    2.82999992
   15.80305576  121.64199829    0.23000000    2.80999994
   15.80611134  118.45500183    0.23000000    2.80999994
   15.80944443  109.44400024    0.23000000    2.80999994
   15.81527805  109.44400024    0.23000000    2.80999994
   15.81944466  100.94400024    0.23000000    2.80999994
   15.82277775  127.40299988    0.23000000    2.80999994
   15.82583332  126.66999817    0.23000000    2.80999994
   15.82916641  118.90799713    0.23000000    2.80999994
   15.83222198  123.17600250    0.23000000    2.80999994
   15.83333302  143.63999939    0.23000000    2.80999994
   15.83611107  120.35900116    0.23000000    2.80999994
   15.83916664  128.54800415    0.23000000    2.80999994
   15.84249973  128.24699402    0.23000000    2.80999994
   15.84583282  104.12899780    0.25000000    2.80999994
   15.84888840  130.93299866    0.23000000    2.80999994
   15.85222244  124.32099915    0.23000000    2.80999994
   15.85805607  124.32099915    0.23000000    2.80999994
   15.86222267  129.63999939    0.23000000    2.82999992
   15.86555576  128.13000488    0.23000000    2.82999992
   15.86666679  111.05300140    0.23000000    2.80999994
   15.86916637  115.37999725    0.23000000    2.80999994
   15.87222195  126.50599670    0.23000000    2.80999994
   15.87555599  114.53299713    0.23000000    2.80999994
   15.87888908  121.47699738    0.25000000    2.80999994
   15.88194466  114.33599854    0.25000000    2.80999994
   15.88527775  116.56700134    0.23000000    2.80999994
   15.88861084  113.69599915    0.23000000    2.82999992
   15.89166641  120.20899963    0.23000000    2.82999992
   15.89499950  113.10900116    0.23000000    2.80999994
   15.90083313  113.10900116    0.23000000    2.80999994
   15.90499973  117.49600220    0.23000000    2.80999994
   15.90833282  121.94699860    0.23000000    2.80999994
   15.91166592  127.90599823    0.23000000    2.82999992
   15.91472149  124.58200073    0.23000000    2.80999994
   15.91805553  116.93199921    0.23000000    2.80999994
   15.92111111  135.24099731    0.23000000    2.80999994
   15.92444515  117.64299774    0.23000000    2.80999994
   15.92777824  121.06400299    0.23000000    2.80999994
   15.93083382  137.37899780    0.25000000    2.82999992
   15.93333340  122.24800110    0.25000000    2.82999992
   15.93472195  126.96199799    0.25000000    2.82999992
   15.93805599  124.09100342    0.23000000    2.80999994
   15.94388866  124.09100342    0.23000000    2.80999994
   15.94805527  121.03199768    0.23000000    2.80999994
   15.95111084  132.80299377    0.23000000    2.82999992
   15.95444393  124.03900146    0.23000000    2.80999994
   15.95749950  124.06099701    0.23000000    2.80999994
   15.96083355  137.02200317    0.23000000    2.80999994
   15.96416664  128.29400635    0.23000000    2.82999992
   15.96666622  136.33099365    0.23000000    2.82999992
   15.96777725  137.23800659    0.23000000    2.80999994
   15.97083282  139.16999817    0.23000000    2.80999994
   15.97444439  148.74200439    0.23000000    2.80999994
   15.97777748  146.91999817    0.25000000    2.82999992
   15.98083305  133.38600159    0.25000000    2.80999994
   15.98666668  133.38600159    0.25000000    2.80999994
   15.99083328  161.65299988    0.25000000    2.80999994
   15.99388885  153.53199768    0.25000000    2.80999994
   15.99722290  199.00900269    0.25000000    2.80999994
   16.00000000  225.58500671    0.25000000    2.80999994
   16.00083351  210.99899292    0.25000000    2.80999994
   16.00388908  194.72500610    0.25000000    2.82999992
   16.00722313  164.20199585    0.25000000    2.82999992
   16.01055527  240.30799866    0.25000000    2.80999994
   16.01361084  251.08299255    0.25000000    2.80999994
   16.01694489  217.15699768    0.25000000    2.80999994
   16.02027702  209.76499939    0.25000000    2.80999994
   16.02333260  195.56100464    0.25000000    2.80999994
   16.02944374  195.56100464    0.23000000    2.80999994
   16.03361130  235.48300171    0.23000000    2.80999994
   16.03694344  252.83799744    0.23000000    2.80999994
   16.03999901  207.72099304    0.25000000    2.80999994
   16.04333305  229.68499756    0.25000000    2.80999994
   16.04666710  206.86700439    0.25000000    2.82999992
   16.04972076  192.68899536    0.25999999    2.80999994
   16.05305481  210.94000244    0.30000001    2.80999994
   16.05638885  182.31799316    0.30000001    2.80999994
   16.05944443  231.53700256    0.25999999    2.80999994
   16.06277657  207.51300049    0.25999999    2.80999994
   16.06583214  195.83799744    0.25000000    2.80999994
   16.06666756  232.31599426    0.25000000    2.80999994
   16.07222366  232.31599426    0.23000000    2.80999994
   16.07638931  212.28999329    0.23000000    2.82999992
   16.07972336  185.12800598    0.23000000    2.82999992
   16.08305550  201.57699585    0.23000000    2.82999992
   16.08611107  170.35800171    0.23000000    2.82999992
   16.08944511  162.09399414    0.23000000    2.80999994
   16.09250069  172.34199524    0.23000000    2.80999994
   16.09583473  174.81900024    0.23000000    2.80999994
   16.09916687  175.95399475    0.23000000    2.82999992
   16.10000038  160.59300232    0.23000000    2.82999992
   16.10277748  161.74200439    0.23000000    2.80999994
   16.10583305  167.36799622    0.23000000    2.80999994
   16.10916710  172.77099609    0.23000000    2.80999994
   16.11527824  172.77099609    0.23000000    2.80999994
   16.11944389  152.02799988    0.20999999    2.82999992
   16.12249947  154.10800171    0.20999999    2.80999994
   16.12583351  135.95199585    0.20999999    2.80999994
   16.12888908  154.83999634    0.23000000    2.82999992
   16.13222313  158.74099731    0.23000000    2.82999992
   16.13333321  137.87300110    0.20999999    2.80999994
   16.13583374  145.65800476    0.20999999    2.80999994
   16.13888931  157.67100525    0.20999999    2.80999994
   16.14222145  147.29699707    0.20999999    2.80999994
   16.14555550  135.34700012    0.23000000    2.82999992
   16.14888954  138.65800476    0.20999999    2.80999994
   16.15222168  146.69400024    0.20999999    2.80999994
   16.15805435  146.69400024    0.20999999    2.80999994
   16.16222191  121.88099670    0.23000000    2.80999994
   16.16527748  119.75399780    0.20999999    2.82999992
   16.16666603  124.70700073    0.20999999    2.82999992
   16.16916656  133.40400696    0.20999999    2.80999994
   16.17249870  145.35099792    0.20999999    2.80999994
   16.17555428  128.74099731    0.20999999    2.82999992
   16.17888832  114.90799713    0.20999999    2.82999992
   16.18222237  125.62999725    0.20999999    2.80999994
   16.18555450  114.64299774    0.20999999    2.80999994
   16.18888855  112.61900330    0.23000000    2.80999994
   16.19222069  114.01599884    0.23000000    2.80999994
   16.19527626  127.39399719    0.23000000    2.80999994
   16.20083427  127.39399719    0.20999999    2.80999994
   16.20499992  132.38499451    0.23000000    2.82999992
   16.20833397  115.83200073    0.23000000    2.80999994
   16.21138954  119.20500183    0.20999999    2.80999994
   16.21472359  125.63800049    0.20999999    2.80999994
   16.21805573  108.42400360    0.20999999    2.80999994
   16.22111130  114.52400208    0.20999999    2.80999994
   16.22444534  109.68699646    0.20999999    2.82999992
   16.22750092  131.17700195    0.23000000    2.82999992
   16.23083305  107.47200012    0.20999999    2.80999994
   16.23333359  112.33999634    0.20999999    2.80999994
   16.23444557  121.84200287    0.20999999    2.80999994
   16.23777771  125.06600189    0.20999999    2.80999994
   16.24388885  125.06600189    0.20999999    2.80999994
   16.24777794  117.18399811    0.20999999    2.80999994
   16.25111198  114.03700256    0.20999999    2.80999994
   16.25444412  119.08399963    0.23000000    2.82999992
   16.25749969  112.08100128    0.23000000    2.82999992
   16.26083374  116.50299835    0.23000000    2.82999992
   16.26416588  114.91600037    0.20999999    2.80999994
   16.26666641  138.07400513    0.23000000    2.80999994
   16.26777840  111.32800293    0.23000000    2.80999994
   16.27111053  121.59799957    0.20999999    2.82999992
   16.27416611  127.09600067    0.20999999    2.80999994
   16.27750015   99.65219879    0.20999999    2.80999994
   16.28055573  105.27600098    0.23000000    2.80999994
   16.28666687  105.27600098    0.23000000    2.80999994
   16.29083252  124.53299713    0.23000000    2.82999992
   16.29388809  133.18400574    0.23000000    2.80999994
   16.29722214  119.29000092    0.23000000    2.80999994
   16.29999924  117.91100311    0.23000000    2.82999992
   16.30083275  114.42099762    0.23000000    2.82999992
   16.30416679  119.99199677    0.23000000    2.82999992
   16.30722237  114.31300354    0.23000000    2.80999994
   16.31055450  122.53700256    0.23000000    2.80999994
   16.31361008  120.13899994    0.23000000    2.78999996
   16.31694603  104.44200134    0.23000000    2.78999996
   16.32027817  108.86599731    0.23000000    2.80999994
   16.32333374  116.92800140    0.23000000    2.82999992
   16.32944489  116.92800140    0.23000000    2.80999994
   16.33361244  116.59100342    0.23000000    2.80999994
   16.33666801  138.75500488    0.23000000    2.80999994
   16.34000015  130.80799866    0.23000000    2.80999994
   16.34333420  121.18199921    0.23000000    2.80999994
   16.34666824  107.61100006    0.23000000    2.80999994
   16.34972191  107.30000305    0.25000000    2.80999994
   16.35305595  110.10500336    0.25000000    2.80999994
   16.35611153  124.46600342    0.23000000    2.82999992
   16.35944557  125.02300262    0.23000000    2.82999992
   16.36277771  110.66600037    0.23000000    2.80999994
   16.36583328  120.82499695    0.23000000    2.80999994
   16.36666679   99.79859924    0.23000000    2.82999992
   16.37222290   99.79859924    0.23000000    2.80999994
   16.37638855  110.16400146    0.23000000    2.80999994
   16.37972260  110.58200073    0.23000000    2.80999994
   16.38277817  109.67199707    0.23000000    2.80999994
   16.38611031  112.52600098    0.23000000    2.80999994
   16.38944435  101.50499725    0.23000000    2.80999994
   16.39249992  106.00800323    0.23000000    2.80999994
   16.39583397  108.79399872    0.25000000    2.80999994
   16.39916611  112.91600037    0.23000000    2.80999994
   16.39999962  106.41500092    0.23000000    2.80999994
   16.40277672  116.96600342    0.25000000    2.80999994
   16.40611076  106.06500244    0.25000000    2.80999994
   16.40916634  106.65699768    0.25000000    2.80999994
   16.41527748  106.65699768    0.25000000    2.82999992
   16.41916656  110.21600342    0.25000000    2.80999994
   16.42249870  112.55999756    0.23000000    2.80999994
   16.42583275  104.38899994    0.23000000    2.80999994
   16.42888832   96.14769745    0.23000000    2.82999992
   16.43222237  111.89399719    0.23000000    2.80999994
   16.43333244  109.66200256    0.23000000    2.80999994
   16.43583298  112.59600067    0.23000000    2.82999992
   16.43916512   94.87539673    0.25000000    2.80999994
   16.44222069  113.46199799    0.23000000    2.80999994
   16.44555473  105.92400360    0.25000000    2.80999994
   16.44861031  115.88899994    0.25000000    2.80999994
   16.45194435  106.51000214    0.25000000    2.80999994
   16.45805550  106.51000214    0.25000000    2.80999994
   16.46222305  104.78199768    0.23000000    2.80999994
   16.46527863  114.55699921    0.23000000    2.80999994
   16.46666718   99.14320374    0.23000000    2.82999992
   16.46888924  111.88800049    0.23000000    2.82999992
   16.47222328  101.88300323    0.25000000    2.82999992
   16.47527885  109.43900299    0.23000000    2.82999992
   16.47861099  112.91799927    0.23000000    2.80999994
   16.48194504  104.78900146    0.25000000    2.80999994
   16.48500061  109.51000214    0.25000000    2.80999994
   16.48833275  112.95200348    0.25000000    2.80999994
   16.49166679  100.60500336    0.25000000    2.80999994
   16.49472237  100.62899780    0.25000000    2.80999994
   16.50083351  100.62899780    0.25000000    2.80999994
   16.50499916  105.73200226    0.25000000    2.82999992
   16.50833321  108.24600220    0.25000000    2.80999994
   16.51138878  113.89700317    0.25000000    2.82999992
   16.51472282  106.93599701    0.25000000    2.80999994
   16.51805496   99.38330078    0.25000000    2.80999994
   16.52111053  105.60199738    0.25000000    2.80999994
   16.52444458  115.88700104    0.25000000    2.82999992
   16.52777672  125.19300079    0.25000000    2.80999994
   16.53083229  107.23999786    0.23000000    2.82999992
   16.53333282  104.88099670    0.23000000    2.80999994
   16.53444481  114.48100281    0.23000000    2.80999994
   16.53777695  103.80000305    0.23000000    2.80999994
   16.54361153  103.80000305    0.23000000    2.80999994
   16.54777718  119.31400299    0.25000000    2.80999994
   16.55111122  130.88999939    0.23000000    2.82999992
   16.55416679  110.05000305    0.23000000    2.80999994
   16.55749893  112.32599640    0.23000000    2.80999994
   16.56083298  113.90200043    0.23000000    2.80999994
   16.56388855  117.86799622    0.23000000    2.80999994
   16.56666756  104.97499847    0.23000000    2.82999992
   16.56750107  106.08899689    0.23000000    2.82999992
   16.57083511  111.97799683    0.23000000    2.82999992
   16.57389069  109.37300110    0.23000000    2.80999994
   16.57722282  108.89800262    0.23000000    2.80999994
   16.58055687  127.77200317    0.23000000    2.80999994
   16.58666801  127.77200317    0.20999999    2.80999994
   16.59083366  107.79599762    0.20999999    2.80999994
   16.59416771  114.97599792    0.23000000    2.82999992
   16.59749985  110.93099976    0.23000000    2.82999992
   16.60000038  104.34200287    0.23000000    2.80999994
   16.60083389  109.53500366    0.23000000    2.80999994
   16.60416794  105.31400299    0.20999999    2.82999992
   16.60722351  103.53199768    0.20999999    2.82999992
   16.61055565  107.19999695    0.23000000    2.80999994
   16.61388969  117.80100250    0.20999999    2.80999994
   16.61694527  132.10200500    0.20999999    2.80999994
   16.62027740  101.29599762    0.23000000    2.80999994
   16.62333298  114.84300232    0.20999999    2.80999994
   16.62944412  114.84300232    0.23000000    2.80999994
   16.63361168  119.06300354    0.23000000    2.80999994
   16.63666725  116.95200348    0.23000000    2.82999992
   16.63999939  113.92400360    0.23000000    2.82999992
   16.64333344  105.85900116    0.23000000    2.82999992
   16.64638901  105.62100220    0.23000000    2.80999994
   16.64972115  111.51399994    0.23000000    2.82999992
   16.65305519   99.14659882    0.23000000    2.80999994
   16.65611076   96.36399841    0.23000000    2.80999994
   16.65944481  102.23400116    0.23000000    2.80999994
   16.66277695  116.97299957    0.23000000    2.82999992
   16.66583252  119.39900208    0.25000000    2.80999994
   16.66666603  108.86900330    0.25000000    2.80999994
   16.68750000  108.86900330    0.25000000    2.80999994
   16.69166565  202.49299622    0.23000000    2.80999994
   16.69499969  216.45199585    0.23000000    2.78999996
   16.69833183  189.60200500    0.23000000    2.80999994
   16.70000076  222.78799438    0.23000000    2.80999994
   16.70194435  190.20799255    0.23000000    2.82999992
   16.70527840  216.23699951    0.23000000    2.82999992
   16.70833397  178.78399658    0.25000000    2.80999994
   16.71166801  189.54699707    0.23000000    2.82999992
   16.71500015  191.79100037    0.25000000    2.82999992
   16.71805573  230.94799805    0.23000000    2.80999994
   16.72138977  191.97599792    0.23000000    2.80999994
   16.72444534  197.28799438    0.23000000    2.80999994
   16.73027802  197.28799438    0.25000000    2.80999994
   16.73444557  205.42300415    0.25000000    2.80999994
   16.73750114  174.44900513    0.25000000    2.82999992
   16.74083328  162.56300354    0.25000000    2.82999992
   16.74416733  165.93499756    0.25000000    2.80999994
   16.74722290  182.47900391    0.25000000    2.80999994
   16.75055504  217.71299744    0.25000000    2.80999994
   16.75361061  186.95799255    0.25000000    2.80999994
   16.75694466  250.47799683    0.25000000    2.80999994
   16.76027870  182.53500366    0.25000000    2.80999994
   16.76333427  209.45799255    0.25000000    2.80999994
   16.76666641  227.84300232    0.25000000    2.80999994
   16.76722145  179.03399658    0.25000000    2.80999994
   16.77305603  179.03399658    0.25000000    2.80999994
   16.77722168  124.18599701    0.25000000    2.82999992
   16.78027725  185.04400635    0.25000000    2.80999994
   16.78361130  160.63200378    0.25000000    2.80999994
   16.78694344  131.84199524    0.25000000    2.80999994
   16.78999901  147.33599854    0.25000000    2.80999994
   16.79333305  217.55499268    0.25000000    2.80999994
   16.79666710  146.03700256    0.25000000    2.80999994
   16.79972076  213.29899597    0.25000000    2.80999994
   16.80055428  172.49299622    0.25000000    2.80999994
   16.80333328  177.38099670    0.25000000    2.80999994
   16.80666542  145.52200317    0.25000000    2.82999992
   16.80999947  155.43099976    0.25000000    2.82999992
   16.81583214  155.43099976    0.25000000    2.82999992
   16.82000160  155.94999695    0.25000000    2.82999992
   16.82333374  124.49500275    0.25000000    2.80999994
   16.82638931  153.77799988    0.25000000    2.80999994
   16.82972336  149.98199463    0.23000000    2.80999994
   16.83305550  141.70599365    0.23000000    2.80999994
   16.83388901  153.38099670    0.23000000    2.80999994
   16.83638954  131.58299255    0.23000000    2.80999994
   16.83972359  156.54100037    0.23000000    2.80999994
   16.84305573  138.95199585    0.23000000    2.82999992
   16.84611130  142.51499939    0.23000000    2.82999992
   16.84944534  128.50599670    0.25000000    2.80999994
   16.85277748  129.52900696    0.25000000    2.80999994
   16.85888863  129.52900696    0.25000000    2.82999992
   16.86305618  117.54799652    0.25000000    2.80999994
   16.86611176  115.15799713    0.25000000    2.80999994
   16.86722183  117.89700317    0.25000000    2.80999994
   16.86972237  123.44200134    0.25000000    2.80999994
   16.87305641  119.43299866    0.25000000    2.80999994
   16.87638855  118.23899841    0.25000000    2.80999994
   16.87944412  114.42199707    0.25000000    2.80999994
   16.88277817   94.76200104    0.25000000    2.80999994
   16.88611031  104.19200134    0.25000000    2.80999994
   16.88944435  121.58399963    0.23000000    2.82999992
   16.89249992  124.89800262    0.25000000    2.82999992
   16.89583397  108.47599792    0.25000000    2.82999992
   16.90166664  108.47599792    0.23000000    2.80999994
   16.90583229  123.03399658    0.23000000    2.82999992
   16.90888786  105.80200195    0.23000000    2.82999992
   16.91222191   92.40779877    0.23000000    2.82999992
   16.91555595  101.45999908    0.23000000    2.82999992
   16.91860962   92.57679749    0.23000000    2.82999992
   16.92194366  113.95999908    0.20999999    2.82999992
   16.92499924  103.54699707    0.23000000    2.82999992
   16.92833328  113.41200256    0.23000000    2.80999994
   16.93166542  104.75099945    0.20999999    2.80999994
   16.93388748  120.65699768    0.20999999    2.80999994
   16.93499947  127.93199921    0.23000000    2.80999994
   16.93833160  109.29900360    0.23000000    2.80999994
   16.94444275  109.29900360    0.20999999    2.82999992
   16.94861031  106.70800018    0.20999999    2.80999994
   16.95194435  105.80699921    0.23000000    2.80999994
   16.95499992  116.61100006    0.23000000    2.80999994
   16.95833397  111.28399658    0.20999999    2.82999992
   16.96138954  116.88700104    0.20999999    2.80999994
   16.96472359  118.57900238    0.20999999    2.82999992
   16.96722221  115.01399994    0.20999999    2.82999992
   16.96833420  122.11100006    0.20999999    2.80999994
   16.97166634  108.80400085    0.20999999    2.80999994
   16.97500038  124.20099640    0.23000000    2.80999994
   16.97805595  146.52400208    0.20999999    2.80999994
   16.98139000  122.84700012    0.20999999    2.82999992
   16.98722267  122.84700012    0.23000000    2.80999994
   16.99138832  119.61499786    0.23000000    2.82999992
   16.99472237  114.95400238    0.20999999    2.82999992
   16.99777794  130.24600220    0.23000000    2.80999994
   17.00055504  124.39399719    0.23000000    2.80999994
   17.00138855  137.55499268    0.23000000    2.82999992
   17.00472260  106.19300079    0.23000000    2.82999992
   17.00805473  128.16700745    0.23000000    2.80999994
   17.01111031  136.23199463    0.23000000    2.80999994
   17.01444435  121.07900238    0.23000000    2.82999992
   17.01777840  130.76800537    0.23000000    2.82999992
   17.02083397  115.52700043    0.23000000    2.82999992
   17.02416611  121.18000031    0.23000000    2.82999992
   17.03027725  121.18000031    0.23000000    2.82999992
   17.03472137  117.64199829    0.23000000    2.82999992
   17.03777695  134.05499268    0.23000000    2.80999994
   17.04111099  122.71900177    0.23000000    2.82999992
   17.04416656  149.11000061    0.23000000    2.80999994
   17.04749870  127.79499817    0.23000000    2.80999994
   17.05083275  133.40499878    0.23000000    2.82999992
   17.05388832  126.20300293    0.20999999    2.80999994
   17.05722237  152.90899658    0.23000000    2.80999994
   17.06055450  138.24699402    0.23000000    2.80999994
   17.06361008  152.39599609    0.23000000    2.80999994
   17.06694603  128.16400146    0.20999999    2.82999992
   17.06750107  114.93199921    0.20999999    2.82999992
   17.07305717  114.93199921    0.23000000    2.82999992
   17.07722282  143.58099365    0.23000000    2.80999994
   17.08027840  145.40100098    0.23000000    2.80999994
   17.08361244  134.11700439    0.23000000    2.80999994
   17.08694458  120.38200378    0.23000000    2.80999994
   17.09027863  131.04699707    0.23000000    2.82999992
   17.09333420  127.97599792    0.23000000    2.80999994
   17.09666824  133.32800293    0.23000000    2.80999994
   17.10000038  135.63099670    0.23000000    2.82999992
   17.10083389  132.67300415    0.23000000    2.82999992
   17.10361099  137.13999939    0.23000000    2.80999994
   17.10666656  130.52900696    0.23000000    2.80999994
   17.11000061  132.66099548    0.23000000    2.82999992
   17.11583328  132.66099548    0.23000000    2.80999994
   17.12000084  132.61399841    0.23000000    2.82999992
   17.12333298  128.55999756    0.23000000    2.80999994
   17.12638855  140.30999756    0.23000000    2.80999994
   17.12972260  123.60600281    0.23000000    2.82999992
   17.13277817  137.94000244    0.23000000    2.80999994
   17.13416672  137.99099731    0.23000000    2.80999994
   17.13638878  136.27799988    0.23000000    2.80999994
   17.13972282  137.30499268    0.23000000    2.80999994
   17.14277840  124.91699982    0.23000000    2.80999994
   17.14611053  120.23100281    0.23000000    2.82999992
   17.14944458  137.58099365    0.25000000    2.80999994
   17.15250015  133.98300171    0.23000000    2.80999994
   17.15861130  133.98300171    0.23000000    2.80999994
   17.16277695  128.61199951    0.23000000    2.80999994
   17.16611099  122.51300049    0.25000000    2.82999992
   17.16749954  111.59999847    0.25000000    2.82999992
   17.16944313  123.81800079    0.25000000    2.82999992
   17.17277718  127.50700378    0.25999999    2.80999994
   17.17583275  125.53299713    0.25999999    2.80999994
   17.17916679  129.03500366    0.25999999    2.80999994
   17.18249893  124.41100311    0.25000000    2.80999994
   17.18555450  121.25700378    0.25000000    2.80999994
   17.18888855  120.43099976    0.25000000    2.80999994
   17.19222069  118.31600189    0.23000000    2.80999994
   17.19527626  117.78199768    0.23000000    2.80999994
   17.20166779  117.78199768    0.23000000    2.82999992
   17.20555687  117.59500122    0.25000000    2.80999994
   17.20888901  115.56900024    0.25000000    2.82999992
   17.21222305  114.36100006    0.25000000    2.80999994
   17.21527863  121.50099945    0.25000000    2.80999994
   17.21861076  140.28799438    0.23000000    2.80999994
   17.22194481  129.56799316    0.23000000    2.80999994
   17.22500038  135.85699463    0.23000000    2.80999994
   17.22833443  126.62300110    0.23000000    2.82999992
   17.23139000  127.67800140    0.23000000    2.82999992
   17.23444557  136.63299561    0.23000000    2.80999994
   17.23555565  123.74600220    0.23000000    2.80999994
   17.23861122  145.99299622    0.23000000    2.82999992
   17.24444389  145.99299622    0.23000000    2.82999992
   17.24861145  137.44400024    0.23000000    2.80999994
   17.25166702  141.26199341    0.25000000    2.80999994
   17.25499916  137.47399902    0.23000000    2.80999994
   17.25833321  133.32000732    0.23000000    2.80999994
   17.26138878  142.83099365    0.25000000    2.80999994
   17.26472282  149.72399902    0.23000000    2.80999994
   17.26749992  184.72000122    0.23000000    2.80999994
   17.26805496  164.60099792    0.23000000    2.80999994
   17.27138901  144.44700623    0.23000000    2.80999994
   17.27472115  153.80799866    0.23000000    2.82999992
   17.27777672  169.85800171    0.25000000    2.80999994
   17.28111076  147.39100647    0.25000000    2.80999994
   17.28722191  147.39100647    0.25000000    2.80999994
   17.29138756  186.49699402    0.25000000    2.80999994
   17.29472160  165.63400269    0.25000000    2.80999994
   17.29777718  173.20300293    0.25000000    2.80999994
   17.30083275  138.04600525    0.25000000    2.80999994
   17.30138779  167.29499817    0.25000000    2.80999994
   17.30472183  185.56599426    0.25000000    2.80999994
   17.30805397  181.28300476    0.25000000    2.80999994
   17.31110954  150.74600220    0.25000000    2.80999994
   17.31444359  150.61300659    0.25000000    2.80999994
   17.31750107  140.21400452    0.25000000    2.80999994
   17.32083511  156.72700500    0.25000000    2.80999994
   17.32416725  140.80700684    0.25000000    2.80999994
   17.33000183  140.80700684    0.25000000    2.82999992
   17.33416748  147.36300659    0.25000000    2.80999994
   17.33750153  127.73000336    0.25000000    2.80999994
   17.34055710  158.23199463    0.25000000    2.80999994
   17.34388924  151.27299500    0.25000000    2.80999994
   17.34722328  157.54800415    0.25000000    2.80999994
   17.35027885  144.17500305    0.25000000    2.80999994
   17.35361099  167.44000244    0.25000000    2.80999994
   17.35694504  183.87300110    0.25000000    2.80999994
   17.36000061  144.55700684    0.25000000    2.82999992
   17.36333466  140.03500366    0.25000000    2.80999994
   17.36666679  161.31300354    0.25000000    2.80999994
   17.36750031  151.84800720    0.25000000    2.78999996
   17.37305641  151.84800720    0.25999999    2.80999994
   17.37694550  170.41900635    0.25000000    2.80999994
   17.38027763  151.99499512    0.25000000    2.80999994
   17.38361168  149.41200256    0.25000000    2.80999994
   17.38666725  116.87300110    0.25000000    2.80999994
   17.38999939  157.49899292    0.25000000    2.82999992
   17.39333344  140.09800720    0.25000000    2.82999992
   17.39638901  129.40299988    0.25000000    2.80999994
   17.39972115  145.79899597    0.25000000    2.80999994
   17.40083313  120.80999756    0.25000000    2.80999994
   17.40305519  131.04699707    0.25000000    2.82999992
   17.40638924  140.47599792    0.23000000    2.80999994
   17.40972137  121.31300354    0.23000000    2.82999992
   17.41583252  121.31300354    0.25000000    2.80999994
   17.42000008  124.58000183    0.25000000    2.80999994
   17.42305565  130.35299683    0.25000000    2.80999994
   17.42638779  134.14999390    0.25000000    2.80999994
   17.42972183  145.79699707    0.25000000    2.80999994
   17.43277740  141.43499756    0.23000000    2.80999994
   17.43416595  135.54200745    0.23000000    2.80999994
   17.43638802  139.67700195    0.25000000    2.82999992
   17.43972206  124.62400055    0.25000000    2.82999992
   17.44305420  138.00700378    0.25000000    2.80999994
   17.44638824  136.44599915    0.25000000    2.80999994
   17.44944382  141.98399353    0.25000000    2.82999992
   17.45277786  145.43200684    0.25000000    2.80999994
   17.45861244  145.43200684    0.25000000    2.80999994
   17.46277809  139.36399841    0.25000000    2.80999994
   17.46611214  121.18800354    0.25000000    2.80999994
   17.46750069  122.05899811    0.25000000    2.80999994
   17.46944427  127.69799805    0.25000000    2.80999994
   17.47305679  134.67399597    0.25000000    2.80999994
   17.47611237  123.23999786    0.25000000    2.80999994
   17.47944450  127.32700348    0.25000000    2.80999994
   17.48250008  114.71299744    0.25000000    2.80999994
   17.48583412  133.48100281    0.25000000    2.80999994
   17.48916626  120.38899994    0.25000000    2.80999994
   17.49222183  127.81800079    0.25000000    2.80999994
   17.49555588  131.22300720    0.25000000    2.82999992
   17.50138855  131.22300720    0.25000000    2.80999994
   17.50555611  123.80999756    0.25000000    2.80999994
   17.50888824  125.70800018    0.25000000    2.80999994
   17.51194382  119.72399902    0.25000000    2.80999994
   17.51527786  117.62999725    0.25000000    2.80999994
   17.51861000  115.11799622    0.25000000    2.80999994
   17.52194405  128.82099915    0.25000000    2.80999994
   17.52499962  127.33999634    0.25000000    2.80999994
   17.52833366  103.44699860    0.25000000    2.80999994
   17.53166580  106.41699982    0.25000000    2.80999994
   17.53416634  111.10199738    0.25000000    2.78999996
   17.53499985  119.79499817    0.25000000    2.78999996
   17.53833199  137.88600159    0.25000000    2.80999994
   17.54444313  137.88600159    0.25000000    2.80999994
   17.54833221  110.64399719    0.25000000    2.80999994
   17.55166626  102.90100098    0.25000000    2.82999992
   17.55499840  121.68099976    0.25000000    2.78999996
   17.55805397  113.10800171    0.25000000    2.80999994
   17.56138802  110.56300354    0.25000000    2.80999994
   17.56472206  112.58999634    0.25000000    2.80999994
   17.56750107  115.96299744    0.25000000    2.80999994
   17.56833458  117.81999969    0.25000000    2.80999994
   17.57166672  105.72299957    0.25000000    2.80999994
   17.57500076  107.24500275    0.25000000    2.80999994
   17.57805634  126.82700348    0.25000000    2.80999994
   17.58139038  110.87799835    0.25000000    2.80999994
   17.58722305  110.87799835    0.25000000    2.78999996
   17.59138870  111.61499786    0.25000000    2.80999994
   17.59472275  107.44200134    0.25000000    2.80999994
   17.59777832  114.41999817    0.25000000    2.80999994
   17.60083389  111.19799805    0.25000000    2.78999996
   17.60166740  113.48300171    0.25000000    2.78999996
   17.60472298  115.85299683    0.25000000    2.78999996
   17.60805511  116.65899658    0.25000000    2.80999994
   17.61138916  117.22299957    0.25000000    2.80999994
   17.61444473  112.48400116    0.25000000    2.80999994
   17.61777878  115.99500275    0.25000000    2.80999994
   17.62111092  112.38099670    0.25000000    2.80999994
   17.62416649  108.05899811    0.25000000    2.80999994
   17.63000107  108.05899811    0.23000000    2.80999994
   17.63416672  116.27899933    0.25000000    2.80999994
   17.63472176  111.66600037    0.25000000    2.80999994
   17.63777733  111.36000061    0.25000000    2.80999994
   17.64111137   99.50389862    0.25000000    2.80999994
   17.64416695  123.62899780    0.23000000    2.80999994
   17.64749908  113.54599762    0.25000000    2.80999994
   17.65083313  107.38500214    0.25000000    2.80999994
   17.65388870  113.85199738    0.25000000    2.80999994
   17.65722275  114.71600342    0.25000000    2.80999994
   17.66055489  111.08599854    0.25000000    2.80999994
   17.66361046  112.43599701    0.25000000    2.78999996
   17.66694450   98.91919708    0.25000000    2.80999994
   17.66749954   91.98239899    0.25000000    2.80999994
   17.67277718   91.98239899    0.25000000    2.80999994
   17.67694473  103.43800354    0.25000000    2.80999994
   17.68027687  112.77999878    0.25000000    2.80999994
   17.68333244  100.67600250    0.25000000    2.80999994
   17.70111275  108.93599701    0.25000000    2.80999994
   17.70333481   92.32740021    0.25000000    2.78999996
   17.70666695  106.62799835    0.25000000    2.80999994
   17.71000099  108.83599854    0.25000000    2.80999994
   17.71583366  108.83599854    0.25999999    2.80999994
   17.72000122  104.32499695    0.25000000    2.80999994
   17.72305679   98.88559723    0.25000000    2.78999996
   17.72666740   98.32209778    0.25000000    2.80999994
   17.72972298   92.96099854    0.25000000    2.80999994
   17.73305511   96.15219879    0.25000000    2.80999994
   17.73416710  101.59300232    0.25000000    2.80999994
   17.73666763  106.63400269    0.25000000    2.80999994
   17.73999977   94.90619659    0.25000000    2.80999994
   17.74305534  105.63700104    0.25000000    2.80999994
   17.74638939  109.00399780    0.25999999    2.80999994
   17.74944496   94.97859955    0.25000000    2.80999994
   17.75277710  113.07099915    0.25000000    2.80999994
   17.75861168  113.07099915    0.25999999    2.80999994
   17.76277733  111.04499817    0.25000000    2.80999994
   17.76611137  112.50399780    0.25000000    2.80999994
   17.76749992  107.04799652    0.25000000    2.80999994
   17.76972198  103.05300140    0.25000000    2.80999994
   17.77305603  116.43499756    0.25000000    2.80999994
   17.77611160  116.12500000    0.25000000    2.80999994
   17.77944374  112.99500275    0.25000000    2.80999994
   17.78249931  111.73400116    0.25000000    2.80999994
   17.78583336  110.83899689    0.25000000    2.80999994
   17.78916550  112.38899994    0.25000000    2.80999994
   17.79222107  111.10700226    0.25000000    2.80999994
   17.79555511  103.68399811    0.25000000    2.82999992
   17.80138779  103.68399811    0.25000000    2.80999994
   17.80555534  120.97699738    0.25000000    2.78999996
   17.80888748  111.73999786    0.25000000    2.78999996
   17.81222153  103.24199677    0.25000000    2.80999994
   17.81527710  111.93599701    0.25000000    2.80999994
   17.81861115  106.34999847    0.25000000    2.80999994
   17.82166672  107.71700287    0.25999999    2.80999994
   17.82500076  103.04599762    0.25000000    2.78999996
   17.82833481  113.00399780    0.25000000    2.80999994
   17.83139038  112.11499786    0.25000000    2.80999994
   17.83416748  109.08499908    0.25999999    2.78999996
   17.83500099  108.63400269    0.25999999    2.78999996
   17.83833313  110.74500275    0.25999999    2.78999996
   17.84444427  110.74500275    0.25999999    2.78999996
   17.84861183  113.38099670    0.25999999    2.80999994
   17.85194397  108.12899780    0.25999999    2.80999994
   17.85499954  110.33999634    0.25999999    2.80999994
   17.85833359  113.39600372    0.25999999    2.78999996
   17.86166763  110.27500153    0.25999999    2.78999996
   17.86472321  115.53399658    0.25999999    2.80999994
   17.86750031  100.11299896    0.25999999    2.80999994
   17.86833382  108.29799652    0.25999999    2.80999994
   17.87166595  100.63800049    0.25999999    2.80999994
   17.87472153   96.07520294    0.25999999    2.80999994
   17.87805557  110.37000275    0.25999999    2.80999994
   17.88138962  104.83200073    0.25999999    2.80999994
   17.88722229  104.83200073    0.25999999    2.78999996
   17.89138794  102.39700317    0.25999999    2.80999994
   17.89444351  122.83100128    0.25999999    2.78999996
   17.89777756  113.30100250    0.25999999    2.80999994
   17.90083313  116.05000305    0.25999999    2.80999994
   17.90138817  107.91600037    0.25999999    2.80999994
   17.90472221  106.05400085    0.25999999    2.78999996
   17.90777779  110.36299896    0.25999999    2.80999994
   17.91110992  118.87000275    0.25999999    2.78999996
   17.91416550  131.03199768    0.25999999    2.80999994
   17.91749954  120.41300201    0.25999999    2.80999994
   17.92083359  126.66899872    0.25999999    2.78999996
   17.92388916  120.84500122    0.25000000    2.78999996
   17.93027687  120.84500122    0.25000000    2.80999994
   17.93444443  114.08200073    0.25999999    2.78999996
   17.93777657  110.54900360    0.25999999    2.78999996
   17.94083214  105.99199677    0.25999999    2.80999994
   17.94416618  108.74099731    0.25999999    2.78999996
   17.94722176  119.61399841    0.25000000    2.78999996
   17.95055580  112.71499634    0.25000000    2.78999996
   17.95388985  113.33999634    0.25999999    2.78999996
   17.95722389  112.48500061    0.25999999    2.78999996
   17.96027946  116.95200348    0.25000000    2.80999994
   17.96361160  111.05599976    0.25000000    2.78999996
   17.96666718  109.90899658    0.25000000    2.78999996
   17.96750069  108.03199768    0.25000000    2.78999996
   17.97277832  108.03199768    0.25999999    2.78999996
   17.97694588  120.01499939    0.25000000    2.78999996
   17.98027802  115.97299957    0.25000000    2.80999994
   17.98361206  128.08399963    0.25999999    2.78999996
   17.98666763  119.43299866    0.25000000    2.80999994
   17.98999977  119.85199738    0.25999999    2.80999994
   17.99305534  113.21600342    0.25999999    2.80999994
   17.99638939  123.34700012    0.25999999    2.78999996
   17.99972153  115.20999908    0.25000000    2.78999996
   18.00083351  117.86399841    0.25000000    2.78999996
   18.00333405  112.97599792    0.25000000    2.78999996
   18.00666618  115.62100220    0.25000000    2.78999996
   18.00972176  127.75000000    0.25000000    2.78999996
   18.01583290  127.75000000    0.25999999    2.78999996
   18.02000046  114.27600098    0.25999999    2.78999996
   18.02305603  114.35900116    0.25000000    2.78999996
   18.02638817   99.98239899    0.25999999    2.78999996
   18.02944374  104.79100037    0.25999999    2.78999996
   18.03277779  109.30799866    0.25000000    2.78999996
   18.03416634   96.53800201    0.25000000    2.78999996
   18.03638840  108.55899811    0.25000000    2.78999996
   18.03972244  108.57599640    0.25999999    2.78999996
   18.04305458  115.56999969    0.25999999    2.78999996
   18.04611015  106.14199829    0.25000000    2.78999996
   18.04944420  107.56199646    0.25000000    2.78999996
   18.05249977  105.74400330    0.25000000    2.78999996
   18.05861092  105.74400330    0.25000000    2.78999996
   18.06277657   96.26139832    0.25999999    2.78999996
   18.06583214  115.82599640    0.25000000    2.78999996
   18.06750107  112.28199768    0.25000000    2.78999996
   18.06944466  117.49700165    0.25000000    2.78999996
   18.07277870  111.64199829    0.25000000    2.78999996
   18.07583427  120.55300140    0.25000000    2.78999996
   18.07916832  105.95400238    0.25000000    2.80999994
   18.08250046  110.46299744    0.25000000    2.78999996
   18.08555603  114.61199951    0.25000000    2.78999996
   18.08889008  100.65799713    0.25000000    2.78999996
   18.09222221  108.23899841    0.25000000    2.78999996
   18.09527779  120.27999878    0.25000000    2.78999996
   18.10138893  120.27999878    0.25999999    2.78999996
   18.10555649  112.01799774    0.25000000    2.80999994
   18.10888863  106.54699707    0.25000000    2.78999996
   18.11194420  103.47899628    0.25000000    2.78999996
   18.11527824  121.82199860    0.25000000    2.78999996
   18.11861038  114.14800262    0.25000000    2.78999996
   18.12166595  112.58999634    0.25000000    2.78999996
   18.12500000  114.12599945    0.25000000    2.78999996
   18.12833405  114.88800049    0.25000000    2.78999996
   18.13138962  110.11000061    0.25000000    2.78999996
   18.13416672  106.71399689    0.25000000    2.78999996
   18.13500023  106.38999939    0.25000000    2.78999996
   18.13833237  113.58000183    0.25000000    2.78999996
   18.14416695  113.58000183    0.25000000    2.78999996
   18.14833260   96.98709869    0.25000000    2.78999996
   18.15166664  101.92800140    0.25000000    2.78999996
   18.15499878  110.24800110    0.25000000    2.78999996
   18.15805435  117.20300293    0.25000000    2.78999996
   18.16138840  105.95099640    0.25000000    2.78999996
   18.16472244  109.99099731    0.25000000    2.78999996
   18.16749954  115.03099823    0.25000000    2.78999996
   18.16805458  114.61199951    0.25000000    2.78999996
   18.17138863  107.01599884    0.25000000    2.78999996
   18.17444420  115.06500244    0.25000000    2.78999996
   18.17777634  123.05000305    0.25000000    2.78999996
   18.18111038  112.58100128    0.25999999    2.78999996
   18.18722153  112.58100128    0.25000000    2.78999996
   18.19138718   99.63600159    0.25999999    2.78999996
   18.19444275  103.76899719    0.25000000    2.78999996
   18.19777679  119.10900116    0.25000000    2.78999996
   18.20083427  119.20400238    0.25000000    2.78999996
   18.20138931  117.49099731    0.25999999    2.78999996
   18.20472336  109.43900299    0.25999999    2.78999996
   18.20777893  108.77500153    0.25999999    2.78999996
   18.21111107  107.78299713    0.25999999    2.78999996
   18.21444511  113.89399719    0.25999999    2.78999996
   18.21750069  117.48600006    0.25999999    2.78999996
   18.22083473  118.54699707    0.25999999    2.78999996
   18.22416687  121.87100220    0.25999999    2.78999996
   18.23000145  121.87100220    0.25000000    2.78999996
   18.23416710  106.09300232    0.25999999    2.78999996
   18.23472214  114.72699738    0.25999999    2.78999996
   18.23777771  116.76000214    0.25999999    2.78999996
   18.24111176  120.42700195    0.25999999    2.78999996
   18.24444389  107.42299652    0.25999999    2.78999996
   18.24749947  121.37400055    0.25999999    2.78999996
   18.25083351  103.79000092    0.25999999    2.78999996
   18.25388908  116.80400085    0.25999999    2.78999996
   18.25722313  113.19599915    0.25999999    2.78999996
   18.26055527  118.88600159    0.25999999    2.78999996
   18.26361084  125.88899994    0.25999999    2.78999996
   18.26694489  118.54299927    0.25999999    2.78999996
   18.26805496  108.68900299    0.25999999    2.78999996
   18.27277756  108.68900299    0.25999999    2.78999996
   18.27694511  114.26599884    0.25999999    2.78999996
   18.28027725  117.14900208    0.25999999    2.78999996
   18.28361130  121.07800293    0.25999999    2.78999996
   18.28666687  119.62000275    0.25999999    2.78999996
   18.28999901  118.27600098    0.28000000    2.78999996
   18.29333305  131.49600220    0.28000000    2.78999996
   18.29666710  123.10099792    0.25999999    2.78999996
   18.29972076  122.03800201    0.28000000    2.78999996
   18.30138779  123.83799744    0.28000000    2.78999996
   18.30333328  127.08100128    0.25999999    2.78999996
   18.30666542  129.89900208    0.28000000    2.76999998
   18.30972099  133.19000244    0.25999999    2.78999996
   18.31555557  133.19000244    0.25999999    2.78999996
   18.31972313  167.06599426    0.25999999    2.78999996
   18.32305717  175.64599609    0.25999999    2.76999998
   18.32638931  182.80700684    0.25999999    2.78999996
   18.32944489  174.86700439    0.28000000    2.78999996
   18.33277893  170.97399902    0.28000000    2.78999996
   18.33472252  159.84399414    0.28000000    2.76999998
   18.33638954  184.99800110    0.28000000    2.76999998
   18.33972359  154.93800354    0.25999999    2.78999996
   18.34277916  174.21600342    0.28000000    2.78999996
   18.34611130  206.60099792    0.28000000    2.78999996
   18.34944534  184.47999573    0.25999999    2.76999998
   18.35250092  199.98300171    0.28000000    2.76999998
   18.35861206  199.98300171    0.25999999    2.80999994
   18.36277771  226.42599487    0.28000000    2.78999996
   18.36583328  189.01600647    0.28000000    2.78999996
   18.36805534  217.28599548    0.28000000    2.78999996
   18.36944389  234.92199707    0.28000000    2.76999998
   18.37277794  220.97799683    0.28000000    2.78999996
   18.37611198  228.21699524    0.28000000    2.78999996
   18.37916756  221.13299561    0.25999999    2.76999998
   18.38249969  220.02000427    0.28000000    2.76999998
   18.38555527  229.64900208    0.28000000    2.76999998
   18.38888931  211.28500366    0.28000000    2.76999998
   18.39222145  214.13999939    0.28000000    2.76999998
   18.39527702  195.83399963    0.28000000    2.76999998
   18.40138817  195.83399963    0.30000001    2.78999996
   18.40555573  206.66000366    0.28000000    2.78999996
   18.40861130  194.42199707    0.30000001    2.76999998
   18.41194344  167.91799927    0.30000001    2.76999998
   18.41527748  171.63699341    0.28000000    2.78999996
   18.41833305  188.87199402    0.30000001    2.78999996
   18.42166519  177.47200012    0.31999999    2.76999998
   18.42499924  170.96400452    0.31999999    2.76999998
   18.42805481  170.10699463    0.31999999    2.78999996
   18.43138885  174.91799927    0.31999999    2.78999996
   18.43444443  184.49499512    0.31999999    2.78999996
   18.43499947  167.04899597    0.31999999    2.78999996
   18.43833160  154.73399353    0.31999999    2.78999996
   18.44416618  154.73399353    0.31999999    2.76999998
   18.44833183  158.43200684    0.31999999    2.76999998
   18.45166779  175.69200134    0.30000001    2.76999998
   18.45499992  145.67399597    0.30000001    2.76999998
   18.45805550  146.22300720    0.30000001    2.76999998
   18.46138954  164.98300171    0.31999999    2.78999996
   18.46444511  162.27999878    0.30000001    2.78999996
   18.46777916  147.28199768    0.30000001    2.78999996
   18.46833420  134.69099426    0.30000001    2.78999996
   18.47138977  135.67799377    0.30000001    2.78999996
   18.47472191  153.92399597    0.30000001    2.76999998
   18.47777748  154.27099609    0.30000001    2.76999998
   18.48111153  141.24000549    0.30000001    2.78999996
   18.48694420  141.24000549    0.30000001    2.78999996
   18.49111176  128.22000122    0.30000001    2.76999998
   18.49444389  139.97399902    0.30000001    2.78999996
   18.49777794  135.78500366    0.30000001    2.78999996
   18.50083351  132.81900024    0.30000001    2.76999998
   18.50166702  133.95300293    0.30000001    2.76999998
   18.50444412  123.87699890    0.30000001    2.78999996
   18.50749969  134.72799683    0.30000001    2.78999996
   18.51083374  126.38500214    0.30000001    2.76999998
   18.51416588  119.39600372    0.30000001    2.76999998
   18.51722145  139.57400513    0.30000001    2.76999998
   18.52055550  124.75299835    0.30000001    2.76999998
   18.52388954  128.19900513    0.30000001    2.76999998
   18.53000069  128.19900513    0.28000000    2.76999998
   18.53388786  124.72200012    0.28000000    2.76999998
   18.53499985  120.05300140    0.28000000    2.76999998
   18.53750038  137.45599365    0.28000000    2.76999998
   18.54083252  126.92099762    0.28000000    2.76999998
   18.54388809  121.97899628    0.28000000    2.76999998
   18.54722214  128.77499390    0.28000000    2.76999998
   18.55027771  129.15499878    0.30000001    2.76999998
   18.55360985  124.51999664    0.30000001    2.76999998
   18.55694389  113.97799683    0.30000001    2.76999998
   18.55999947  119.22399902    0.30000001    2.76999998
   18.56333351  127.03600311    0.30000001    2.76999998
   18.56666756  117.92600250    0.30000001    2.76999998
   18.56833458  106.50800323    0.30000001    2.76999998
   18.57277870  106.50800323    0.30000001    2.78999996
   18.57694626  118.75399780    0.30000001    2.76999998
   18.58000183  101.47899628    0.30000001    2.76999998
   18.58333397  119.36599731    0.30000001    2.76999998
   18.58666801  121.16799927    0.31999999    2.76999998
   18.58972359  106.98600006    0.30000001    2.76999998
   18.59305573   99.53549957    0.31999999    2.76999998
   18.59611130  107.36900330    0.30000001    2.76999998
   18.59944534  104.95300293    0.30000001    2.76999998
   18.60166740   99.57360077    0.31999999    2.76999998
   18.60305595   99.27100372    0.31999999    2.76999998
   18.60639000  127.58200073    0.31999999    2.76999998
   18.60944557  104.68699646    0.31999999    2.76999998
   18.61555672  104.68699646    0.34000000    2.76999998
   18.61972237  106.33799744    0.34000000    2.76999998
   18.62305641  104.03800201    0.36000001    2.76999998
   18.62638855  100.53600311    0.36000001    2.76999998
   18.62944412  120.55899811    0.36000001    2.76999998
   18.63277817  100.47799683    0.38000000    2.76999998
   18.63500023   99.90309906    0.38000000    2.76999998
   18.63638878  109.52100372    0.38000000    2.76999998
   18.63944435  100.21099854    0.40000001    2.76999998
   18.64277840   92.65699768    0.40000001    2.78999996
   18.64611053   97.16510010    0.40000001    2.76999998
   18.64944458  110.02999878    0.40000001    2.76999998
   18.65250015   94.79989624    0.40000001    2.76999998
   18.65833282   94.79989624    0.38000000    2.76999998
   18.66250038   82.03510284    0.40000001    2.75000000
   18.66583252  106.12300110    0.40000001    2.75000000
   18.66833305   94.02030182    0.40000001    2.75000000
   18.66944313   87.25499725    0.38000000    2.76999998
   18.67277718   93.19969940    0.38000000    2.76999998
   18.67583275   93.82559967    0.38000000    2.76999998
   18.67916679   81.65229797    0.36000001    2.76999998
   18.68222237   99.61530304    0.36000001    2.76999998
   18.68555450  102.56700134    0.38000000    2.76999998
   18.68888855   90.47869873    0.38000000    2.76999998
   18.69194412   86.87830353    0.38000000    2.76999998
   18.69527626  103.08100128    0.38000000    2.76999998
   18.70138931  103.08100128    0.36000001    2.76999998
   18.71972275   97.33070374    0.36000001    2.75000000
   18.72277832   93.25370026    0.38000000    2.75000000
   18.72611237   91.38780212    0.38000000    2.76999998
   18.72944450   97.34670258    0.38000000    2.75000000
   18.73250008   98.60369873    0.38000000    2.75000000
   18.73583412   86.33100128    0.38000000    2.75000000
   18.73916626   95.40299988    0.38000000    2.75000000
   18.74444389   95.40299988    0.40000001    2.75000000
   18.74861145   87.00630188    0.38000000    2.76999998
   18.75166702   94.03410339    0.38000000    2.76999998
   18.75277710   89.61900330    0.38000000    2.75000000
   18.75555611   87.67410278    0.38000000    2.75000000
   18.75888824   84.77400208    0.38000000    2.75000000
   18.76194382   92.64379883    0.38000000    2.75000000
   18.76527786   85.54010010    0.38000000    2.75000000
   18.76833344   84.74079895    0.38000000    2.75000000
   18.77166557   83.91310120    0.38000000    2.75000000
   18.77499962   87.61250305    0.38000000    2.75000000
   18.77805519   96.81469727    0.40000001    2.75000000
   18.81305504  125.79299927    0.38000000    2.75000000
   18.81611061  110.57499695    0.40000001    2.75000000
   18.81944466  113.52700043    0.40000001    2.75000000
   18.82277870  117.27799988    0.40000001    2.75000000
   18.82583427  110.53800201    0.40000001    2.75000000
   18.82916832  115.53099823    0.40000001    2.75000000
   18.83333397  115.53099823    0.40000001    2.75000000
   18.83750153  110.29399872    0.40000001    2.76999998
   18.84055710  101.71499634    0.40000001    2.76999998
   18.84388924  122.37100220    0.41999999    2.75000000
   18.84638977  113.24500275    0.44000000    2.75000000
   18.84749985  114.83699799    0.44000000    2.75000000
   18.85083389  126.44100189    0.41999999    2.75000000
   18.85388947  110.86499786    0.41999999    2.75000000
   18.85722351  105.42199707    0.41999999    2.75000000
   18.86055565  117.70700073    0.41999999    2.75000000
   18.86361122  102.80899811    0.41999999    2.75000000
   18.86694527  103.92099762    0.44000000    2.75000000
   18.87000084  104.00700378    0.44000000    2.75000000
   18.87611198  104.00700378    0.44000000    2.75000000
   18.88027763  114.45500183    0.46000001    2.75000000
   18.88333321  110.50499725    0.47999999    2.75000000
   18.88666725  111.73500061    0.47999999    2.75000000
   18.88999939  109.77899933    0.46000001    2.75000000
   18.89305496  114.20999908    0.46000001    2.75000000
   18.89638901  112.99600220    0.46000001    2.75000000
   18.89944458  113.37799835    0.46000001    2.75000000
   18.90277672  110.25800323    0.46000001    2.75000000
   18.90611076  109.01100159    0.44000000    2.75000000
   18.90916634  101.51200104    0.41999999    2.75000000
   18.91250038  103.50000000    0.40000001    2.73000002
   18.91305542  100.32299805    0.40000001    2.73000002
   18.91888809  100.32299805    0.38000000    2.75000000
   18.92305565  100.20800018    0.38000000    2.73000002
   18.92638779  105.28500366    0.40000001    2.75000000
   18.92944336  107.46800232    0.38000000    2.75000000
   18.93277740  106.06600189    0.38000000    2.75000000
   18.93610954  111.19599915    0.38000000    2.75000000
   18.93916512  109.04699707    0.38000000    2.75000000
   18.94249916  105.78399658    0.38000000    2.75000000
   18.94583321  113.98200226    0.38000000    2.75000000
   18.94638824  109.71099854    0.38000000    2.75000000
   18.94916534  107.06300354    0.36000001    2.75000000
   18.95250130  106.70899963    0.36000001    2.75000000
   18.95583344  107.97399902    0.36000001    2.75000000
   18.96166801  107.97399902    0.40000001    2.75000000
   18.96583366  108.02700043    0.38000000    2.75000000
   18.96916771  102.68000031    0.38000000    2.75000000
   18.97222328  111.70300293    0.38000000    2.75000000
   18.97555542   97.63839722    0.36000001    2.75000000
   18.97888947  103.80200195    0.36000001    2.75000000
   18.97972298  101.53299713    0.36000001    2.75000000
   18.98222351  107.14800262    0.38000000    2.75000000
   18.98555565  109.91300201    0.36000001    2.75000000
   18.98888969  109.26200104    0.36000001    2.75000000
   18.99194527  105.65699768    0.36000001    2.75000000
   18.99527740  116.46299744    0.36000001    2.75000000
   18.99861145  104.16000366    0.36000001    2.75000000
   19.00472260  104.16000366    0.36000001    2.75000000
   19.00888824  107.44699860    0.36000001    2.75000000
   19.01194382  113.44000244    0.36000001    2.75000000
   19.01305580  106.35500336    0.36000001    2.73000002
   19.01555634  107.91500092    0.38000000    2.75000000
   19.01888847  107.08399963    0.36000001    2.73000002
   19.02222252  103.78700256    0.38000000    2.75000000
   19.02527809  103.21399689    0.36000001    2.75000000
   19.02861023  106.88300323    0.36000001    2.75000000
   19.03194427  105.62400055    0.36000001    2.73000002
   19.03499985  101.17099762    0.38000000    2.75000000
   19.03833199  113.50099945    0.36000001    2.75000000
   19.04138756  113.61799622    0.36000001    2.75000000
   19.04749870  113.61799622    0.38000000    2.73000002
   19.05166626  104.56700134    0.40000001    2.73000002
   19.05472183  101.99400330    0.40000001    2.75000000
   19.05805397  105.29900360    0.38000000    2.73000002
   19.06138802  105.83499908    0.38000000    2.73000002
   19.06444359  101.89099884    0.38000000    2.75000000
   19.06777954  104.03399658    0.38000000    2.75000000
   19.07083511   93.23120117    0.38000000    2.73000002
   19.07416725   98.96440125    0.40000001    2.75000000
   19.07750130  110.35600281    0.40000001    2.73000002
   19.07972336  102.11399841    0.40000001    2.73000002
   19.08111191  100.28700256    0.40000001    2.73000002
   19.08416748  108.09799957    0.38000000    2.75000000
   19.09027863  108.09799957    0.38000000    2.73000002
   19.09444427  106.40399933    0.38000000    2.73000002
   19.09777832  102.57900238    0.38000000    2.73000002
   19.10083389  117.44300079    0.38000000    2.73000002
   19.10416794   98.17199707    0.38000000    2.75000000
   19.10750008   98.99900055    0.38000000    2.75000000
   19.11083412  106.32099915    0.38000000    2.75000000
   19.11305618   98.92559814    0.38000000    2.73000002
   19.11416626  103.85299683    0.38000000    2.73000002
   19.11750031  103.34700012    0.38000000    2.73000002
   19.12083435   97.86969757    0.40000001    2.73000002
   19.12388992   99.57869720    0.38000000    2.73000002
   19.12722206  100.07900238    0.38000000    2.73000002
   19.13305473  100.07900238    0.38000000    2.75000000
   19.13722229  108.14299774    0.38000000    2.73000002
   19.14055634   98.57199860    0.38000000    2.75000000
   19.14361191  104.90100098    0.40000001    2.73000002
   19.14638901  106.22200012    0.40000001    2.73000002
   19.14749908  104.05500031    0.40000001    2.73000002
   19.15055466  110.18599701    0.40000001    2.73000002
   19.15388870  104.51200104    0.40000001    2.73000002
   19.15694427  102.09600067    0.40000001    2.75000000
   19.16027832  104.58799744    0.40000001    2.73000002
   19.16361046   95.88770294    0.40000001    2.73000002
   19.16666603  102.77600098    0.40000001    2.73000002
   19.17000008   96.59320068    0.40000001    2.75000000
   19.17611122   96.59320068    0.40000001    2.75000000
   19.18000031  108.97100067    0.40000001    2.73000002
   19.18333244  109.35700226    0.40000001    2.73000002
   19.18666649  103.45300293    0.40000001    2.73000002
   19.18999863  101.56500244    0.40000001    2.73000002
   19.19305420  106.58599854    0.40000001    2.73000002
   19.19638824   97.37770081    0.40000001    2.73000002
   19.19972038  105.84799957    0.41999999    2.73000002
   19.20277786  119.56800079    0.41999999    2.73000002
   19.20611191  109.89099884    0.41999999    2.75000000
   19.20944595   99.57589722    0.41999999    2.73000002
   19.21250153  100.21399689    0.41999999    2.73000002
   19.21305656   97.92520142    0.41999999    2.73000002
   19.21888924   97.92520142    0.44000000    2.73000002
   19.22305679   99.58889771    0.41999999    2.73000002
   19.22611237  101.74500275    0.44000000    2.73000002
   19.22944450   96.51779938    0.44000000    2.73000002
   19.23277855  107.82700348    0.46000001    2.73000002
   19.23583412  102.65299988    0.46000001    2.73000002
   19.23916626  101.43000031    0.44000000    2.71000004
   19.24222183   99.75409698    0.44000000    2.73000002
   19.24555588  108.72799683    0.44000000    2.73000002
   19.24638939   99.05339813    0.44000000    2.73000002
   19.24916649   98.47250366    0.41999999    2.75000000
   19.25222206  101.42500305    0.41999999    2.73000002
   19.25555611  105.66999817    0.41999999    2.73000002
   19.26166725  105.66999817    0.40000001    2.73000002
   19.26583290   99.11109924    0.38000000    2.73000002
   19.26916695  103.89299774    0.40000001    2.73000002
   19.27222252  104.70600128    0.40000001    2.73000002
   19.27555466  110.05899811    0.40000001    2.73000002
   19.27861023  107.51999664    0.40000001    2.73000002
   19.27972221  108.28800201    0.40000001    2.73000002
   19.28249931  112.81400299    0.40000001    2.73000002
   19.28555489  107.88300323    0.40000001    2.73000002
   19.28888893  106.32700348    0.40000001    2.73000002
   19.29194450  106.93099976    0.40000001    2.73000002
   19.29527664  100.28800201    0.40000001    2.73000002
   19.29861069  103.80799866    0.41999999    2.73000002
   19.30444336  103.80799866    0.41999999    2.73000002
   19.30861092  112.90200043    0.41999999    2.73000002
   19.31194305   97.43990326    0.44000000    2.73000002
   19.31305504  108.98400116    0.46000001    2.71000004
   19.31555557  111.16400146    0.46000001    2.71000004
   19.31861115   96.58149719    0.46000001    2.71000004
   19.32194519  103.94300079    0.47999999    2.73000002
   19.32527924  112.20300293    0.47999999    2.73000002
   19.32833481  110.33100128    0.47999999    2.73000002
   19.33166695  100.90499878    0.47999999    2.73000002
   19.33500099  107.78700256    0.46000001    2.73000002
   19.33805656  100.31900024    0.44000000    2.73000002
   19.34138870  107.61100006    0.44000000    2.73000002
   19.34749985  107.61100006    0.46000001    2.75000000
   19.35138893  105.42299652    0.46000001    2.73000002
   19.35472298   97.11699677    0.44000000    2.73000002
   19.35805511  106.61100006    0.44000000    2.71000004
   19.36111069   99.78839874    0.46000001    2.73000002
   19.36444473  104.31900024    0.46000001    2.73000002
   19.36777878  110.77999878    0.46000001    2.73000002
   19.37083435  104.80799866    0.44000000    2.73000002
   19.37416649   92.38259888    0.44000000    2.71000004
   19.37722206  104.72299957    0.44000000    2.73000002
   19.38000107  102.02700043    0.44000000    2.73000002
   19.38111115  105.09300232    0.44000000    2.73000002
   19.38444519  106.91699982    0.41999999    2.71000004
   19.39027786  106.91699982    0.41999999    2.71000004
   19.39444351  106.50800323    0.41999999    2.73000002
   19.39749908  106.18599701    0.41999999    2.71000004
   19.40083313  107.26100159    0.41999999    2.73000002
   19.40416718   99.18540192    0.41999999    2.71000004
   19.40722275  101.22200012    0.44000000    2.71000004
   19.41055489  106.79000092    0.41999999    2.71000004
   19.41305542  106.55899811    0.41999999    2.71000004
   19.41416550  111.81999969    0.41999999    2.71000004
   19.41722107  119.05899811    0.41999999    2.71000004
   19.42055511  110.22299957    0.40000001    2.71000004
   19.42388916  104.29399872    0.40000001    2.71000004
   19.42694473  109.49900055    0.40000001    2.71000004
   19.43305397  109.49900055    0.38000000    2.73000002
   19.43722153  111.62100220    0.38000000    2.73000002
   19.44055557  102.31300354    0.38000000    2.71000004
   19.44388771  101.44400024    0.38000000    2.71000004
   19.44638824  112.31400299    0.38000000    2.71000004
   19.44749832  104.33200073    0.38000000    2.71000004
   19.45055580  109.66500092    0.36000001    2.71000004
   19.45388985  106.06700134    0.36000001    2.71000004
   19.45694542  102.54900360    0.36000001    2.71000004
   19.46027946  124.55799866    0.38000000    2.71000004
   19.46361160  111.42099762    0.38000000    2.71000004
   19.46666718  111.68399811    0.38000000    2.71000004
   19.47000122  116.58499908    0.38000000    2.71000004
   19.47583389  116.58499908    0.38000000    2.71000004
   19.48000145  103.51899719    0.38000000    2.71000004
   19.48333359  120.42900085    0.38000000    2.71000004
   19.48638916  107.02600098    0.40000001    2.71000004
   19.48972321   99.81809998    0.38000000    2.71000004
   19.49305534  105.24099731    0.38000000    2.71000004
   19.49611092  108.39800262    0.38000000    2.71000004
   19.49944496  104.01200104    0.36000001    2.71000004
   19.50277710  106.42900085    0.36000001    2.71000004
   19.50583267  112.52799988    0.38000000    2.71000004
   19.50916672  114.83100128    0.38000000    2.71000004
   19.51250076  112.33599854    0.38000000    2.71000004
   19.51305580  113.55200195    0.38000000    2.71000004
   19.51888847  113.55200195    0.38000000    2.71000004
   19.52277756  102.38999939    0.36000001    2.71000004
   19.52611160  115.30899811    0.36000001    2.71000004
   19.52944374  114.71600342    0.38000000    2.71000004
   19.53249931   98.90750122    0.36000001    2.71000004
   19.53583336  115.36900330    0.38000000    2.71000004
   19.53916550  105.72799683    0.36000001    2.71000004
   19.54222107  108.85600281    0.36000001    2.71000004
   19.54555511  104.77100372    0.36000001    2.71000004
   19.54638863  107.72899628    0.36000001    2.71000004
   19.54916573  111.47299957    0.36000001    2.71000004
   19.55222130  110.41300201    0.38000000    2.71000004
   19.55555534  102.13999939    0.36000001    2.71000004
   19.56166649  102.13999939    0.38000000    2.69000006
   19.56583214  109.01300049    0.36000001    2.71000004
   19.56888962  111.30799866    0.38000000    2.69000006
   19.57222366  107.85299683    0.38000000    2.69000006
   19.57555580  106.79000092    0.36000001    2.69000006
   19.57861137  106.37799835    0.36000001    2.69000006
   19.57972336  106.63600159    0.36000001    2.69000006
   19.58222389  106.21600342    0.36000001    2.71000004
   19.58527756  104.37000275    0.36000001    2.69000006
   19.58861160  107.20300293    0.36000001    2.71000004
   19.59194565  116.98600006    0.36000001    2.71000004
   19.59500122  107.36299896    0.36000001    2.69000006
   19.59833336  100.92500305    0.36000001    2.71000004
   19.60444450  100.92500305    0.38000000    2.69000006
   19.60861206  110.62799835    0.41999999    2.69000006
   19.61194420  109.20600128    0.41999999    2.69000006
   19.61305618  103.93900299    0.44000000    2.69000006
   19.61555672  105.22299957    0.44000000    2.69000006
   19.61861038  100.54699707    0.46000001    2.69000006
   19.62194443  102.29499817    0.46000001    2.69000006
   19.62527847   99.60790253    0.47999999    2.69000006
   19.62833405   97.79869843    0.47999999    2.69000006
   19.63166618  108.39900208    0.46000001    2.69000006
   19.63500023  103.93299866    0.44000000    2.69000006
   19.63805580  108.60800171    0.41999999    2.71000004
   19.64138794   98.77850342    0.40000001    2.71000004
   19.64722252   98.77850342    0.40000001    2.69000006
   19.65138817  107.51399994    0.40000001    2.69000006
   19.65472221  106.27700043    0.40000001    2.69000006
   19.65805435  106.26799774    0.40000001    2.69000006
   19.66110992   98.24289703    0.40000001    2.69000006
   19.66444397  111.09100342    0.40000001    2.69000006
   19.66749954  106.09500122    0.38000000    2.69000006
   19.67083359   97.89309692    0.38000000    2.71000004
   19.67416573  104.19999695    0.38000000    2.69000006
   19.67749977  111.12599945    0.40000001    2.69000006
   19.67972183  112.11199951    0.40000001    2.69000006
   19.68111038  109.75299835    0.40000001    2.69000006
   19.68444443  100.61000061    0.40000001    2.69000006
   19.69027710  100.61000061    0.40000001    2.69000006
   19.69416618  107.10600281    0.40000001    2.69000006
   19.69749832  102.83899689    0.40000001    2.69000006
   19.70083427  114.39299774    0.40000001    2.69000006
   19.70416832  116.65899658    0.40000001    2.69000006
   19.70722389  109.39399719    0.40000001    2.69000006
   19.71055603  102.22000122    0.40000001    2.69000006
   19.71305656  113.56199646    0.41999999    2.69000006
   19.71416664  108.51699829    0.41999999    2.69000006
   19.71722221  103.00900269    0.41999999    2.69000006
   19.72055626  108.78099823    0.41999999    2.69000006
   19.72389030  108.72799683    0.44000000    2.69000006
   19.72694588  110.23799896    0.41999999    2.69000006
   19.73305511  110.23799896    0.46000001    2.69000006
   19.73722267  110.05200195    0.47999999    2.67000008
   19.74027824   95.72810364    0.47999999    2.69000006
   19.74361229  103.39099884    0.47999999    2.67000008
   19.74638939  113.58799744    0.47999999    2.67000008
   19.74722290  107.61499786    0.47999999    2.67000008
   19.75027847  106.16799927    0.46000001    2.67000008
   19.75361061  117.26300049    0.46000001    2.67000008
   19.75694466  116.44400024    0.46000001    2.69000006
   19.76000023  103.58000183    0.46000001    2.69000006
   19.76333427  109.54499817    0.46000001    2.69000006
   19.76666641  103.14199829    0.46000001    2.67000008
   19.76972198  111.14299774    0.46000001    2.69000006
   19.77583313  111.14299774    0.47999999    2.69000006
   19.78000069  105.04599762    0.47999999    2.67000008
   19.78305435  104.25000000    0.47999999    2.67000008
   19.78638840  109.24099731    0.50000000    2.67000008
   19.78972244  108.59400177    0.50000000    2.67000008
   19.79305458  113.33499908    0.50000000    2.67000008
   19.79611015  103.56900024    0.51999998    2.67000008
   19.79944420  108.96600342    0.51999998    2.67000008
   19.80277634  110.45500183    0.51999998    2.67000008
   19.80583191  108.40899658    0.50000000    2.67000008
   19.80916595  110.29599762    0.50000000    2.67000008
   19.81222153  110.11299896    0.51999998    2.67000008
   19.81305504  119.56500244    0.50000000    2.67000008
   19.83388901  119.56500244    0.51999998    2.67000008
   19.83777809  111.28099823    0.51999998    2.67000008
   19.84111214  105.95099640    0.51999998    2.67000008
   19.84444427  110.56300354    0.51999998    2.67000008
   19.84638977  108.68800354    0.55000001    2.67000008
   19.84805679  100.40399933    0.55000001    2.67000008
   19.85138893  107.26399994    0.56999999    2.67000008
   19.85444450  114.95200348    0.56999999    2.67000008
   19.85777855  114.86799622    0.56999999    2.67000008
   19.86083412  115.52500153    0.58999997    2.67000008
   19.86416626  107.47499847    0.58999997    2.67000008
   19.86750031  113.30999756    0.58999997    2.67000008
   19.87055588  113.26999664    0.58999997    2.66000009
   19.87638855  113.26999664    0.61000001    2.67000008
   19.88055611  109.89600372    0.61000001    2.67000008
   19.88388824  107.92900085    0.63000000    2.66000009
   19.88722229  106.47299957    0.61000001    2.67000008
   19.89027786  105.70099640    0.58999997    2.66000009
   19.89361191  107.15100098    0.56999999    2.67000008
   19.89666748  104.46900177    0.55000001    2.66000009
   19.89999962  110.77300262    0.56999999    2.66000009
   19.90333366  116.94899750    0.56999999    2.66000009
   19.90638924  103.84799957    0.56999999    2.66000009
   19.90972137  114.68499756    0.56999999    2.67000008
   19.91305542  105.29499817    0.56999999    2.67000008
   19.91333389  111.99800110    0.56999999    2.67000008
   19.91944313  111.99800110    0.56999999    2.66000009
   19.92333221  113.26200104    0.56999999    2.66000009
   19.92666626  105.21700287    0.56999999    2.66000009
   19.93000031  119.34100342    0.56999999    2.67000008
   19.93305397  112.60299683    0.56999999    2.66000009
   19.93638802  109.53900146    0.56999999    2.66000009
   19.93972206  111.47399902    0.56999999    2.66000009
   19.94277763  109.99600220    0.56999999    2.66000009
   19.94610977  120.32399750    0.56999999    2.66000009
   19.94666672  114.05999756    0.56999999    2.67000008
   19.94972038  111.51399994    0.56999999    2.67000008
   19.95305634  110.93000031    0.56999999    2.67000008
   19.95611191  137.08000183    0.56999999    2.66000009
   19.96222305  137.08000183    0.56999999    2.66000009
   19.96638870  119.97299957    0.58999997    2.66000009
   19.96972275  121.64299774    0.58999997    2.66000009
   19.97277832  122.05699921    0.58999997    2.66000009
   19.97611237  116.89299774    0.58999997    2.67000008
   19.97916794  136.30799866    0.58999997    2.66000009
   19.98000145  108.59200287    0.58999997    2.66000009
   19.98277855  105.01599884    0.58999997    2.66000009
   19.98611069  124.15899658    0.58999997    2.66000009
   19.98916626  118.81900024    0.58999997    2.66000009
   19.99250031  111.44699860    0.61000001    2.66000009
   19.99583435  124.06700134    0.61000001    2.66000009
   19.99888992  114.59400177    0.63000000    2.66000009
   20.00499916  114.59400177    0.63000000    2.66000009
   20.00916672  109.71600342    0.64999998    2.66000009
   20.01250076  109.88700104    0.64999998    2.66000009
   20.01333427  114.90100098    0.64999998    2.66000009
   20.01611137  109.44300079    0.64999998    2.66000009
   20.01944351  107.05400085    0.64999998    2.66000009
   20.02249908  111.89600372    0.64999998    2.66000009
   20.02583313  108.22599792    0.64999998    2.64000010
   20.02888870  118.93199921    0.64999998    2.66000009
   20.03222275  119.43599701    0.64999998    2.66000009
   20.03555489  118.13800049    0.63000000    2.66000009
   20.03861046  122.23799896    0.63000000    2.66000009
   20.04194450  109.38200378    0.63000000    2.64000010
   20.04805565  109.38200378    0.64999998    2.66000009
   20.05194283  119.51100159    0.67000002    2.66000009
   20.05527687  125.31500244    0.67000002    2.66000009
   20.05861092  112.56099701    0.70999998    2.64000010
   20.06166649  115.25900269    0.69000000    2.64000010
   20.06499863  105.72299957    0.69000000    2.64000010
   20.06833458  104.48200226    0.69000000    2.64000010
   20.07139015  115.58899689    0.67000002    2.66000009
   20.07472229  124.46700287    0.67000002    2.64000010
   20.07777786  117.24500275    0.64999998    2.64000010
   20.08000183  105.61699677    0.64999998    2.64000010
   20.08139038  103.59899902    0.64999998    2.64000010
   20.08472252  101.09999847    0.64999998    2.64000010
   20.09083366  101.09999847    0.73000002    2.64000010
   20.09500122  127.63400269    0.70999998    2.64000010
   20.09805679  122.00700378    0.70999998    2.64000010
   20.10138893  117.15200043    0.69000000    2.66000009
   20.10444450  119.37999725    0.69000000    2.64000010
   20.10777855  121.33100128    0.67000002    2.64000010
   20.11111069  120.80400085    0.64999998    2.64000010
   20.11333466  117.32800293    0.64999998    2.64000010
   20.11472321  119.45500183    0.63000000    2.64000010
   20.11805534  110.88300323    0.63000000    2.64000010
   20.12111092  118.06600189    0.63000000    2.64000010
   20.12444496  109.33100128    0.63000000    2.64000010
   20.12777710  112.23000336    0.64999998    2.64000010
   20.13361168  112.23000336    0.64999998    2.64000010
   20.13777733  109.12300110    0.64999998    2.64000010
   20.14083290  111.01799774    0.64999998    2.64000010
   20.14416695  110.82399750    0.64999998    2.64000010
   20.14694405  113.18800354    0.64999998    2.64000010
   20.14777756  121.39499664    0.64999998    2.64000010
   20.15111160  114.65899658    0.64999998    2.64000010
   20.15444374  115.93399811    0.64999998    2.64000010
   20.15749931  117.20800018    0.64999998    2.64000010
   20.16083336  102.22899628    0.64999998    2.64000010
   20.16388893  120.84400177    0.67000002    2.64000010
   20.16722107  114.19400024    0.67000002    2.64000010
   20.17055511  116.55699921    0.67000002    2.61999989
   20.17638779  116.55699921    0.69000000    2.64000010
   20.18055534  109.14600372    0.67000002    2.64000010
   20.18388748  115.59400177    0.67000002    2.64000010
   20.18694305  111.90299988    0.67000002    2.61999989
   20.19027710  115.55699921    0.64999998    2.61999989
   20.19361115  110.05699921    0.64999998    2.61999989
   20.19666672  115.34500122    0.64999998    2.64000010
   20.20000076  114.86100006    0.64999998    2.64000010
   20.20305634  111.26000214    0.64999998    2.61999989
   20.20639038  104.76499939    0.64999998    2.61999989
   20.20972252   99.60820007    0.64999998    2.61999989
   20.21277809  106.04000092    0.64999998    2.61999989
   20.21361160  116.24600220    0.64999998    2.61999989
   20.21944427  116.24600220    0.67000002    2.61999989
   20.22333336  112.05699921    0.67000002    2.61999989
   20.22666740  103.23600006    0.67000002    2.64000010
   20.23000145  118.48000336    0.67000002    2.64000010
   20.23305511  111.99800110    0.67000002    2.61999989
   20.23638916  118.71199799    0.67000002    2.61999989
   20.23972321  119.94599915    0.67000002    2.61999989
   20.24277878  120.10399628    0.67000002    2.61999989
   20.24611092  115.69300079    0.69000000    2.61999989
   20.24694443  113.88800049    0.69000000    2.61999989
   20.24972153  119.28500366    0.67000002    2.61999989
   20.25305557  112.80400085    0.67000002    2.61999989
   20.25638962  116.89399719    0.67000002    2.61999989
   20.26222229  116.89399719    0.67000002    2.61999989
   20.26638794  187.83000183    0.67000002    2.61999989
   20.26944351  107.40699768    0.67000002    2.64000010
   20.27277756  117.44899750    0.69000000    2.61999989
   20.27583313  115.75099945    0.67000002    2.61999989
   20.27916718  128.12300110    0.67000002    2.61999989
   20.28027725  127.91799927    0.67000002    2.61999989
   20.28277779  120.69400024    0.67000002    2.61999989
   20.28610992  127.44499969    0.67000002    2.61999989
   20.28916550  126.75399780    0.67000002    2.61999989
   20.29249954  139.63699341    0.69000000    2.61999989
