    HOUR (UT)   FLARE FACTOR    SKY TESTER    SUN TESTER
   12.16361046   -1.00000000   -1.00000000   -1.00000000
   12.20694447  150.63800049    2.01999998    1.94000006
   12.21000004  143.07200623    2.00000000    1.94000006
   12.21333313  157.25999451    2.00000000    1.94000006
   12.21666622  152.51100159    2.00000000    1.94000006
   12.21972179  152.61900330    2.00000000    1.94000006
   12.22305489  150.69000244    2.00000000    1.94000006
   12.22722149  150.69000244    1.98000002    1.96000004
   12.23138809  146.49800110    1.98000002    1.94000006
   12.23444462  148.02000427    1.98000002    1.96000004
   12.23777771  147.16099548    1.98000002    1.96000004
   12.24000072  142.00700378    1.96000004    1.96000004
   12.24138927  145.35499573    1.96000004    1.96000004
   12.24472237  149.49099731    1.94000006    1.98000002
   12.24777794  154.84700012    1.91999996    1.96000004
   12.25111103  143.58099365    1.91999996    1.98000002
   12.25444412  150.38200378    1.89999998    1.98000002
   12.25749969  142.23500061    1.88000000    1.98000002
   12.26083374  150.87399292    1.88000000    1.98000002
   12.26388931  130.43299866    1.88000000    1.98000002
   12.26999950  130.43299866    1.86000001    1.98000002
   12.27416611  153.27499390    1.86000001    2.00000000
   12.27722168  153.95799255    1.86000001    1.98000002
   12.28055573  147.06500244    1.85000002    2.00000000
   12.28388977  144.12100220    1.85000002    2.00000000
   12.28722286  151.30400085    1.85000002    2.00000000
   12.29027843  154.77999878    1.83000004    2.00000000
   12.29361153  149.19099426    1.83000004    2.00000000
   12.29694462  163.20799255    1.83000004    2.00000000
   12.30000019  165.47999573    1.83000004    2.00000000
   12.30333328  166.00199890    1.80999994    2.00000000
   12.30638885  155.38000488    1.83000004    2.01999998
   12.30694485  165.34500122    1.83000004    2.01999998
   12.31277752  165.34500122    1.80999994    2.01999998
   12.31694412  151.00399780    1.83000004    2.01999998
   12.32027817  151.54200745    1.83000004    2.01999998
   12.32333374  150.38400269    1.83000004    2.01999998
   12.32666683  145.69500732    1.83000004    2.01999998
   12.32999992  151.91099548    1.83000004    2.01999998
   12.33305550  143.71699524    1.83000004    2.01999998
   12.33638859  150.06100464    1.83000004    2.03999996
   12.33944416  154.42399597    1.80999994    2.03999996
   12.34027767  151.41999817    1.80999994    2.03999996
   12.34305477  159.08000183    1.80999994    2.03999996
   12.34638882  148.06599426    1.78999996    2.03999996
   12.34944439  146.82000732    1.78999996    2.03999996
   12.35555553  146.82000732    1.76999998    2.03999996
   12.35972214  149.43400574    1.75000000    2.03999996
   12.36305618  146.13499451    1.75000000    2.05999994
   12.36638927  149.72300720    1.75000000    2.05999994
   12.36944485  150.93600464    1.75000000    2.05999994
   12.37277794  149.38000488    1.73000002    2.05999994
   12.37361145  143.22700500    1.73000002    2.05999994
   12.37638855  148.36900330    1.73000002    2.05999994
   12.37972260  142.63299561    1.71000004    2.05999994
   12.38277817  137.64900208    1.71000004    2.05999994
   12.38611126  146.72300720    1.71000004    2.07999992
   12.38944435  161.14599609    1.69000006    2.05999994
   12.39249992  159.15600586    1.69000006    2.07999992
   12.39861107  159.15600586    1.66999996    2.07999992
   12.40277767  149.03999329    1.66999996    2.07999992
   12.40583324  159.50199890    1.66999996    2.07999992
   12.40694427  144.76800537    1.66999996    2.07999992
   12.40944386  160.22700500    1.66999996    2.07999992
   12.41277695  152.14900208    1.64999998    2.07999992
   12.41583252  146.43800354    1.64999998    2.07999992
   12.41916656  151.58099365    1.64999998    2.07999992
   12.42250061  148.58900452    1.63000000    2.09999990
   12.42555618  146.70199585    1.63000000    2.09999990
   12.42888927  153.15100098    1.63000000    2.09999990
   12.43194485  139.18800354    1.63000000    2.09999990
   12.43527794  142.99400330    1.63000000    2.09999990
   12.44138908  142.99400330    1.61000001    2.09999990
   12.44555569  143.79800415    1.61000001    2.09999990
   12.44888878  140.49699402    1.60000002    2.09999990
   12.45194435  156.22099304    1.60000002    2.09999990
   12.45527744  141.47900391    1.60000002    2.11999989
   12.45833302  144.46299744    1.60000002    2.09999990
   12.46166611  145.38099670    1.58000004    2.09999990
   12.46500015  152.51300049    1.58000004    2.11999989
   12.46805477  152.01300049    1.58000004    2.11999989
   12.47138882  149.30999756    1.58000004    2.11999989
   12.47361088  144.24200439    1.55999994    2.11999989
   12.47499943  145.31500244    1.55999994    2.11999989
   12.47833252  139.27799988    1.55999994    2.11999989
   12.48416710  139.27799988    1.53999996    2.13000011
   12.48833370  138.11000061    1.53999996    2.11999989
   12.49166679  150.61399841    1.53999996    2.13000011
   12.49472237  145.66400146    1.51999998    2.13000011
   12.49805546  145.36099243    1.51999998    2.13000011
   12.50138855  144.10099792    1.51999998    2.11999989
   12.50444412  151.79400635    1.51999998    2.11999989
   12.50694466  139.13099670    1.50000000    2.13000011
   12.50805569  136.85299683    1.48000002    2.13000011
   12.51138878  141.44200134    1.46000004    2.13000011
   12.51444435  144.62899780    1.46000004    2.13000011
   12.51777744  157.13200378    1.46000004    2.13000011
   12.52111053  143.40800476    1.41999996    2.17000008
   12.52694416  143.40800476    1.39999998    2.17000008
   12.53111076  146.24600220    1.39999998    2.15000010
   12.53444481  137.18299866    1.38000000    2.15000010
   12.53777790  152.23599243    1.38000000    2.15000010
   12.54027843  146.27000427    1.39999998    2.17000008
   12.54138947  136.79100037    1.39999998    2.17000008
   12.54472256  138.14500427    1.38000000    2.17000008
   12.54777813  147.27499390    1.39999998    2.17000008
   12.55111122  141.05499268    1.39999998    2.17000008
   12.55444431  148.20700073    1.39999998    2.17000008
   12.55749989  142.25700378    1.39999998    2.17000008
   12.56083393  139.75999451    1.39999998    2.17000008
   12.56388950  142.39399719    1.39999998    2.17000008
   12.56999969  142.39399719    1.39999998    2.17000008
   12.57416630  144.75500488    1.41999996    2.17000008
   12.57722187  154.50599670    1.41999996    2.17000008
   12.58055592  143.30900574    1.41999996    2.17000008
   12.58361053  150.22700500    1.41999996    2.19000006
   12.58694458  147.97000122    1.41999996    2.19000006
   12.59027767  150.77499390    1.41999996    2.21000004
   12.59333324  144.34500122    1.41999996    2.19000006
   12.59666634  159.63699341    1.39999998    2.19000006
   12.60000038  149.64999390    1.39999998    2.19000006
   12.60305595  154.41099548    1.39999998    2.19000006
   12.60638905  147.05799866    1.39999998    2.19000006
   12.60694504  148.82600403    1.39999998    2.19000006
   12.61277771  148.82600403    1.38000000    2.19000006
   12.61694431  149.74600220    1.36000001    2.19000006
   12.61999989  151.58999634    1.36000001    2.21000004
   12.62333393  143.17199707    1.36000001    2.21000004
   12.62666702  153.63699341    1.36000001    2.21000004
   12.62972260  146.77099609    1.36000001    2.21000004
   12.63305569  145.91099548    1.34000003    2.21000004
   12.63638878  138.93899536    1.34000003    2.21000004
   12.63944435  151.09199524    1.34000003    2.21000004
   12.64027786  148.29100037    1.33000004    2.21000004
   12.64305496  151.14700317    1.33000004    2.21000004
   12.64638901  152.97599792    1.33000004    2.21000004
   12.64944458  145.11500549    1.33000004    2.23000002
   12.65555477  145.11500549    1.30999994    2.21000004
   12.65972137  163.19599915    1.30999994    2.23000002
   12.66305542  159.11599731    1.30999994    2.23000002
   12.66611099  158.73599243    1.30999994    2.23000002
   12.66944504  159.22399902    1.28999996    2.23000002
   12.67277813  160.96099854    1.28999996    2.23000002
   12.67361164  155.61000061    1.30999994    2.23000002
   12.67611122  156.18400574    1.28999996    2.23000002
   12.67944431  165.48899841    1.28999996    2.23000002
   12.68249989  150.45700073    1.28999996    2.23000002
   12.68583298  153.49600220    1.28999996    2.23000002
   12.68916702  152.85200500    1.28999996    2.23000002
   12.69222260  155.02799988    1.28999996    2.23000002
   12.69861126  155.02799988    1.28999996    2.25000000
   12.70249939  155.99200439    1.30999994    2.25000000
   12.70583344  148.31599426    1.30999994    2.23000002
   12.70722198  143.11099243    1.30999994    2.25000000
   12.70944405  153.28799438    1.30999994    2.25000000
   12.71277714  151.56799316    1.30999994    2.25000000
   12.71583271  139.22700500    1.30999994    2.25000000
   12.71916580  145.22999573    1.33000004    2.25000000
   12.72249985  154.46600342    1.33000004    2.25000000
   12.72555542  144.73599243    1.33000004    2.25000000
   12.72888851  143.55499268    1.33000004    2.25000000
   12.73222160  143.18600464    1.33000004    2.25000000
   12.73527813  146.28900146    1.30999994    2.25000000
   12.74138927  146.28900146    1.28999996    2.25000000
   12.74555588  153.61000061    1.26999998    2.26999998
   12.74861145  155.77400208    1.26999998    2.26999998
   12.75194454  143.46600342    1.26999998    2.26999998
   12.75527763  142.21400452    1.25000000    2.26999998
   12.75833321  145.98800659    1.25000000    2.26999998
   12.76166630  140.29899597    1.25000000    2.26999998
   12.76472187  139.53300476    1.23000002    2.26999998
   12.76805496  141.57000732    1.23000002    2.26999998
   12.77138901  142.76499939    1.23000002    2.26999998
   12.77388859  144.89999390    1.23000002    2.26999998
   12.77499962  139.02699280    1.23000002    2.26999998
   12.77833271  155.53799438    1.23000002    2.26999998
   12.78416729  155.53799438    1.23000002    2.26999998
   12.78861141  146.45300293    1.23000002    2.26999998
   12.79194450  155.12100220    1.23000002    2.26999998
   12.79500008  148.55200195    1.23000002    2.26999998
   12.79833412  148.14500427    1.23000002    2.26999998
   12.80166721  149.19000244    1.23000002    2.28999996
   12.80472279  151.68099976    1.23000002    2.28999996
   12.80722237  157.09100342    1.25000000    2.28999996
   12.80833340  146.63000488    1.23000002    2.28999996
   12.81166649  151.50300598    1.25000000    2.28999996
   12.81500053  139.91900635    1.25000000    2.28999996
   12.81805515  155.91999817    1.23000002    2.28999996
   12.82138920  151.49000549    1.25000000    2.28999996
   12.82694435  151.49000549    1.25000000    2.28999996
   12.83111095  156.45399475    1.25000000    2.28999996
   12.83444405  157.21299744    1.25000000    2.30999994
   12.83749962  160.23699951    1.26999998    2.30999994
   12.84055519  155.01499939    1.26999998    2.30999994
   12.84111118  159.09399414    1.26999998    2.30999994
   12.84444427  191.25199890    1.28999996    2.30999994
   12.84749985  179.74699402    1.28999996    2.28999996
   12.85083389  179.76499939    1.28999996    2.30999994
   12.85416698  203.22799683    1.30999994    2.30999994
   12.85722256  188.58500671    1.30999994    2.30999994
   12.86055565  189.96899414    1.33000004    2.30999994
   12.86388969  195.20899963    1.33000004    2.30999994
   12.86999989  195.20899963    1.34000003    2.30999994
   12.87388897  181.90800476    1.36000001    2.30999994
   12.87722206  194.80799866    1.36000001    2.32999992
   12.88055611  183.20899963    1.36000001    2.30999994
   12.88361073  190.93299866    1.36000001    2.32999992
   12.88694477  198.71400452    1.38000000    2.32999992
   12.89027786  158.61799622    1.38000000    2.30999994
   12.89361095  186.61300659    1.38000000    2.30999994
   12.89666653  146.85000610    1.38000000    2.30999994
   12.89999962  186.88999939    1.38000000    2.30999994
   12.90333271  160.65299988    1.36000001    2.32999992
   12.90638828  164.74400330    1.38000000    2.30999994
   12.90722179  163.32099915    1.38000000    2.30999994
   12.91277695  163.32099915    1.36000001    2.32999992
   12.91694450  175.32899475    1.36000001    2.30999994
   12.92000008  164.61999512    1.36000001    2.32999992
   12.92333412  157.22300720    1.36000001    2.30999994
   12.92666721  159.09899902    1.34000003    2.32999992
   12.92972279  166.78500366    1.36000001    2.32999992
   12.93305588  160.68899536    1.36000001    2.32999992
   12.93611145  152.48899841    1.36000001    2.34999990
   12.93944454  163.31199646    1.34000003    2.32999992
   12.94055557  152.42999268    1.36000001    2.32999992
   12.94305515  156.64399719    1.36000001    2.32999992
   12.94638920  152.91700745    1.34000003    2.32999992
   12.94972229  158.60200500    1.34000003    2.32999992
   12.95583344  158.60200500    1.34000003    2.32999992
   12.96027756  144.49299622    1.33000004    2.34999990
   12.96333313  144.38200378    1.33000004    2.32999992
   12.96666622  151.17700195    1.30999994    2.32999992
   12.96999931  145.30000305    1.30999994    2.34999990
   12.97305489  151.42300415    1.30999994    2.34999990
   12.97388840  142.50500488    1.30999994    2.34999990
   12.97666645  159.35800171    1.30999994    2.34999990
   12.97999954  152.19299316    1.30999994    2.34999990
   12.98333359  158.89300537    1.30999994    2.34999990
   12.98666668  161.42300415    1.30999994    2.34999990
   12.98972225  168.78999329    1.30999994    2.34999990
   12.99305534  156.75000000    1.30999994    2.34999990
   12.99833393  156.75000000    1.30999994    2.34999990
   13.00249958  154.86000061    1.30999994    2.36999989
   13.00583363  151.17900085    1.30999994    2.36999989
   13.00722218  154.38200378    1.30999994    2.36999989
   13.00916672  150.59399414    1.30999994    2.34999990
   13.01277733  154.93899536    1.30999994    2.36999989
   13.01583290  161.22700500    1.30999994    2.34999990
   13.01916599  160.87500000    1.33000004    2.36999989
   13.02222157  154.69599915    1.33000004    2.36999989
   13.02555561  151.38499451    1.34000003    2.34999990
   13.02888870  157.33999634    1.34000003    2.34999990
   13.03194427  153.02799988    1.34000003    2.34999990
   13.03527832  181.78799438    1.34000003    2.34999990
   13.04111195  181.78799438    1.36000001    2.34999990
   13.04527855  175.80799866    1.36000001    2.36999989
   13.04861164  163.79200745    1.36000001    2.36999989
   13.05194473  157.11399841    1.36000001    2.36999989
   13.05500031  161.22200012    1.36000001    2.36999989
   13.05833340  158.52900696    1.36000001    2.36999989
   13.06166649  164.25900269    1.36000001    2.36999989
   13.06472206  167.62199402    1.38000000    2.36999989
   13.06805515  162.35499573    1.38000000    2.36999989
   13.07138920  169.52000427    1.39999998    2.36999989
   13.07388878  161.76800537    1.38000000    2.36999989
   13.07472229  160.22300720    1.38000000    2.36999989
   13.07805538  171.81199646    1.39999998    2.36999989
   13.08416653  171.81199646    1.38000000    2.36999989
   13.08833313  171.60600281    1.39999998    2.36999989
   13.09138870  172.45100403    1.39999998    2.36999989
   13.09472179  173.00300598    1.39999998    2.36999989
   13.09777737  177.62500000    1.39999998    2.39000010
   13.10111141  179.05299377    1.41999996    2.39000010
   13.10444450  160.28799438    1.41999996    2.36999989
   13.10722256  159.86399841    1.44000006    2.39000010
   13.10777855  158.00300598    1.44000006    2.36999989
   13.11111164  161.96800232    1.44000006    2.39000010
   13.11444473  156.06799316    1.46000004    2.39000010
   13.11750031  152.82499695    1.46000004    2.39000010
   13.12083340  163.31199646    1.46000004    2.39000010
   13.12694454  163.31199646    1.48000002    2.36999989
   13.13111115  151.75100708    1.48000002    2.39000010
   13.13416672  145.71200562    1.46000004    2.39000010
   13.13749981  164.22799683    1.48000002    2.39000010
   13.14055538  162.50100708    1.48000002    2.39000010
   13.14111137  154.40100098    1.48000002    2.39000010
   13.14444447  143.84899902    1.48000002    2.39000010
   13.14777756  146.89900208    1.48000002    2.39000010
   13.15083313  138.74499512    1.48000002    2.39000010
   13.15416622  145.80700684    1.48000002    2.40000010
   13.15722179  148.38000488    1.48000002    2.39000010
   13.16055489  158.17100525    1.48000002    2.39000010
   13.16388893  148.28700256    1.46000004    2.39000010
   13.16972256  148.28700256    1.46000004    2.40000010
   13.17388916  138.16799927    1.46000004    2.40000010
   13.17722225  146.72399902    1.46000004    2.40000010
   13.18027782  141.52499390    1.46000004    2.39000010
   13.18361092  147.19900513    1.46000004    2.40000010
   13.18694496  150.41900635    1.48000002    2.40000010
   13.19000053  141.05200195    1.48000002    2.40000010
   13.19333363  139.59199524    1.48000002    2.40000010
   13.19638920  140.37100220    1.48000002    2.40000010
   13.19972229  144.47999573    1.50000000    2.40000010
   13.20305538  133.29699707    1.50000000    2.40000010
   13.20611095  140.24800110    1.50000000    2.40000010
   13.20722198  138.66499329    1.50000000    2.40000010
   13.22777748  138.66499329    1.50000000    2.40000010
   13.23194408  159.36999512    1.50000000    2.40000010
   13.23527813  154.54499817    1.48000002    2.40000010
   13.23833370  167.47200012    1.48000002    2.42000008
   13.24055576  163.21499634    1.50000000    2.40000010
   13.24194431  163.02099609    1.50000000    2.42000008
   13.24527836  178.12800598    1.50000000    2.40000010
   13.24861145  200.52000427    1.50000000    2.42000008
   13.25166702  174.27299500    1.50000000    2.40000010
   13.25500011  182.64199829    1.50000000    2.42000008
   13.25833321  165.11599731    1.50000000    2.42000008
   13.26138878  189.77699280    1.50000000    2.42000008
   13.26472187  181.17900085    1.51999998    2.42000008
   13.27055550  181.17900085    1.55999994    2.40000010
   13.27472210  182.05299377    1.55999994    2.42000008
   13.27805519  177.35600281    1.58000004    2.42000008
   13.28111076  180.54299927    1.58000004    2.42000008
   13.28444481  171.13600159    1.58000004    2.44000006
   13.28777790  181.63900757    1.58000004    2.42000008
   13.29083347  167.30400085    1.58000004    2.42000008
   13.29416752  182.32000732    1.58000004    2.44000006
   13.29722309  161.18699646    1.55999994    2.42000008
   13.30055618  167.44400024    1.55999994    2.42000008
   13.30388927  159.53500366    1.55999994    2.42000008
   13.30694485  169.58900452    1.55999994    2.42000008
   13.30749989  170.54699707    1.55999994    2.42000008
   13.31333351  170.54699707    1.55999994    2.42000008
   13.31750011  160.30000305    1.55999994    2.42000008
   13.32083321  158.93600464    1.53999996    2.42000008
   13.32416630  167.06700134    1.53999996    2.44000006
   13.32722187  159.78799438    1.53999996    2.44000006
   13.33055592  157.02400208    1.53999996    2.44000006
   13.33361053  153.77400208    1.55999994    2.42000008
   13.33694458  160.13299561    1.55999994    2.44000006
   13.34027767  162.26400757    1.58000004    2.44000006
   13.34083271  162.00100708    1.55999994    2.42000008
   13.34388828  152.44999695    1.58000004    2.42000008
   13.34722233  161.75799561    1.55999994    2.42000008
   13.35027790  149.34100342    1.55999994    2.44000006
   13.35638905  149.34100342    1.53999996    2.44000006
   13.36055565  163.91000366    1.51999998    2.44000006
   13.36361122  175.17999268    1.50000000    2.44000006
   13.36694431  168.53199768    1.51999998    2.44000006
   13.36999989  157.32400513    1.48000002    2.44000006
   13.37333393  156.91299438    1.50000000    2.42000008
   13.37416649  160.33000183    1.50000000    2.42000008
   13.37694454  156.30400085    1.48000002    2.44000006
   13.38027763  163.44599915    1.48000002    2.44000006
   13.38333321  170.23399353    1.46000004    2.44000006
   13.38666630  164.25999451    1.46000004    2.46000004
   13.38972187  156.47999573    1.46000004    2.44000006
   13.39305496  155.99400330    1.46000004    2.46000004
   13.39916611  155.99400330    1.48000002    2.46000004
   13.40333271  151.34899902    1.48000002    2.44000006
   13.40638828  151.07000732    1.50000000    2.46000004
   13.40749931  157.06100464    1.50000000    2.46000004
   13.41027737  148.28199768    1.50000000    2.46000004
   13.41361046  152.57099915    1.51999998    2.46000004
   13.41666698  139.68600464    1.51999998    2.46000004
   13.42000008  143.84899902    1.51999998    2.46000004
   13.42333412  148.45899963    1.51999998    2.46000004
   13.42638874  157.36799622    1.51999998    2.46000004
   13.42972279  135.38099670    1.51999998    2.46000004
   13.43277836  137.25599670    1.51999998    2.46000004
   13.43611145  143.53300476    1.51999998    2.46000004
   13.44194412  143.53300476    1.53999996    2.46000004
   13.44611073  135.66799927    1.53999996    2.46000004
   13.44944477  141.12100220    1.53999996    2.46000004
   13.45249939  132.99499512    1.53999996    2.46000004
   13.45583344  135.26400757    1.51999998    2.46000004
   13.45916653  143.08700562    1.51999998    2.46000004
   13.46222210  146.99800110    1.50000000    2.46000004
   13.46555519  140.21499634    1.50000000    2.46000004
   13.46888828  136.18099976    1.50000000    2.46000004
   13.47194386  138.08500671    1.50000000    2.46000004
   13.47416592  136.99200439    1.50000000    2.46000004
   13.47555542  141.11799622    1.50000000    2.46000004
   13.47888851  128.53900146    1.50000000    2.46000004
   13.48472214  128.53900146    1.50000000    2.48000002
   13.48888874  127.54299927    1.51999998    2.46000004
   13.49222279  131.50799561    1.51999998    2.46000004
   13.49555588  120.33100128    1.51999998    2.46000004
   13.49861145  134.92199707    1.50000000    2.46000004
   13.50194454  130.67700195    1.51999998    2.46000004
   13.50500011  133.68200684    1.46000004    2.48000002
   13.50777817  148.88999939    1.48000002    2.48000002
   13.50888920  138.67500305    1.48000002    2.48000002
   13.51222229  135.13600159    1.44000006    2.46000004
   13.51555538  133.52799988    1.44000006    2.46000004
   13.51861095  153.80000305    1.41999996    2.48000002
   13.52194405  149.01400757    1.44000006    2.46000004
   13.52777767  149.01400757    1.41999996    2.46000004
   13.53194427  154.32699585    1.41999996    2.46000004
   13.53500080  155.67999268    1.44000006    2.46000004
   13.53833389  142.39599609    1.44000006    2.46000004
   13.54083347  142.76300049    1.44000006    2.46000004
   13.54194450  139.73399353    1.44000006    2.46000004
   13.54527855  158.97200012    1.44000006    2.44000006
   13.54833412  157.12899780    1.46000004    2.46000004
   13.55166721  163.65899658    1.46000004    2.46000004
   13.55472279  178.80999756    1.48000002    2.46000004
   13.55805588  159.84100342    1.50000000    2.44000006
   13.56138897  183.15699768    1.50000000    2.44000006
   13.56472206  180.58099365    1.50000000    2.46000004
   13.57055569  180.58099365    1.48000002    2.46000004
   13.57472229  169.69799805    1.48000002    2.46000004
   13.57777786  180.80400085    1.50000000    2.46000004
   13.58111095  170.04699707    1.50000000    2.46000004
   13.58444405  176.26600647    1.51999998    2.46000004
   13.58749962  155.43099976    1.51999998    2.46000004
   13.59083271  153.70500183    1.51999998    2.46000004
   13.59416676  155.25799561    1.50000000    2.46000004
   13.59722233  169.98300171    1.51999998    2.46000004
   13.60055637  173.98300171    1.51999998    2.46000004
   13.60361195  169.56900024    1.51999998    2.46000004
   13.60694504  164.22300720    1.55999994    2.46000004
   13.60750008  174.45300293    1.55999994    2.46000004
   13.61333370  174.45300293    1.58000004    2.46000004
   13.61750031  166.33700562    1.60000002    2.46000004
   13.62083340  159.89399719    1.61000001    2.46000004
   13.62388897  179.69099426    1.63000000    2.46000004
   13.62722206  142.37699890    1.63000000    2.46000004
   13.63055611  169.93299866    1.63000000    2.46000004
   13.63361073  146.54600525    1.63000000    2.46000004
   13.63694477  155.27699280    1.63000000    2.46000004
   13.64000034  169.87800598    1.64999998    2.46000004
   13.64083290  177.46299744    1.64999998    2.46000004
   13.64361095  162.72200012    1.64999998    2.46000004
   13.64694405  135.62199402    1.66999996    2.46000004
   13.64999962  187.99499512    1.66999996    2.46000004
   13.65611076  187.99499512    1.69000006    2.46000004
   13.66027737  175.14799500    1.69000006    2.46000004
   13.66361046  168.99299622    1.69000006    2.46000004
   13.66694450  160.48199463    1.66999996    2.46000004
   13.67000008  153.92999268    1.66999996    2.48000002
   13.67333412  167.21699524    1.69000006    2.48000002
   13.67416668  168.62699890    1.69000006    2.48000002
   13.67694473  149.44599915    1.69000006    2.48000002
   13.68027782  148.66499329    1.66999996    2.46000004
   13.68333340  140.56100464    1.69000006    2.46000004
   13.68666649  168.49099731    1.69000006    2.46000004
   13.69000053  157.65199280    1.69000006    2.48000002
   13.69305515  165.08799744    1.71000004    2.46000004
   13.69916630  165.08799744    1.71000004    2.48000002
   13.70333290  155.90800476    1.73000002    2.46000004
   13.70638847  161.16099548    1.75000000    2.48000002
   13.70749950  163.85400391    1.75000000    2.48000002
   13.71000004  164.18499756    1.76999998    2.48000002
   13.71333313  166.94400024    1.78999996    2.48000002
   13.71638870  140.63200378    1.78999996    2.48000002
   13.71972179  162.79899597    1.80999994    2.46000004
   13.72305489  164.37899780    1.80999994    2.46000004
   13.72611046  140.57000732    1.80999994    2.48000002
   13.72944355  154.11000061    1.80999994    2.48000002
   13.73277760  152.23199463    1.78999996    2.48000002
   13.73583317  162.12800598    1.78999996    2.48000002
   13.74194431  162.12800598    1.78999996    2.48000002
   13.74611092  154.91499329    1.76999998    2.48000002
   13.74916649  156.77600098    1.76999998    2.48000002
   13.75249958  172.54400635    1.75000000    2.48000002
   13.75583363  173.89500427    1.75000000    2.48000002
   13.75888920  170.94500732    1.75000000    2.48000002
   13.76222229  159.93600464    1.75000000    2.48000002
   13.76555538  145.30799866    1.76999998    2.48000002
   13.76861095  172.35899353    1.76999998    2.48000002
   13.77194405  161.71099854    1.75000000    2.48000002
   13.77416611  159.12399292    1.76999998    2.48000002
   13.77555561  158.52799988    1.76999998    2.48000002
   13.77888870  166.88400269    1.75000000    2.48000002
   13.78472233  166.88400269    1.75000000    2.48000002
   13.78888893  167.24299622    1.78999996    2.48000002
   13.79222298  160.24099731    1.76999998    2.48000002
   13.79527855  176.00500488    1.76999998    2.48000002
   13.79861164  180.91999817    1.76999998    2.48000002
   13.80194473  170.92300415    1.76999998    2.48000002
   13.80500031  185.69000244    1.78999996    2.48000002
   13.80749989  186.38600159    1.78999996    2.48000002
   13.80861092  173.03799438    1.76999998    2.48000002
   13.81194496  161.75799561    1.78999996    2.48000002
   13.81500053  152.42399597    1.76999998    2.48000002
   13.81833363  160.64100647    1.75000000    2.48000002
   13.82166672  179.10200500    1.75000000    2.48000002
   13.82750034  179.10200500    1.76999998    2.48000002
   13.83166695  171.64300537    1.78999996    2.48000002
   13.83500004  155.88299561    1.78999996    2.48000002
   13.83805561  157.75799561    1.78999996    2.50000000
   13.84083271  163.79899597    1.76999998    2.48000002
   13.84166622  169.72399902    1.76999998    2.48000002
   13.84499931  158.41499329    1.75000000    2.48000002
   13.84805489  182.58700562    1.75000000    2.48000002
   13.85138893  174.64999390    1.73000002    2.50000000
   13.85472298  171.06300354    1.73000002    2.48000002
   13.85777855  168.94299316    1.71000004    2.50000000
   13.86111164  176.99299622    1.71000004    2.48000002
   13.86416721  166.66200256    1.71000004    2.50000000
   13.87055588  166.66200256    1.69000006    2.50000000
   13.87472248  166.12500000    1.64999998    2.50000000
   13.87777805  171.79200745    1.64999998    2.50000000
   13.88111115  170.54600525    1.64999998    2.50000000
   13.88416672  155.63400269    1.64999998    2.50000000
   13.88749981  155.24400330    1.66999996    2.50000000
   13.89083290  154.84399414    1.66999996    2.50000000
   13.89388847  152.06399536    1.66999996    2.50000000
   13.89722252  162.15199280    1.66999996    2.50000000
   13.90055561  138.78100586    1.64999998    2.50000000
   13.90361118  152.58500671    1.64999998    2.50000000
   13.90694427  147.98699951    1.64999998    2.50000000
   13.90749931  144.43899536    1.63000000    2.50000000
   13.91333294  144.43899536    1.63000000    2.50000000
   13.91750050  156.63000488    1.61000001    2.50000000
   13.92055607  163.75900269    1.61000001    2.50000000
   13.92388916  150.25000000    1.61000001    2.51999998
   13.92722225  155.56399536    1.63000000    2.50000000
   13.93027782  158.86000061    1.63000000    2.50000000
   13.93361092  154.36999512    1.63000000    2.50000000
   13.93666649  152.58399963    1.63000000    2.50000000
   13.94000053  148.47799683    1.63000000    2.51999998
   13.94111156  161.67999268    1.63000000    2.51999998
   13.94361115  144.48199463    1.61000001    2.51999998
   13.94694424  150.25500488    1.60000002    2.50000000
   13.94999981  152.10299683    1.60000002    2.51999998
   13.95611095  152.10299683    1.61000001    2.51999998
   13.96027756  152.88699341    1.63000000    2.50000000
   13.96361065  162.29699707    1.64999998    2.50000000
   13.96666622  146.00900269    1.64999998    2.50000000
   13.96999931  155.68400574    1.66999996    2.50000000
   13.97305489  152.02400208    1.63000000    2.51999998
   13.97416592  152.30099487    1.63000000    2.51999998
   13.97666645  156.05900574    1.61000001    2.51999998
   13.97999954  148.05499268    1.63000000    2.51999998
   13.98305511  150.49200439    1.63000000    2.51999998
   13.98638916  152.71099854    1.66999996    2.51999998
   13.98972225  138.56300354    1.66999996    2.51999998
   13.99277782  145.41099548    1.69000006    2.50000000
   13.99888897  145.41099548    1.71000004    2.51999998
   14.00305557  155.28199768    1.75000000    2.50000000
   14.00638866  154.29499817    1.75000000    2.51999998
   14.00749969  143.03999329    1.76999998    2.50000000
   14.01000023  152.65499878    1.75000000    2.50000000
   14.01333332  156.35000610    1.75000000    2.51999998
   14.01638889  163.04499817    1.76999998    2.51999998
   14.01972198  152.55000305    1.76999998    2.51999998
   14.02305508  153.87800598    1.75000000    2.51999998
   14.02611065  140.06199646    1.75000000    2.51999998
   14.02944374  158.37399292    1.73000002    2.51999998
   14.03277779  136.95300293    1.73000002    2.51999998
   14.03583336  144.84100342    1.71000004    2.51999998
   14.04222298  144.84100342    1.69000006    2.51999998
   14.04638958  133.85499573    1.69000006    2.51999998
   14.04944515  138.31399536    1.64999998    2.51999998
   14.05277824  144.48300171    1.64999998    2.51999998
   14.05611134  138.44500732    1.64999998    2.51999998
   14.05916691  140.71000671    1.64999998    2.51999998
   14.06250000  151.14900208    1.66999996    2.51999998
   14.06555557  138.56500244    1.69000006    2.51999998
   14.06888866  143.18600464    1.71000004    2.51999998
   14.07222176  148.28399658    1.71000004    2.50000000
   14.07444477  143.18200684    1.71000004    2.50000000
   14.07583332  133.56100464    1.71000004    2.51999998
   14.07916641  142.73100281    1.76999998    2.51999998
   14.08472157  142.73100281    1.78999996    2.51999998
   14.08888817  142.94500732    1.80999994    2.51999998
   14.09194374  146.17500305    1.85000002    2.51999998
   14.09527779  159.23500061    1.85000002    2.51999998
   14.09861088  156.79299927    1.91999996    2.51999998
   14.10166740  149.94700623    1.85000002    2.51999998
   14.10500050  152.42300415    1.83000004    2.51999998
   14.10777855  156.68499756    1.80999994    2.51999998
   14.10861111  149.98199463    1.80999994    2.51999998
   14.11194515  153.15699768    1.80999994    2.51999998
   14.11500072  147.19200134    1.78999996    2.51999998
   14.11833382  143.82600403    1.78999996    2.51999998
   14.12166691  151.39999390    1.75000000    2.51999998
   14.12750053  151.39999390    1.78999996    2.51999998
   14.13166714  188.01199341    1.80999994    2.53999996
   14.13472176  177.48500061    1.78999996    2.53999996
   14.13805580  176.22999573    1.78999996    2.53999996
   14.14111137  168.44000244    1.78999996    2.51999998
   14.14166641  172.52200317    1.78999996    2.53999996
   14.14499950  171.00599670    1.78999996    2.53999996
   14.14805508  168.53100586    1.75000000    2.53999996
   14.15138817  174.23699951    1.73000002    2.53999996
   14.15472221  162.71600342    1.71000004    2.53999996
   14.15777779  174.14399719    1.71000004    2.53999996
   14.16111088  171.06199646    1.71000004    2.53999996
   14.16444397  187.28900146    1.66999996    2.53999996
   14.17027855  187.28900146    1.66999996    2.53999996
   14.17444515  184.86799622    1.66999996    2.53999996
   14.17777824  170.31799316    1.66999996    2.53999996
   14.18083382  194.28999329    1.64999998    2.53999996
   14.18416691  187.70500183    1.66999996    2.53999996
   14.18750000  176.82499695    1.66999996    2.53999996
   14.19055557  181.48399353    1.71000004    2.53999996
   14.19388866  189.46800232    1.69000006    2.53999996
   14.19722271  190.63699341    1.71000004    2.53999996
   14.20027733  171.79800415    1.73000002    2.53999996
   14.20361137  190.17199707    1.73000002    2.53999996
   14.20666695  178.35899353    1.73000002    2.53999996
   14.20777798  172.33999634    1.73000002    2.53999996
   14.21333313  172.33999634    1.75000000    2.53999996
   14.21722221  171.87800598    1.75000000    2.53999996
   14.22055531  172.88499451    1.76999998    2.53999996
   14.22388840  175.69400024    1.76999998    2.53999996
   14.24138927  170.99200439    1.66999996    2.53999996
   14.24388885  167.86700439    1.66999996    2.51999998
   14.24694443  173.64999390    1.66999996    2.53999996
   14.25027752  158.24699402    1.63000000    2.53999996
   14.25611115  158.24699402    1.61000001    2.53999996
   14.26027775  144.50399780    1.61000001    2.53999996
   14.26361084  173.65699768    1.61000001    2.53999996
   14.26694393  148.61000061    1.61000001    2.55999994
   14.26999950  169.19500732    1.61000001    2.53999996
   14.27333355  170.87600708    1.63000000    2.53999996
   14.27472210  164.75999451    1.63000000    2.53999996
   14.27666664  151.54499817    1.64999998    2.53999996
   14.27999973  167.23399353    1.64999998    2.53999996
   14.28333378  148.63299561    1.66999996    2.53999996
   14.28638935  162.67999268    1.66999996    2.53999996
   14.28972244  152.47399902    1.66999996    2.53999996
   14.29277802  160.84399414    1.61000001    2.55999994
   14.29916668  160.84399414    1.58000004    2.55999994
   14.30333328  164.82600403    1.58000004    2.55999994
   14.30638885  164.23199463    1.58000004    2.55999994
   14.30805588  164.43499756    1.58000004    2.55999994
   14.31000042  163.35699463    1.60000002    2.55999994
   14.31333351  150.99400330    1.58000004    2.53999996
   14.31666660  163.50000000    1.58000004    2.53999996
   14.31972218  160.01499939    1.58000004    2.55999994
   14.32305527  160.50199890    1.55999994    2.55999994
   14.32638836  165.30000305    1.55999994    2.53999996
   14.32944393  153.39999390    1.55999994    2.53999996
   14.33277798  162.80799866    1.53999996    2.55999994
   14.33583260  153.71800232    1.53999996    2.55999994
   14.34194374  153.71800232    1.51999998    2.55999994
   14.34611034  168.66799927    1.51999998    2.55999994
   14.34916592  156.01699829    1.51999998    2.53999996
   14.35249996  157.65499878    1.51999998    2.55999994
   14.35583401  173.20899963    1.51999998    2.55999994
   14.35888958  159.58000183    1.51999998    2.55999994
   14.36222267  154.40899658    1.55999994    2.55999994
   14.36527824  166.24099731    1.55999994    2.55999994
   14.36861134  161.93800354    1.60000002    2.55999994
   14.37194443  152.76899719    1.60000002    2.55999994
   14.37472248  160.29299927    1.60000002    2.55999994
   14.37527752  169.60000610    1.60000002    2.53999996
   14.37861156  153.74299622    1.60000002    2.53999996
   14.38472176  153.74299622    1.55999994    2.55999994
   14.38888836  173.61599731    1.55999994    2.55999994
   14.39222240  197.82099915    1.55999994    2.55999994
   14.39527798  191.52699280    1.58000004    2.55999994
   14.39861107  176.45899963    1.61000001    2.53999996
   14.40166664  179.55599976    1.60000002    2.55999994
   14.40499973  177.56199646    1.63000000    2.55999994
   14.40805531  174.15499878    1.63000000    2.55999994
   14.40888882  186.53399658    1.63000000    2.55999994
   14.41194439  169.94400024    1.63000000    2.55999994
   14.41527748  173.05599976    1.63000000    2.55999994
   14.41861153  163.45799255    1.61000001    2.55999994
   14.42166710  161.65699768    1.60000002    2.55999994
   14.42750072  161.65699768    1.60000002    2.57999992
   14.43166733  164.57200623    1.63000000    2.55999994
   14.43500042  160.13200378    1.63000000    2.55999994
   14.43805599  163.48699951    1.64999998    2.55999994
   14.44138908  162.09300232    1.64999998    2.55999994
   14.44166660  156.44799805    1.64999998    2.55999994
   14.44499969  157.46000671    1.64999998    2.55999994
   14.44833374  162.91000366    1.64999998    2.55999994
   14.45138836  165.03999329    1.64999998    2.55999994
   14.45472240  164.54400635    1.63000000    2.55999994
   14.45777798  157.20199585    1.63000000    2.55999994
   14.46111107  157.92799377    1.63000000    2.55999994
   14.46444416  154.50500488    1.63000000    2.55999994
   14.47055531  154.50500488    1.69000006    2.55999994
   14.47472191  154.33900452    1.73000002    2.55999994
   14.47499943  152.25100708    1.73000002    2.55999994
   14.47833252  151.52400208    1.73000002    2.55999994
   14.48166656  159.01600647    1.75000000    2.55999994
   14.48472214  158.22999573    1.76999998    2.55999994
   14.48805618  145.68800354    1.80999994    2.55999994
   14.49111176  158.12899780    1.85000002    2.55999994
   14.49444485  174.20100403    1.85000002    2.55999994
   14.49777794  175.38200378    1.85000002    2.55999994
   14.50083351  169.39500427    1.88000000    2.53999996
   14.50416660  155.57200623    1.94000006    2.57999992
   14.50749969  161.88699341    1.91999996    2.57999992
   14.50805569  165.46000671    1.91999996    2.57999992
   14.51333332  165.46000671    1.88000000    2.57999992
   14.51749992  187.07899475    1.88000000    2.59999990
   14.52055550  177.68200684    1.86000001    2.57999992
   14.52388859  187.13999939    1.86000001    2.57999992
   14.52722168  194.99000549    1.85000002    2.57999992
   14.53027725  187.27099609    1.83000004    2.59999990
   14.53361130  187.68899536    1.80999994    2.57999992
   14.53666687  179.83900452    1.76999998    2.57999992
   14.54000092  176.64199829    1.76999998    2.57999992
   14.54138947  178.38000488    1.75000000    2.59999990
   14.54361153  175.44500732    1.76999998    2.59999990
   14.54694462  191.21400452    1.75000000    2.59999990
   14.55027771  190.12899780    1.75000000    2.59999990
   14.55611134  190.12899780    1.73000002    2.59999990
   14.56027794  178.08700562    1.71000004    2.57999992
   14.56361103  185.21400452    1.73000002    2.59999990
   14.56666660  141.36199951    1.73000002    2.57999992
   14.56999969  170.10899353    1.75000000    2.59999990
   14.57305527  179.38699341    1.71000004    2.59999990
   14.57472229  184.91499329    1.71000004    2.59999990
   14.57666683  180.84300232    1.71000004    2.59999990
   14.57999992  164.74099731    1.69000006    2.59999990
   14.58333302  172.38800049    1.66999996    2.59999990
   14.58638859  157.60699463    1.63000000    2.59999990
   14.58972168  173.75700378    1.61000001    2.59999990
   14.59305477  170.25399780    1.61000001    2.59999990
   14.59888840  170.25399780    1.61000001    2.59999990
   14.60305595  155.24200439    1.64999998    2.59999990
   14.60638905  161.04100037    1.66999996    2.59999990
   14.60805607  173.95399475    1.66999996    2.59999990
   14.60972214  171.72200012    1.69000006    2.59999990
   14.61305618  167.89799500    1.69000006    2.61999989
   14.61638927  157.18499756    1.71000004    2.59999990
   14.61944485  137.05900574    1.71000004    2.59999990
   14.62277794  158.31799316    1.73000002    2.59999990
   14.62611103  155.22399902    1.75000000    2.59999990
   14.62916660  152.31700134    1.75000000    2.59999990
   14.63249969  157.58900452    1.76999998    2.59999990
   14.63555527  162.57299805    1.76999998    2.59999990
   14.64194393  162.57299805    1.76999998    2.59999990
   14.64611053  172.02900696    1.76999998    2.59999990
   14.64916611  147.75799561    1.80999994    2.59999990
   14.65249920  165.28599548    1.83000004    2.59999990
   14.65555477  130.00100708    1.83000004    2.59999990
   14.65888882  150.05700684    1.85000002    2.59999990
   14.66222191  147.97700500    1.86000001    2.59999990
   14.66527748  148.09399414    1.88000000    2.59999990
   14.66861153  144.17700195    1.89999998    2.59999990
   14.67194462  153.38400269    1.91999996    2.59999990
   14.67472267  150.13000488    1.94000006    2.59999990
   14.67527771  153.12100220    1.96000004    2.59999990
   14.67861176  145.19000244    1.96000004    2.59999990
   14.68472195  145.19000244    1.94000006    2.59999990
   14.68888855  143.57299805    1.96000004    2.59999990
   14.69194412  151.62699890    1.98000002    2.59999990
   14.69527817  150.31199646    1.98000002    2.57999992
   14.69861126  149.85499573    1.94000006    2.59999990
   14.70166683  143.14300537    1.89999998    2.59999990
   14.70499992  148.50300598    1.88000000    2.59999990
   14.70805550  135.72599792    1.86000001    2.59999990
   14.70888901  140.95799255    1.86000001    2.59999990
   14.71194458  143.42599487    1.85000002    2.59999990
   14.71527767  135.36799622    1.85000002    2.59999990
   14.71833324  121.50599670    1.86000001    2.59999990
   14.72166634  145.86700439    1.88000000    2.59999990
   14.72749996  145.86700439    1.88000000    2.61999989
   14.73166656  140.95799255    1.88000000    2.59999990
   14.73500061  129.92799377    1.88000000    2.59999990
   14.73805618  136.94599915    1.86000001    2.61999989
   14.74138927  143.22300720    1.85000002    2.59999990
   14.74166679  120.14800262    1.85000002    2.59999990
   14.74499989  128.55299377    1.85000002    2.61999989
   14.74833393  121.81099701    1.83000004    2.61999989
   14.75138855  131.17100525    1.80999994    2.59999990
   14.75472260  135.31399536    1.78999996    2.61999989
   14.75805569  117.04599762    1.78999996    2.61999989
   14.76111126  127.63999939    1.76999998    2.59999990
   14.76444435  131.24299622    1.73000002    2.59999990
   14.77027798  131.24299622    1.78999996    2.61999989
   14.77444458  122.02600098    1.80999994    2.59999990
   14.77499962  127.86699677    1.80999994    2.59999990
   14.77833271  127.27799988    1.80999994    2.59999990
   14.78138828  121.76899719    1.80999994    2.59999990
   14.78472233  130.52499390    1.83000004    2.61999989
   14.78805637  122.02799988    1.94000006    2.61999989
   14.79111195  125.04799652    1.94000006    2.57999992
   14.79444504  121.86399841    1.96000004    2.59999990
   14.79777813  124.23500061    2.00000000    2.59999990
   14.80083370  125.49600220    2.05999994    2.59999990
   14.80416679  127.62400055    2.07999992    2.59999990
   14.80722237  128.83299255    2.07999992    2.59999990
   14.80833340  135.86500549    2.09999990    2.61999989
   14.81333351  135.86500549    2.11999989    2.59999990
   14.81722260  125.32099915    2.01999998    2.59999990
   14.82055569  122.98799896    2.03999996    2.59999990
   14.82388878  133.31500244    2.01999998    2.61999989
   14.82694435  126.63899994    2.01999998    2.59999990
   14.83027744  126.89399719    2.03999996    2.59999990
   14.83361053  128.68699646    2.09999990    2.59999990
   14.83666611  131.22900391    2.13000011    2.59999990
   14.84000015  134.67900085    2.17000008    2.59999990
   14.84166622  129.09399414    2.19000006    2.61999989
   14.84361076  126.82900238    2.19000006    2.59999990
   14.84666634  132.16999817    2.17000008    2.59999990
   14.85000038  134.78599548    2.19000006    2.61999989
   14.85611153  134.78599548    2.25000000    2.59999990
   14.86027813  122.00299835    2.23000002    2.59999990
   14.86333370  137.01899719    2.23000002    2.59999990
   14.86666679  135.60499573    2.25000000    2.59999990
   14.86999989  118.46299744    2.28999996    2.59999990
   14.87305546  131.29600525    2.30999994    2.59999990
   14.87500000  130.33000183    2.32999992    2.61999989
   14.87694454  123.44599915    2.34999990    2.61999989
   14.88000011  123.89900208    2.39000010    2.59999990
   14.88333321  123.01200104    2.44000006    2.61999989
   14.88666630  125.33499908    2.44000006    2.61999989
   14.88972187  126.69699860    2.44000006    2.61999989
   14.89305496  117.68900299    2.46000004    2.61999989
   14.89888859  117.68900299    2.44000006    2.61999989
   14.90305519  131.06500244    2.40000010    2.59999990
   14.90638828  133.68400574    2.42000008    2.61999989
   14.90833282  127.77999878    2.42000008    2.61999989
   14.90999985  130.91299438    2.42000008    2.61999989
   14.91305542  141.73899841    2.36999989    2.59999990
   14.91638851  134.48199463    2.34999990    2.61999989
   14.91972256  130.72799683    2.36999989    2.59999990
   14.92277813  144.09100342    2.39000010    2.61999989
   14.92611122  142.34899902    2.32999992    2.61999989
   14.92944431  145.62300110    2.30999994    2.61999989
   14.93249989  148.05099487    2.28999996    2.61999989
   14.93583298  134.44900513    2.28999996    2.59999990
   14.94166660  134.44900513    2.28999996    2.61999989
   14.94583321  154.38499451    2.30999994    2.61999989
   14.94916630  173.06599426    2.25000000    2.61999989
   14.95222187  182.15400696    2.21000004    2.61999989
   14.95555496  184.47200012    2.25000000    2.61999989
   14.95888901  193.05099487    2.17000008    2.61999989
   14.96194458  199.50000000    2.11999989    2.61999989
   14.96527767  187.25999451    2.07999992    2.61999989
   14.96861076  186.78700256    2.07999992    2.61999989
   14.97166634  180.71099854    2.05999994    2.61999989
   14.97499943  176.90800476    2.11999989    2.61999989
   14.97555542  182.00199890    2.09999990    2.61999989
   14.97861099  188.00300598    2.09999990    2.61999989
   14.98472214  188.00300598    2.07999992    2.61999989
   14.98861122  191.83399963    2.05999994    2.61999989
   14.99194431  179.47599792    2.03999996    2.61999989
   14.99527836  185.65800476    2.01999998    2.61999989
   14.99833393  176.50900269    1.94000006    2.61999989
   15.00166702  182.92199707    1.91999996    2.61999989
   15.00500011  168.91400146    1.94000006    2.61999989
   15.00805569  165.33200073    1.91999996    2.61999989
   15.00888920  173.83700562    1.91999996    2.61999989
   15.01166630  176.48899841    1.91999996    2.59999990
   15.01500034  185.92399597    1.98000002    2.59999990
   15.01833344  187.22700500    2.00000000    2.59999990
   15.02138901  215.97399902    2.05999994    2.57999992
   15.02750015  215.97399902    2.05999994    2.59999990
   15.03166676  199.99699402    2.09999990    2.59999990
   15.03472233  215.62800598    2.13000011    2.59999990
   15.03805637  187.67199707    2.17000008    2.59999990
   15.04138947  199.84100342    2.25000000    2.57999992
   15.04222298  180.12500000    2.25000000    2.57999992
   15.04472256  196.73500061    2.30999994    2.57999992
   15.04805565  192.89399719    2.32999992    2.57999992
   15.05138874  174.83799744    2.36999989    2.57999992
   15.05444431  187.13400269    2.39000010    2.57999992
   15.05777836  175.86700439    2.39000010    2.57999992
   15.06111145  183.84500122    2.40000010    2.59999990
   15.06416702  180.69099426    2.42000008    2.59999990
   15.07027817  180.69099426    2.40000010    2.59999990
   15.07444477  163.76199341    2.42000008    2.57999992
   15.07555580  161.77299500    2.40000010    2.59999990
   15.07805538  168.35499573    2.40000010    2.57999992
   15.08138847  158.22999573    2.40000010    2.57999992
   15.08472157  173.22099304    2.39000010    2.57999992
   15.08777714  156.65299988    2.40000010    2.57999992
   15.09111118  179.97599792    2.42000008    2.57999992
   15.09444427  161.51300049    2.46000004    2.59999990
   15.09749985  172.49000549    2.44000006    2.59999990
   15.10083389  172.27600098    2.34999990    2.59999990
   15.10388947  172.76899719    2.39000010    2.59999990
   15.10722256  163.11099243    2.36999989    2.59999990
   15.10888958  158.29299927    2.34999990    2.59999990
   15.11305618  158.29299927    2.32999992    2.59999990
   15.11722279  156.79800415    2.32999992    2.59999990
   15.12055588  151.47000122    2.32999992    2.59999990
   15.12361145  146.44999695    2.32999992    2.57999992
   15.12694454  142.57200623    2.32999992    2.59999990
   15.13027763  167.17700195    2.36999989    2.59999990
   15.13333321  156.85600281    2.34999990    2.59999990
   15.13666630  164.90499878    2.30999994    2.59999990
   15.14000034  159.24600220    2.32999992    2.59999990
   15.14222240  149.18499756    2.32999992    2.59999990
   15.14333344  152.29600525    2.32999992    2.59999990
   15.14666653  148.22399902    2.26999998    2.59999990
   15.14999962  149.12899780    2.23000002    2.59999990
   15.15611076  149.12899780    2.21000004    2.59999990
   15.15999985  139.13600159    2.15000010    2.59999990
   15.16333294  143.53199768    2.15000010    2.59999990
   15.16666698  148.10099792    2.15000010    2.59999990
   15.16972256  142.96000671    2.13000011    2.59999990
   15.17305565  132.39100647    2.13000011    2.59999990
   15.17555618  137.00599670    2.13000011    2.59999990
   15.17666721  148.38999939    2.11999989    2.59999990
   15.18000031  133.83599854    2.11999989    2.59999990
   15.18333340  139.54400635    2.13000011    2.59999990
   15.18638897  135.67500305    2.13000011    2.59999990
   15.18972206  132.79499817    2.15000010    2.59999990
   15.19305515  136.13099670    2.19000006    2.59999990
   15.19888878  136.13099670    2.19000006    2.59999990
   15.20305538  132.60600281    2.13000011    2.59999990
   15.20611095  128.80299377    2.13000011    2.59999990
   15.20888901  134.21600342    2.13000011    2.59999990
   15.20972157  132.31500244    2.13000011    2.59999990
   15.21305561  127.89199829    2.09999990    2.59999990
   15.21638870  133.07099915    2.07999992    2.59999990
   15.21944427  131.69999695    2.07999992    2.59999990
   15.22277737  130.75700378    2.05999994    2.59999990
   15.22611046  130.65499878    2.03999996    2.59999990
   15.22916603  128.14199829    2.01999998    2.59999990
   15.23249912  126.64600372    2.01999998    2.59999990
   15.23555565  117.55999756    1.98000002    2.59999990
   15.24166679  117.55999756    1.91999996    2.59999990
   15.26000023  123.44499969    1.88000000    2.59999990
   15.26333332  120.03399658    1.86000001    2.59999990
   15.26638889  115.64199829    1.83000004    2.59999990
   15.26972198  116.97899628    1.80999994    2.59999990
   15.27305508  116.41400146    1.78999996    2.59999990
   15.27611065  121.35600281    1.76999998    2.59999990
   15.27944374  118.99700165    1.75000000    2.61999989
   15.28472233  118.99700165    1.75000000    2.59999990
   15.28888893  120.25399780    1.75000000    2.59999990
   15.29222298  118.00199890    1.71000004    2.59999990
   15.29305553  129.12600708    1.71000004    2.59999990
   15.29583359  122.83100128    1.71000004    2.59999990
   15.29916668  124.27200317    1.71000004    2.59999990
   15.30222225  123.27799988    1.69000006    2.59999990
   15.30555534  118.07299805    1.66999996    2.61999989
   15.30861092  117.70899963    1.69000006    2.61999989
   15.31194496  118.90599823    1.71000004    2.61999989
   15.31527805  121.44100189    1.71000004    2.61999989
   15.31833363  119.90699768    1.71000004    2.59999990
   15.32166672  120.12599945    1.71000004    2.61999989
   15.32750034  120.12599945    1.76999998    2.61999989
   15.33166695  117.37999725    1.75000000    2.59999990
   15.33500004  120.08200073    1.83000004    2.59999990
   15.33833313  122.79900360    1.80999994    2.59999990
   15.34138870  118.40699768    1.85000002    2.59999990
   15.34472179  124.67800140    1.85000002    2.61999989
   15.44138908   -1.00000000   -1.00000000   -1.00000000
   15.58777714   -1.00000000   -1.00000000   -1.00000000
   15.80111122   -1.00000000   -1.00000000   -1.00000000
   15.82305527   77.72779846    1.64999998    2.66000009
   15.82611084  130.17500305    1.73000002    2.66000009
   15.82944393  121.55000305    1.75000000    2.66000009
   15.83277798  129.42300415    1.78999996    2.66000009
   15.83583260  121.66500092    1.83000004    2.66000009
   15.83916664  122.42199707    1.85000002    2.66000009
   15.84333324  122.42199707    1.89999998    2.66000009
   15.84749985  116.13400269    1.91999996    2.66000009
   15.85055637  121.35900116    1.89999998    2.66000009
   15.85388947  118.11900330    1.89999998    2.64000010
   15.85638905  121.41400146    1.88000000    2.66000009
   15.85750008  120.65200043    1.88000000    2.66000009
   15.86083412  113.59400177    1.86000001    2.66000009
   15.86388969  118.04699707    1.86000001    2.64000010
   15.86722279  117.10600281    1.86000001    2.66000009
   15.87055588  113.34500122    1.83000004    2.66000009
   15.87361145  121.02799988    1.83000004    2.66000009
   15.87694454  119.65799713    1.78999996    2.66000009
   15.88027763  123.15699768    1.76999998    2.66000009
   15.88611126  123.15699768    1.75000000    2.66000009
   15.89027786  124.51799774    1.73000002    2.66000009
   15.89361095  128.49699402    1.73000002    2.66000009
   15.89666653  130.51400757    1.71000004    2.66000009
   15.89999962  127.86399841    1.71000004    2.66000009
   15.90305519  121.68900299    1.71000004    2.66000009
   15.90638828  134.63000488    1.66999996    2.66000009
   15.90972137  118.20800018    1.66999996    2.66000009
   15.91277695  130.23800659    1.66999996    2.66000009
   15.91611099  128.30299377    1.64999998    2.66000009
   15.91944504  125.54299927    1.61000001    2.66000009
   15.92250061  135.56700134    1.60000002    2.66000009
   15.92305565  130.85099792    1.61000001    2.66000009
   15.92888927  130.85099792    1.55999994    2.66000009
   15.93305588  138.73500061    1.53999996    2.66000009
   15.93638897  125.30599976    1.53999996    2.66000009
   15.93944454  128.61399841    1.51999998    2.66000009
   15.94277763  119.75599670    1.53999996    2.66000009
   15.94611073  122.01899719    1.51999998    2.66000009
   15.94916630  131.48100281    1.50000000    2.66000009
   15.95249939  121.71800232    1.48000002    2.66000009
   15.95583344  130.64700317    1.50000000    2.66000009
   15.95638847  131.23399353    1.48000002    2.66000009
   15.95944405  118.16100311    1.48000002    2.66000009
   15.96249962  120.30699921    1.46000004    2.66000009
   15.96583271  123.21099854    1.46000004    2.67000008
   15.97194386  123.21099854    1.39999998    2.66000009
   15.97583294  119.81999969    1.38000000    2.66000009
   15.97916603  130.67900085    1.36000001    2.66000009
   15.98249912  120.42299652    1.36000001    2.67000008
   15.98555565  121.76899719    1.36000001    2.66000009
   15.98888874  124.64499664    1.36000001    2.66000009
   15.98972225  124.32800293    1.34000003    2.67000008
   15.99250031  115.27899933    1.30999994    2.66000009
   15.99555588  125.72599792    1.30999994    2.67000008
   15.99888897  117.01499939    1.26999998    2.66000009
   16.00222206  117.27100372    1.26999998    2.66000009
   16.00527763  131.31399536    1.23000002    2.66000009
   16.00861168  124.61100006    1.23000002    2.67000008
   16.01472282  124.61100006    1.25000000    2.66000009
   16.01888847  124.59400177    1.25000000    2.66000009
   16.02194405  114.64199829    1.25000000    2.66000009
   16.02305603  113.92199707    1.23000002    2.67000008
   16.02583313  122.55200195    1.21000004    2.66000009
   16.02888870  117.68699646    1.21000004    2.66000009
   16.03222275  125.89600372    1.21000004    2.66000009
   16.03555489  119.08899689    1.19000006    2.67000008
   16.03861046  124.52899933    1.19000006    2.67000008
   16.04194450  122.51399994    1.19000006    2.66000009
   16.04527664  126.20899963    1.19000006    2.67000008
   16.04833221  134.22200012    1.19000006    2.67000008
   16.05166626  130.70300293    1.21000004    2.66000009
   16.05749893  130.70300293    1.19000006    2.67000008
   16.06166649  153.59300232    1.19000006    2.66000009
   16.06499863  142.34500122    1.19000006    2.66000009
   16.06805611  135.23599243    1.14999998    2.66000009
   16.07139015  136.05299377    1.14999998    2.66000009
   16.07444572  130.41999817    1.16999996    2.66000009
   16.07777786  128.11300659    1.14999998    2.67000008
   16.08111191  124.07299805    1.13000000    2.67000008
   16.08416748  120.53700256    1.13000000    2.66000009
   16.08750153  122.76000214    1.13000000    2.66000009
   16.08972359  129.94700623    1.14999998    2.66000009
   16.09111214  122.75000000    1.14999998    2.66000009
   16.09444427  129.90699768    1.14999998    2.66000009
   16.10027885  129.90699768    1.21000004    2.66000009
   16.10444450  115.15499878    1.21000004    2.67000008
   16.10777855  123.98699951    1.21000004    2.66000009
   16.11083412  126.73200226    1.19000006    2.67000008
   16.11416626  124.19200134    1.21000004    2.66000009
   16.11750031  124.63899994    1.19000006    2.66000009
   16.12055588  115.78900146    1.19000006    2.66000009
   16.12333298  124.09100342    1.19000006    2.67000008
   16.12444496  122.02100372    1.19000006    2.66000009
   16.12777710  121.99199677    1.19000006    2.66000009
   16.13111115  114.58200073    1.16999996    2.66000009
   16.13416672  113.07700348    1.16999996    2.66000009
   16.13750076  121.73100281    1.16999996    2.66000009
   16.14333344  121.73100281    1.25000000    2.66000009
   16.14722252  118.91500092    1.28999996    2.66000009
   16.15055466  121.67600250    1.30999994    2.67000008
   16.15388870  114.49199677    1.30999994    2.66000009
   16.15638924  118.74900055    1.30999994    2.66000009
   16.15749931  117.10399628    1.33000004    2.66000009
   16.16055489  123.51399994    1.34000003    2.66000009
   16.16388893  116.50700378    1.36000001    2.66000009
   16.16722107  116.52999878    1.36000001    2.66000009
   16.17027664  120.37599945    1.39999998    2.66000009
   16.17361069  116.38999939    1.41999996    2.66000009
   16.17694473  117.21299744    1.44000006    2.66000009
   16.18000031  134.46099854    1.46000004    2.66000009
   16.18610954  134.46099854    1.46000004    2.67000008
   16.19027710  127.53199768    1.41999996    2.66000009
   16.19333267  124.99099731    1.44000006    2.66000009
   16.19666672  121.25599670    1.41999996    2.66000009
   16.20000076  127.19000244    1.41999996    2.66000009
   16.20305634  124.44000244    1.38000000    2.66000009
   16.20639038  143.73300171    1.36000001    2.66000009
   16.20944595  127.36100006    1.34000003    2.66000009
   16.21277809  146.18499756    1.33000004    2.66000009
   16.21611214  134.47099304    1.33000004    2.66000009
   16.21916771  150.47300720    1.30999994    2.66000009
   16.22249985  144.98800659    1.30999994    2.67000008
   16.22305679  158.26100159    1.30999994    2.67000008
   16.22888947  158.26100159    1.30999994    2.66000009
   16.23305511  133.05799866    1.30999994    2.66000009
   16.23638916  161.71800232    1.33000004    2.66000009
   16.23944473  149.78700256    1.30999994    2.67000008
   16.24277878  143.25399780    1.30999994    2.66000009
   16.24611092  164.38600159    1.28999996    2.66000009
   16.24944496  154.11000061    1.26999998    2.67000008
   16.25277710  158.40699768    1.26999998    2.66000009
   16.25583267  162.28300476    1.26999998    2.67000008
   16.25638962  164.14500427    1.26999998    2.67000008
   16.25944519  163.08099365    1.26999998    2.66000009
   16.26277733  159.44500732    1.26999998    2.66000009
   16.26583290  165.22900391    1.25000000    2.66000009
   16.27166557  165.22900391    1.25000000    2.66000009
   16.27583313  156.26199341    1.21000004    2.66000009
   16.27916718  136.28599548    1.21000004    2.66000009
   16.28249931  140.28399658    1.21000004    2.67000008
   16.28555489  147.62600708    1.21000004    2.66000009
   16.28888893  142.37300110    1.23000002    2.67000008
   16.28972244  155.98500061    1.23000002    2.67000008
   16.29249954  147.43800354    1.23000002    2.67000008
   16.29583359  146.00399780    1.26999998    2.66000009
   16.29888916  156.52299500    1.26999998    2.66000009
   16.30222130  158.27999878    1.30999994    2.67000008
   16.30555534  157.77799988    1.28999996    2.66000009
   16.30861092  147.30400085    1.30999994    2.66000009
   16.31472206  147.30400085    1.30999994    2.64000010
   16.31888962  161.64300537    1.33000004    2.67000008
   16.32194519  140.19400024    1.33000004    2.67000008
   16.32305717  138.69299316    1.34000003    2.66000009
   16.32555580  132.83099365    1.36000001    2.67000008
   16.32888985  146.66999817    1.36000001    2.66000009
   16.33194542  139.61199951    1.33000004    2.66000009
   16.33527756  135.39399719    1.33000004    2.66000009
   16.33861160  131.47000122    1.28999996    2.67000008
   16.34166718  145.62300110    1.30999994    2.64000010
   16.34500122  131.37100220    1.30999994    2.66000009
   16.34805679  124.52400208    1.30999994    2.66000009
   16.35138893  126.58799744    1.30999994    2.67000008
   16.35750008  126.58799744    1.25000000    2.66000009
   16.36166763  137.17900085    1.23000002    2.66000009
   16.36472321  122.65599823    1.23000002    2.66000009
   16.36805534  137.46299744    1.21000004    2.67000008
   16.37138939  132.86399841    1.16999996    2.67000008
   16.37444496  126.90799713    1.13000000    2.66000009
   16.37777710  125.44999695    1.13000000    2.66000009
   16.38111115  134.95799255    1.11000001    2.64000010
   16.38416672  128.39900208    1.09000003    2.64000010
   16.38750076  125.90599823    1.09000003    2.64000010
   16.38972282  127.81800079    1.07000005    2.64000010
   16.39111137  131.10899353    1.07000005    2.64000010
   16.39444351  131.45899963    1.05999994    2.64000010
   16.40027809  131.45899963    1.07000005    2.64000010
   16.40444374  123.83499908    1.11000001    2.64000010
   16.40777779  118.37300110    1.11000001    2.64000010
   16.41083336  117.98899841    1.13000000    2.64000010
   16.41416550  123.13700104    1.14999998    2.64000010
   16.41722107  131.45199585    1.14999998    2.64000010
   16.42055511  121.60600281    1.14999998    2.64000010
   16.42305565  119.30100250    1.14999998    2.64000010
   16.42416573  125.78199768    1.14999998    2.64000010
   16.42749977  126.65299988    1.16999996    2.64000010
   16.43055534  128.49200439    1.16999996    2.64000010
   16.43388748  127.69499969    1.16999996    2.64000010
   16.43694305  122.15399933    1.14999998    2.64000010
   16.44305420  122.15399933    1.14999998    2.64000010
   16.44722176  124.65599823    1.13000000    2.64000010
   16.45055580  125.03700256    1.09000003    2.64000010
   16.45361137  118.15699768    1.07000005    2.64000010
   16.45639038  121.45800018    1.07000005    2.64000010
   16.45722389  120.87000275    1.07000005    2.64000010
   16.46055603  122.98699951    1.09000003    2.64000010
   16.46361160  116.61399841    1.13000000    2.64000010
   16.46694565  119.81099701    1.14999998    2.64000010
   16.47000122  110.18399811    1.16999996    2.64000010
   16.47333336  119.58899689    1.16999996    2.64000010
   16.47666740  123.63700104    1.16999996    2.61999989
   16.47972298  126.80500031    1.16999996    2.64000010
   16.48611069  126.80500031    1.16999996    2.64000010
   16.48999977  117.18699646    1.14999998    2.64000010
   16.49333382  120.69400024    1.13000000    2.64000010
   16.49666786  128.38299561    1.11000001    2.64000010
   16.49972153  135.24800110    1.09000003    2.64000010
   16.50305557  122.52700043    1.07000005    2.64000010
   16.50638962  124.43800354    1.05999994    2.64000010
   16.50944519  134.81799316    1.05999994    2.64000010
   16.51277733  129.32099915    1.03999996    2.64000010
   16.51583290  131.66999817    1.07000005    2.64000010
   16.51916695  135.89300537    1.09000003    2.64000010
   16.52249908  129.02999878    1.13000000    2.64000010
   16.52305603  126.40799713    1.13000000    2.64000010
   16.52888870  126.40799713    1.21000004    2.64000010
   16.53305435  119.23500061    1.21000004    2.64000010
   16.53610992  128.19599915    1.19000006    2.64000010
   16.53944397  122.28800201    1.16999996    2.64000010
   16.54249954  126.56199646    1.16999996    2.64000010
   16.54611015  131.16900635    1.14999998    2.64000010
   16.54944420  121.86799622    1.13000000    2.64000010
   16.55249977  130.30400085    1.14999998    2.64000010
   16.55583191  124.66200256    1.16999996    2.64000010
   16.55638885  121.98000336    1.16999996    2.64000010
   16.55944443  124.59700012    1.16999996    2.64000010
   16.56277657  124.32399750    1.14999998    2.64000010
   16.56583214  124.47399902    1.11000001    2.64000010
   16.57166672  124.47399902    1.13000000    2.64000010
   16.57583427  120.09700012    1.11000001    2.64000010
   16.57916832  121.64399719    1.11000001    2.64000010
   16.58222389  117.64800262    1.11000001    2.64000010
   16.58555603  121.67099762    1.11000001    2.64000010
   16.58861160  127.83499908    1.09000003    2.64000010
   16.58972359  128.36199951    1.09000003    2.64000010
   16.59222221  119.99800110    1.05999994    2.64000010
   16.59555626  119.46399689    1.03999996    2.64000010
   16.59861183  133.97999573    1.00000000    2.64000010
   16.60194397  122.46900177    1.01999998    2.64000010
   16.60527802  119.97000122    1.01999998    2.64000010
   16.60833359  119.18699646    1.01999998    2.66000009
   16.61444473  119.18699646    1.01999998    2.64000010
   16.61861038  137.00000000    1.01999998    2.66000009
   16.62194443  142.95599365    1.00000000    2.64000010
   16.62305641  135.62300110    1.00000000    2.64000010
   16.62555504  144.00999451    1.00000000    2.64000010
   16.62888908  160.30499268    0.98000002    2.64000010
   16.63194466  146.53100586    0.95999998    2.64000010
   16.63527679  158.64799500    0.95999998    2.66000009
   16.63861084  164.47900391    0.95999998    2.64000010
   16.64166641  147.40199280    0.98000002    2.66000009
   16.64500046  155.36500549    0.98000002    2.64000010
   16.64805603  145.21099854    0.98000002    2.64000010
   16.65138817  139.64399719    0.98000002    2.64000010
   16.65749931  139.64399719    0.92000002    2.64000010
   16.66166687  149.36700439    0.86000001    2.66000009
   16.66472244  137.30200195    0.86000001    2.66000009
   16.66805458  143.78100586    0.83999997    2.64000010
   16.67111015  146.39199829    0.83999997    2.64000010
   16.67444420  140.46899414    0.81999999    2.66000009
   16.67777634  144.13200378    0.80000001    2.64000010
   16.68083191  132.24400330    0.80000001    2.66000009
   16.68416595  146.34800720    0.80000001    2.64000010
   16.68750000  149.55400085    0.79000002    2.66000009
   16.68972206  136.22900391    0.79000002    2.66000009
   16.69111061  145.68200684    0.79000002    2.66000009
   16.69444275  139.49400330    0.79000002    2.64000010
   16.70027924  139.49400330    0.79000002    2.66000009
   16.70444489  140.89799500    0.79000002    2.66000009
   16.70750046  126.58100128    0.76999998    2.66000009
   16.71083450  124.90399933    0.79000002    2.66000009
   16.71389008  133.95500183    0.79000002    2.64000010
   16.71722221  128.73300171    0.79000002    2.64000010
   16.72055626  138.95500183    0.79000002    2.64000010
   16.72333336  147.49099731    0.76999998    2.64000010
   16.72416687  127.18599701    0.76999998    2.64000010
   16.72750092  134.98399353    0.76999998    2.66000009
   16.73055649  119.14800262    0.76999998    2.64000010
   16.73388863  128.69700623    0.76999998    2.66000009
   16.73722267  130.41900635    0.76999998    2.66000009
   16.74305534  130.41900635    0.76999998    2.64000010
   16.74722290  123.27700043    0.75000000    2.66000009
   16.75055504  128.59399414    0.75000000    2.64000010
   16.75361061  127.94699860    0.76999998    2.66000009
   16.75666618  120.01999664    0.76999998    2.64000010
   16.75722313  127.02200317    0.76999998    2.66000009
   16.76055527  124.63099670    0.79000002    2.64000010
   16.76361084  124.64099884    0.79000002    2.66000009
   16.76694489  117.83799744    0.80000001    2.64000010
   16.77027702  130.53700256    0.80000001    2.64000010
   16.77333260  125.27100372    0.81999999    2.66000009
   16.77666664  127.18599701    0.81999999    2.66000009
   16.78000069  121.64299774    0.81999999    2.66000009
   16.78583336  121.64299774    0.83999997    2.64000010
   16.78999901  127.05899811    0.83999997    2.64000010
   16.79333305  126.75000000    0.81999999    2.64000010
   16.79638863  124.70500183    0.83999997    2.64000010
   16.79972076  122.74600220    0.81999999    2.66000009
   16.80305481  126.49600220    0.81999999    2.66000009
   16.80611038  127.85099792    0.81999999    2.64000010
   16.80944443  125.49600220    0.81999999    2.64000010
   16.81250000  125.54599762    0.81999999    2.66000009
   16.81583214  116.80699921    0.81999999    2.66000009
   16.81916809  121.40799713    0.81999999    2.64000010
   16.82222366  119.22699738    0.83999997    2.66000009
   16.82333374  122.51300049    0.81999999    2.64000010
   16.84388924  122.51300049    0.81999999    2.66000009
   16.84805679  124.84600067    0.83999997    2.64000010
   16.85138893  120.17600250    0.81999999    2.66000009
   16.85444450  122.40799713    0.81999999    2.64000010
   16.85666656  121.15899658    0.81999999    2.66000009
   16.85805511  122.75599670    0.80000001    2.66000009
   16.86138916  118.46800232    0.80000001    2.64000010
   16.86444473  126.61799622    0.79000002    2.66000009
   16.86777878  128.85899353    0.79000002    2.64000010
   16.87111092  132.09100342    0.75000000    2.64000010
   16.87416649  131.46099854    0.75000000    2.64000010
   16.87750053  125.58300018    0.73000002    2.64000010
   16.88083267  137.60299683    0.73000002    2.66000009
   16.88666725  137.60299683    0.76999998    2.66000009
   16.89083290  122.58200073    0.79000002    2.66000009
   16.89416695  128.88600159    0.80000001    2.64000010
   16.89722252  125.01699829    0.80000001    2.66000009
   16.90055466  120.70099640    0.81999999    2.64000010
   16.90388870  118.54900360    0.81999999    2.64000010
   16.90694427  122.23999786    0.81999999    2.64000010
   16.91027832  115.88200378    0.81999999    2.64000010
   16.91333389  114.91600037    0.81999999    2.66000009
   16.91666603  124.08999634    0.81999999    2.64000010
   16.92000008  126.99199677    0.83999997    2.66000009
   16.92305565  127.55999756    0.81999999    2.64000010
   16.92361069  130.15199280    0.81999999    2.64000010
   16.92944336  130.15199280    0.83999997    2.64000010
   16.93361092  122.42400360    0.81999999    2.64000010
   16.93694305  122.43399811    0.83999997    2.64000010
   16.93999863  118.59200287    0.83999997    2.66000009
   16.94333267  130.88699341    0.88000000    2.64000010
   16.94666672  127.55200195    0.88000000    2.64000010
   16.94972038  116.46900177    0.88000000    2.64000010
   16.95305634  117.37500000    0.88000000    2.64000010
   16.95639038  120.17099762    0.88000000    2.64000010
   16.95694542  125.85299683    0.89999998    2.64000010
   16.96000099  126.31800079    0.88000000    2.64000010
   16.96333504  117.71900177    0.89999998    2.64000010
   16.96638870  128.05700684    0.92000002    2.64000010
   16.97249985  128.05700684    0.92000002    2.64000010
   16.97638893  124.66100311    0.89999998    2.64000010
   16.97972298  124.82199860    0.89999998    2.64000010
   16.98305511  122.88899994    0.89999998    2.64000010
   16.98611069  124.01899719    0.89999998    2.64000010
   16.98944473  126.76999664    0.92000002    2.64000010
   16.99027824  125.15000153    0.92000002    2.64000010
   16.99305534  119.67700195    0.92000002    2.64000010
   16.99638939  121.44999695    0.92000002    2.64000010
   16.99944496  117.98699951    0.89999998    2.66000009
   17.00277710  116.72100067    0.89999998    2.64000010
   17.00583267  119.33300018    0.89999998    2.64000010
   17.00916672  120.95400238    0.89999998    2.64000010
   17.01527786  120.95400238    0.88000000    2.64000010
   17.01944351  121.17900085    0.88000000    2.64000010
   17.02249908  120.02500153    0.86000001    2.64000010
   17.02361107  119.69699860    0.86000001    2.64000010
   17.02611160  116.85199738    0.86000001    2.64000010
   17.02944374  115.84100342    0.86000001    2.64000010
   17.03277779  116.02200317    0.86000001    2.64000010
   17.03583336  117.99500275    0.88000000    2.64000010
   17.03944397  116.78800201    0.88000000    2.64000010
   17.04249954  116.55899811    0.89999998    2.64000010
   17.04583359  118.23600006    0.92000002    2.64000010
   17.04916573  115.87200165    0.94000000    2.64000010
   17.05222130  125.02500153    0.94000000    2.64000010
   17.05805397  125.02500153    0.95999998    2.64000010
   17.06222153  119.29100037    0.98000002    2.64000010
   17.06527710  118.70600128    1.00000000    2.64000010
   17.06861115  121.46600342    0.98000002    2.64000010
   17.07194519  128.15400696    0.98000002    2.64000010
   17.07500076  129.15499878    0.95999998    2.64000010
   17.07833481  131.59899902    0.94000000    2.64000010
   17.08166695  134.12600708    0.94000000    2.64000010
   17.08472252  137.54400635    0.94000000    2.64000010
   17.08805656  136.63299561    0.92000002    2.64000010
   17.09027863  143.27600098    0.92000002    2.64000010
   17.09166718  140.60299683    0.89999998    2.64000010
   17.09500122  150.49899292    0.89999998    2.64000010
   17.10083389  150.49899292    0.89999998    2.64000010
   17.10499954  154.95100403    0.89999998    2.64000010
   17.10833359  138.98399353    0.92000002    2.64000010
   17.11138916  136.34800720    0.92000002    2.64000010
   17.11472321  138.59800720    0.92000002    2.64000010
   17.11805534  142.35000610    0.92000002    2.64000010
   17.12111092  131.66799927    0.92000002    2.64000010
   17.12361145  130.58500671    0.94000000    2.64000010
   17.12472153  132.21400452    0.92000002    2.64000010
   17.12805557  129.98899841    0.98000002    2.64000010
   17.13111115  122.68099976    1.00000000    2.64000010
   17.13444519  125.01399994    1.00000000    2.64000010
   17.13750076  123.44799805    0.98000002    2.64000010
   17.14361191  123.44799805    1.00000000    2.64000010
   17.14777756  124.12000275    1.00000000    2.64000010
   17.15111160  118.58499908    1.01999998    2.61999989
   17.15444374  119.74800110    1.00000000    2.64000010
   17.15694427  126.50700378    0.98000002    2.64000010
   17.15805435  117.59400177    0.98000002    2.64000010
   17.16138840  116.63400269    0.95999998    2.64000010
   17.16444397  122.57900238    0.94000000    2.66000009
   17.16777802  121.23500061    0.94000000    2.64000010
   17.17083359  119.49800110    0.94000000    2.64000010
   17.17416573  115.64700317    0.94000000    2.64000010
   17.17749977  117.68299866    0.94000000    2.64000010
   17.18083191  115.27600098    0.92000002    2.64000010
   17.18666649  115.27600098    0.98000002    2.64000010
   17.19083214  122.28800201    0.98000002    2.64000010
   17.19388771  123.28199768    1.00000000    2.64000010
   17.19722176  120.31300354    1.01999998    2.64000010
   17.20027924  117.84600067    1.03999996    2.64000010
   17.20361137  120.51899719    1.03999996    2.64000010
   17.20694542  119.27300262    1.01999998    2.64000010
   17.21000099  119.98300171    1.03999996    2.64000010
   17.21333504  127.91000366    1.03999996    2.61999989
   17.21666718  122.87100220    1.03999996    2.61999989
   17.21972275  123.81800079    1.03999996    2.64000010
   17.22305679  120.98799896    1.03999996    2.64000010
   17.22361183  123.05899811    1.03999996    2.64000010
   17.22944450  123.05899811    1.03999996    2.64000010
   17.23361206  126.06500244    1.07000005    2.64000010
   17.23666763  125.20999908    1.09000003    2.64000010
   17.23999977  122.38800049    1.09000003    2.64000010
   17.24333382  120.13800049    1.07000005    2.64000010
   17.24638939  132.52200317    1.07000005    2.64000010
   17.24972153  124.53399658    1.00000000    2.64000010
   17.25305557  123.15100098    1.00000000    2.64000010
   17.25611115  134.22900391    0.98000002    2.64000010
   17.25694466  124.61699677    1.00000000    2.64000010
   17.25972176  123.81800079    0.98000002    2.64000010
   17.26305580  125.71299744    1.00000000    2.64000010
   17.26611137  126.33999634    0.98000002    2.64000010
   17.27222252  126.33999634    0.94000000    2.64000010
   17.27638817  134.60099792    0.92000002    2.64000010
   17.27972221  125.94400024    0.86000001    2.64000010
   17.28277779  121.87400055    0.88000000    2.64000010
   17.28610992  123.88300323    0.89999998    2.64000010
   17.28944397  124.48500061    0.89999998    2.64000010
   17.29027748  119.96800232    0.89999998    2.64000010
   17.29305458  126.61699677    0.88000000    2.64000010
   17.29638863  130.09100342    0.88000000    2.64000010
   17.29944420  126.32499695    0.89999998    2.64000010
   17.30277634  118.92700195    0.88000000    2.64000010
   17.30611038  120.03399658    0.86000001    2.64000010
   17.30916595  117.16300201    0.86000001    2.64000010
   17.31499863  117.16300201    0.83999997    2.64000010
   17.31916809  117.83100128    0.88000000    2.64000010
   17.32250023  120.92199707    0.89999998    2.64000010
   17.32361221  114.83300018    0.92000002    2.64000010
   17.32611275  118.66600037    0.94000000    2.64000010
   17.32944489  115.51799774    0.95999998    2.64000010
   17.33250046  118.58200073    0.95999998    2.64000010
   17.33583450  116.90899658    0.95999998    2.64000010
   17.33916664  111.89700317    0.95999998    2.64000010
   17.34222221  117.68299866    0.94000000    2.64000010
   17.34555626  108.67500305    0.94000000    2.64000010
   17.34889030  105.47000122    0.94000000    2.64000010
   17.35194397  114.44799805    0.94000000    2.64000010
   17.35805511  114.44799805    1.07000005    2.66000009
   17.36222267  118.78299713    1.01999998    2.66000009
   17.36527824  118.06500244    1.01999998    2.64000010
   17.36861038  122.83399963    1.01999998    2.64000010
   17.37166595  119.71099854    1.03999996    2.64000010
   17.37500000  121.60900116    1.07000005    2.64000010
   17.37833405  124.61499786    1.05999994    2.64000010
   17.38138962  116.24800110    1.01999998    2.64000010
   17.38472176  124.77300262    0.98000002    2.64000010
   17.38805580  117.91699982    0.94000000    2.64000010
   17.39027786  118.96199799    0.95999998    2.61999989
   17.39166641  121.12899780    0.94000000    2.61999989
   17.39500046  125.83300018    0.92000002    2.61999989
   17.40083313  125.83300018    0.95999998    2.61999989
   17.40499878  116.53500366    0.98000002    2.64000010
   17.40805435  120.31999969    0.98000002    2.64000010
   17.41138840  116.73600006    1.00000000    2.64000010
   17.41472244  116.55500031    1.00000000    2.64000010
   17.41777802  111.31099701    1.00000000    2.64000010
   17.42111015  119.49099731    1.01999998    2.61999989
   17.42361069  118.11799622    1.00000000    2.61999989
   17.42472076  116.65599823    0.98000002    2.61999989
   17.42805481  118.55599976    0.98000002    2.61999989
   17.43111038  116.84100342    0.95999998    2.64000010
   17.43444443  111.00299835    1.00000000    2.61999989
   17.43777657  113.81700134    0.95999998    2.64000010
   17.44361115  113.81700134    0.94000000    2.61999989
   17.44777679  111.73600006    0.95999998    2.61999989
   17.45111275  113.22599792    0.98000002    2.61999989
   17.45416832  108.98500061    0.98000002    2.61999989
   17.45694542  103.94100189    1.01999998    2.61999989
   17.45777893  110.02400208    1.01999998    2.61999989
   17.46111107  118.80699921    1.05999994    2.61999989
   17.46416664  106.89900208    1.03999996    2.61999989
   17.46750069  116.69799805    1.05999994    2.61999989
   17.47083473  115.30599976    1.07000005    2.61999989
   17.47389030  116.83599854    1.09000003    2.61999989
   17.47722244  118.26799774    1.11000001    2.61999989
   17.48027802  119.54799652    1.11000001    2.64000010
   17.48638916  119.54799652    1.11000001    2.61999989
   17.49055672  103.16799927    1.09000003    2.61999989
   17.49388885  110.70600128    1.07000005    2.61999989
   17.49722290  108.68199921    1.07000005    2.61999989
   17.50027847  114.59400177    1.07000005    2.61999989
   17.50361061  121.83200073    1.05999994    2.61999989
   17.50666618  116.21299744    1.07000005    2.61999989
   17.51000023  116.02400208    1.09000003    2.61999989
   17.51333427  118.43599701    1.09000003    2.61999989
   17.51638794  115.58100128    1.07000005    2.61999989
   17.51972198  119.71399689    1.05999994    2.61999989
   17.52305603  113.56700134    1.05999994    2.61999989
   17.52361107  121.00099945    1.05999994    2.61999989
   17.52944374  121.00099945    1.05999994    2.61999989
   17.53361130  119.54000092    1.05999994    2.61999989
   17.53666687  121.53099823    1.05999994    2.61999989
   17.53999901  113.41000366    1.03999996    2.61999989
   17.54305458  112.99900055    1.05999994    2.61999989
   17.54638863  111.61299896    1.16999996    2.61999989
   17.54972076  118.98300171    1.25000000    2.61999989
   17.55277634  115.19999695    1.25000000    2.61999989
   17.55611038  112.64600372    1.33000004    2.61999989
   17.55722237  114.57599640    1.39999998    2.61999989
   17.55972099  115.53199768    1.60000002    2.59999990
   17.56305504  114.43599701    1.85000002    2.61999989
   17.56611061  119.78299713    2.05999994    2.59999990
   17.57222366  119.78299713    2.53999996    2.59999990
   17.57638931  117.68299866    2.94000006    2.59999990
   17.57944489  121.68000031    3.82999992    2.55999994
   17.58277893  120.95600128    4.90999985    2.53999996
   17.58611107  124.86799622    4.90999985    2.53999996
   17.58916664  125.88999939    4.90999985    2.50000000
   17.59055710  123.53900146    4.90999985    2.50000000
   17.59277916  127.68699646    4.90999985    2.46000004
   17.59611130  128.55799866    4.90999985    2.51999998
   17.59916687  123.18499756    4.90999985    2.53999996
   17.60250092  128.29499817    4.90999985    2.53999996
   17.60583305  126.53099823    4.90999985    2.53999996
   17.60888863  125.17900085    4.90999985    2.57999992
   17.61499977  125.17900085    4.90999985    2.57999992
   17.61916733  131.91600037    4.90999985    2.53999996
   17.62249947  129.76899719    4.90999985    2.51999998
   17.62388992  126.13099670    4.90999985    2.51999998
   17.62611198  118.86699677    4.90999985    2.51999998
   17.62944412  122.30799866    4.90999985    2.46000004
   17.63249969  121.45400238    4.90999985    2.46000004
   17.63583374  137.32699585    4.90999985    2.46000004
   17.63916588  128.55099487    4.90999985    2.46000004
   17.64222145  133.55900574    4.90999985    2.46000004
   17.64555550  121.54499817    4.90999985    2.53999996
   17.64888954  119.75199890    4.90999985    2.57999992
   17.65194321  117.73899841    4.90999985    2.59999990
   17.65777779  117.73899841    4.42999983    2.61999989
   17.66194344  120.74400330    3.93000007    2.61999989
   17.66527748  118.08499908    4.32999992    2.64000010
   17.66860962  124.76699829    4.69999981    2.64000010
   17.67166519  122.75700378    4.90999985    2.64000010
   17.67499924  127.60600281    4.90999985    2.61999989
   17.67833328  119.80500031    4.90999985    2.46000004
   17.68138885  125.20999908    4.90999985    2.59999990
   17.68472099  123.97699738    4.90999985    2.59999990
   17.68777657  107.59400177    4.90999985    2.59999990
   17.69055557  125.31999969    4.90999985    2.53999996
   17.69138718  118.26200104    4.90999985    2.51999998
   17.69472122  127.61499786    4.90999985    2.51999998
   17.70083427  127.61499786    4.90999985    2.46000004
   17.70472336  142.08000183    4.90999985    2.44000006
   17.70805550  143.71400452    4.90999985    2.28999996
   17.71138954  155.13699341    4.90999985    2.23000002
   17.71444511  166.83299255    4.90999985    2.23000002
   17.71777916  156.33599854    4.90999985    2.25000000
   17.72111130  153.55200195    4.90999985    2.26999998
   17.72389030  140.44799805    4.90999985    2.21000004
   17.72444534  127.87799835    4.90999985    2.25000000
   17.72777748  125.31199646    4.90999985    2.48000002
   17.73083305  129.97999573    4.90999985    2.53999996
   17.73416710  121.53099823    4.90999985    2.51999998
   17.73750114  122.14099884    4.90999985    2.53999996
   17.74361229  122.14099884    4.90999985    2.53999996
   17.74777794  119.47699738    4.90999985    2.57999992
   17.75083351  119.43900299    4.90999985    2.59999990
   17.75416756  117.13099670    4.90999985    2.61999989
   17.75722313  121.59899902    4.90999985    2.59999990
   17.75777817  125.22699738    4.90999985    2.59999990
   17.76111031  124.10199738    4.90999985    2.55999994
   17.76416588  120.18699646    4.90999985    2.51999998
   17.76749992  125.48100281    4.90999985    2.48000002
   17.77083397  124.52400208    4.90999985    2.46000004
   17.77388954  125.06900024    4.90999985    2.46000004
   17.77722168  132.71099854    4.90999985    2.46000004
   17.78055573  130.21499634    4.90999985    2.39000010
   17.78638840  130.21499634    4.90999985    2.39000010
   17.79055595  136.85699463    4.90999985    2.39000010
   17.79388809  132.53999329    4.90999985    2.23000002
   17.79694366  138.61999512    4.90999985    2.26999998
   17.80027771  165.16900635    4.90999985    2.34999990
   17.80333328  150.33599854    4.90999985    2.26999998
   17.80666542  152.53100586    4.90999985    2.21000004
   17.80999947  162.97999573    4.90999985    2.23000002
   17.81305504  142.19700623    4.90999985    2.32999992
   17.81638718  159.17799377    4.90999985    2.28999996
   17.81972313  171.61199951    4.90999985    2.34999990
   17.82277870  173.30099487    4.90999985    0.09000000
   17.82389069  184.74400330    4.90999985    0.09000000
   17.82916832  184.74400330    4.90999985    2.17000008
   17.83333397  161.97599792    4.90999985    2.17000008
   17.83666801  165.92300415    4.90999985    2.26999998
   17.83972359  194.30999756    4.90999985    0.05000000
   17.85750008  187.16099548    4.90999985    2.13000011
   17.85972214  240.08500671    4.90999985    2.11999989
   17.86305618  210.42700195    4.90999985    2.00000000
   17.86638832  194.94700623    4.90999985    2.03999996
   17.87222290  194.94700623    4.90999985    0.01000000
   17.87638855  220.02000427    4.90999985    2.26999998
   17.87972260  188.25399780    4.90999985    2.17000008
   17.88277817  222.13400269    4.90999985    2.11999989
   17.88611031  202.43299866    4.90999985    2.09999990
   17.88944435  246.52499390    4.90999985    2.13000011
   17.89055634  201.50500488    4.90999985    2.15000010
   17.89305496  166.23800659    4.90999985    2.09999990
   17.89638901  240.48500061    4.90999985    2.07999992
   17.89944458  172.62100220    4.90999985    2.13000011
   17.90277672  158.69299316    4.90999985    2.23000002
   17.90611076  194.25500488    4.90999985    2.25000000
   17.90916634  213.69000244    4.90999985    2.23000002
   17.91499901  213.69000244    4.90999985    2.09999990
   17.91916656  264.27999878    4.90999985    2.03999996
   17.92249870  281.81201172    4.90999985    2.07999992
   17.92388916  207.03300476    4.90999985    1.94000006
   17.92611122  251.53799438    4.90999985    2.07999992
   17.92944336  240.02200317    4.90999985    2.03999996
   17.93249893  193.70399475    4.90999985    1.98000002
   17.93583298  225.99000549    4.90999985    2.07999992
   17.93916512  211.67500305    4.90999985    1.89999998
   17.94222069  216.97599792    4.90999985    2.05999994
   17.94555473  205.62300110    4.90999985    1.94000006
   17.94888878  207.72799683    4.90999985    1.91999996
   17.95194435  194.85099792    4.90999985    2.01999998
   17.95805550  194.85099792    4.90999985    2.13000011
   17.96222305  207.18200684    4.90999985    2.00000000
   17.96527863  224.95899963    4.90999985    1.96000004
   17.96861076  301.02700806    4.90999985    2.01999998
   17.97166634  284.81600952    4.90999985    2.00000000
   17.97500038  374.72500610    4.90999985    1.83000004
   17.97833443  239.85299683    4.90999985    2.00000000
   17.98139000  297.31201172    4.90999985    2.01999998
   17.98472214  295.12701416    4.90999985    1.94000006
   17.98805618  307.15200806    4.90999985    1.96000004
   17.99083328  282.15301514    4.90999985    1.88000000
   17.99138832  263.23999023    4.90999985    1.94000006
   17.99472237  237.01400757    4.90999985    1.94000006
   18.00083351  237.01400757    4.90999985    2.01999998
   18.00499916  183.81500244    4.90999985    2.07999992
   18.00833321  228.69900513    4.90999985    2.05999994
   18.01138878  200.37800598    4.90999985    2.05999994
   18.01472282  190.19599915    4.90999985    2.07999992
   18.01777840  195.41499329    4.90999985    2.15000010
   18.02111053  166.93899536    4.90999985    2.19000006
   18.02416611  253.76300049    4.90999985    2.23000002
   18.02472115  191.78500366    4.90999985    2.13000011
   18.02805519  159.89599609    4.90999985    2.19000006
   18.03138924  173.62699890    4.90999985    2.25000000
   18.03444481  181.37199402    4.90999985    2.26999998
   18.03777695  170.84899902    4.90999985    2.23000002
   18.04361153  170.84899902    4.90999985    2.23000002
   18.04777718  149.77099609    4.90999985    2.21000004
   18.05111122  146.43400574    4.90999985    2.25000000
   18.05416679  175.58500671    4.90999985    2.25000000
   18.05749893  174.65499878    4.90999985    2.15000010
   18.05777740  176.48599243    4.90999985    2.28999996
   18.06110954  208.74600220    4.90999985    2.11999989
   18.06416512  227.07899475    4.90999985    2.11999989
   18.06750107  226.91600037    4.90999985    2.09999990
   18.07083511  222.54100037    4.90999985    2.05999994
   18.07389069  149.14700317    4.90999985    1.88000000
   18.07722282  140.86000061    4.90999985    1.76999998
   18.08027840   99.15709686    4.90999985    1.78999996
   18.08638954   99.15709686    4.90999985    1.78999996
   18.09111214   -1.00000000    4.90999985    1.69000006
   18.09416771   -1.00000000    4.90999985    1.58000004
   18.09749985   -1.00000000    4.90999985    1.53999996
   18.10083389   22.40539932    4.90999985    1.44000006
   18.10388947  131.15499878    4.90999985    1.64999998
   18.10722351  261.61898804    4.90999985    1.78999996
   18.11027908  290.08700562    4.90999985    1.88000000
   18.11361122  205.67399597    4.90999985    2.15000010
   18.11694527  142.97700500    4.90999985    2.28999996
   18.12000084  134.16999817    4.90999985    2.21000004
   18.12333298  142.41200256    4.90999985    2.32999992
   18.12416649  149.37399292    4.90999985    2.32999992
   18.12944412  149.37399292    4.90999985    2.30999994
   18.13333321  142.73899841    4.90999985    2.28999996
   18.13666725  137.57899475    4.90999985    2.34999990
   18.13999939  137.64599609    4.90999985    2.39000010
   18.14305496  131.53399658    4.90999985    2.42000008
   18.14638901  122.57700348    4.90999985    2.53999996
   18.14972115  120.53900146    4.90999985    2.53999996
   18.15277672  134.83799744    4.90999985    2.50000000
   18.15611076  129.41700745    4.90999985    2.50000000
   18.15749931  122.10399628    4.90999985    2.53999996
   18.15972137  120.50399780    4.90999985    2.53999996
   18.16305542  151.83500671    4.90999985    2.32999992
   18.16611099  132.08599854    4.90999985    2.42000008
   18.17222214  132.08599854    4.90999985    2.23000002
   18.17638779  204.37199402    4.90999985    2.23000002
   18.17944336  219.83000183    4.90999985    2.03999996
   18.18277740  191.22700500    4.90999985    2.00000000
   18.18610954  158.89599609    4.90999985    2.13000011
   18.18916512  175.06399536    4.90999985    2.21000004
   18.19083214  193.54200745    4.90999985    2.25000000
   18.19277763  274.97299194    4.90999985    2.05999994
   18.19610977  238.75199890    4.90999985    1.91999996
   18.19916534  152.03500366    4.90999985    1.86000001
   18.20250130  144.02699280    4.90999985    1.86000001
   18.20583344  141.15499878    4.90999985    1.76999998
   18.20888901  141.87699890    4.90999985    1.75000000
   18.21500015  141.87699890    4.90999985    1.78999996
   18.21916771   -1.00000000    4.90999985    1.64999998
   18.22249985   -1.00000000    4.90999985    1.69000006
   18.22583389   -1.00000000    4.90999985    1.61000001
   18.22916794   -1.00000000    4.90999985    1.53999996
   18.23222351   -1.00000000    4.90999985    1.51999998
   18.23555565   -1.00000000    4.90999985    1.41999996
   18.23861122   -1.00000000    4.90999985    1.39999998
   18.24194527   -1.00000000    4.90999985    1.39999998
   18.24527740   -1.00000000    4.90999985    1.36000001
   18.24833298   -1.00000000    4.90999985    1.33000004
   18.25166702   -1.00000000    4.90999985    1.28999996
   18.26194382   -1.00000000    4.90999985    1.41999996
   18.26527786   -1.00000000    4.90999985    1.34000003
   18.26833344   -1.00000000    4.90999985    1.34000003
   18.27166557   -1.00000000    4.90999985    1.26999998
   18.27472115   -1.00000000    4.90999985    1.21000004
   18.27805519   -1.00000000    4.90999985    1.26999998
   18.28138924   -1.00000000    4.90999985    1.23000002
   18.28444481   -1.00000000    4.90999985    1.23000002
   18.28777695   -1.00000000    4.90999985    1.23000002
   18.29138756   -1.00000000    4.90999985    1.21000004
   18.29444313   -1.00000000    4.90999985    1.23000002
   18.30472183   -1.00000000    4.90999985    1.21000004
   18.30805397   -1.00000000    4.90999985    1.26999998
   18.31110954   -1.00000000    4.90999985    1.28999996
   18.31444359   -1.00000000    4.90999985    1.14999998
   18.31777954   -1.00000000    4.90999985    1.09000003
   18.32083511   -1.00000000    4.90999985    1.09000003
   18.32444572   -1.00000000    4.90999985    1.05999994
   18.32750130   -1.00000000    4.90999985    1.05999994
   18.33083344   -1.00000000    4.90999985    1.11000001
   18.33416748   -1.00000000    4.90999985    1.13000000
   18.33722305   -1.00000000    4.90999985    1.07000005
   18.34749985   -1.00000000    4.90999985    1.16999996
   18.35083389   -1.00000000    4.90999985    1.16999996
   18.35416794   -1.00000000    4.90999985    1.23000002
   18.35722351   -1.00000000    4.90999985    1.28999996
   18.36083412   -1.00000000    4.90999985    1.51999998
   18.36416626   -1.00000000    4.90999985    1.66999996
   18.36750031   -1.00000000    4.90999985    1.51999998
   18.37055588   -1.00000000   -1.00000000   -1.00000000
   18.37388992   96.75379944    4.90999985    1.83000004
   18.37722206   -1.00000000    4.90999985    1.61000001
   18.38027763   -1.00000000    4.90999985    1.51999998
   18.38638878   -1.00000000    4.90999985    1.60000002
   18.39055634   -1.00000000    4.90999985    1.33000004
   18.39388847   -1.00000000    4.90999985    1.33000004
   18.39722252   -1.00000000    4.90999985    1.07000005
   18.40055466   -1.00000000    4.90999985    1.03999996
   18.40361023   -1.00000000    4.90999985    1.33000004
   18.40694427   -1.00000000    4.90999985    1.19000006
   18.41027832   -1.00000000    4.90999985    1.19000006
   18.41333389   -1.00000000    4.90999985    1.21000004
   18.41666603   -1.00000000    4.90999985    1.21000004
   18.41972160   -1.00000000    4.90999985    1.03999996
   18.42305565   -1.00000000    4.90999985    1.09000003
   18.43333244   -1.00000000    4.90999985    1.28999996
   18.43638802   -1.00000000    4.90999985    1.13000000
   18.43972206   -1.00000000    4.90999985    1.13000000
   18.44305420   -1.00000000    4.90999985    1.07000005
   18.44610977   -1.00000000    4.90999985    0.95999998
   18.44944382   -1.00000000    4.90999985    1.05999994
   18.45277786   -1.00000000    4.90999985    1.00000000
   18.45583344   -1.00000000    4.90999985    1.09000003
   18.45944595   -1.00000000    4.90999985    1.01999998
   18.46277809   -1.00000000    4.90999985    1.09000003
   18.46611214   -1.00000000    4.90999985    1.16999996
   18.47611237   -1.00000000    4.90999985    1.11000001
   18.47944450   -1.00000000    4.90999985    1.00000000
   18.48250008   -1.00000000    4.90999985    0.81999999
   18.48583412   -1.00000000    4.90999985    0.80000001
   18.48916626   -1.00000000    4.90999985    0.86000001
   18.49250031   -1.00000000    4.90999985    0.86000001
   18.49583435   -1.00000000    4.90999985    0.80000001
   18.49916649   -1.00000000    4.90999985    0.70999998
   18.50222206   -1.00000000    4.90999985    0.95999998
   18.50555611   -1.00000000    4.90999985    1.13000000
   18.50888824   -1.00000000    4.90999985    1.07000005
   18.51888847   -1.00000000    4.90999985    1.50000000
   18.52222252   -1.00000000    4.90999985    1.23000002
   18.52555466   -1.00000000    4.90999985    1.19000006
   18.52888870   -1.00000000    4.90999985    0.86000001
   18.53222275   -1.00000000    4.90999985    1.09000003
   18.53527641   -1.00000000    4.90999985    1.19000006
   18.53861046   -1.00000000    4.90999985    1.03999996
   18.54194450   -1.00000000    4.90999985    1.11000001
   18.54500008  146.00999451    4.90999985    1.63000000
   18.54833221  183.10499573    4.90999985    2.19000006
   18.55138779  198.12500000    4.90999985    2.34999990
   18.55777740  198.12500000    4.90999985    2.26999998
   18.56194305  167.87300110    4.90999985    1.73000002
   18.56527710  163.20899963    4.90999985    1.66999996
   18.56833458  206.54299927    4.90999985    1.88000000
   18.57166672  232.66999817    4.90999985    2.25000000
   18.57472229  202.45100403    4.90999985    1.73000002
   18.57805634  239.35600281    4.90999985    2.05999994
   18.58139038  220.81500244    4.90999985    1.89999998
   18.58444595  156.28700256    4.90999985    2.25000000
   18.58777809  137.41299438    4.90999985    1.66999996
   18.59111214  278.70800781    4.90999985    1.61000001
   18.59277916  212.88499451    4.90999985    1.91999996
   18.59472275  188.06799316    4.90999985    2.13000011
   18.60055542  188.06799316    4.90999985    2.39000010
   18.60472298  159.47399902    4.90999985    2.53999996
   18.60805511  135.02799988    4.90999985    2.51999998
   18.61111069  181.84700012    4.90999985    2.48000002
   18.61444473  266.70999146    4.90999985    2.51999998
   18.61777878  220.41900635    4.90999985    1.78999996
   18.62083435  104.12699890    4.90999985    2.07999992
   18.62416649  199.64999390    4.90999985    1.85000002
   18.62611198  192.69999695    4.90999985    2.39000010
   18.62777710  176.56199646    4.90999985    2.36999989
   18.63111115  175.74299622    4.90999985    2.09999990
   18.63416672  262.53100586    4.90999985    1.71000004
   18.63750076  263.86099243    4.90999985    1.86000001
   18.64361191  263.86099243    4.90999985    2.01999998
   18.64749908  136.23500061    4.90999985    1.89999998
   18.65083313   -1.00000000    4.90999985    1.61000001
   18.65416718   -1.00000000    4.90999985    1.13000000
   18.65722275   -1.00000000    4.90999985    1.05999994
   18.66083336   -1.00000000    4.90999985    0.95999998
   18.66416550   -1.00000000    4.90999985    0.94000000
   18.66722107   -1.00000000    4.90999985    0.81999999
   18.67055511   -1.00000000    4.90999985    0.75000000
   18.67388916   -1.00000000    4.90999985    0.75000000
   18.67694473   -1.00000000    4.90999985    0.86000001
   18.68027687   -1.00000000    4.90999985    0.88000000
   18.69027710   -1.00000000    4.90999985    0.75000000
   18.69388771   -1.00000000    4.90999985    0.63000000
   18.69722176   -1.00000000    4.90999985    0.70999998
   18.70027924   -1.00000000    4.90999985    0.88000000
   18.70361137   -1.00000000    4.90999985    0.95999998
   18.70694542   24.84049988    4.90999985    1.05999994
   18.71000099   -1.00000000    4.90999985    1.39999998
   18.71333504   -1.00000000    4.90999985    0.92000002
   18.71666718   -1.00000000    4.90999985    1.00000000
   18.71972275   -1.00000000    4.90999985    1.16999996
   18.72305679   48.36650085    4.90999985    1.38000000
   18.72916794   48.36650085    4.90999985    1.28999996
   18.73333359   -1.00000000    4.90999985    0.98000002
   18.73638916   -1.00000000    4.90999985    1.05999994
   18.73972321   -1.00000000    4.90999985    1.39999998
   18.74305534   -1.00000000    4.90999985    1.36000001
   18.74611092   -1.00000000    4.90999985    1.09000003
   18.74944496   -1.00000000    4.90999985    1.28999996
   18.75277710   90.44390106    4.90999985    1.33000004
   18.75583267  406.40499878    4.90999985    1.63000000
   18.75805473  240.55499268    4.90999985    1.96000004
   18.75805473   -1.00000000    4.90999985    1.05999994
   18.75805473   -1.00000000    4.90999985    1.39999998
   18.75833321   -1.00000000    4.90999985    1.36000001
   18.75833321   -1.00000000    4.90999985    1.09000003
   18.75833321   -1.00000000    4.90999985    1.28999996
   18.75861168   90.44390106    4.90999985    1.33000004
   18.75861168  406.40499878    4.90999985    1.63000000
   18.75861168   48.36650085    4.90999985    1.38000000
   18.75888824   -1.00000000    4.90999985    0.98000002
   18.76083374   49.83240128    4.90999985    1.58000004
   18.76388931   -1.00000000    4.90999985    1.73000002
   18.76722145   -1.00000000    4.90999985    1.01999998
   18.77055550   -1.00000000    4.90999985    0.95999998
   18.77361107   -1.00000000    4.90999985    0.79000002
   18.78277779   -1.00000000    4.90999985    0.75000000
   18.78610992   -1.00000000    4.90999985    0.61000001
   18.78916550   -1.00000000    4.90999985    0.63000000
   18.79277802   -1.00000000    4.90999985    0.75000000
   18.79583359   -1.00000000    4.90999985    0.69000000
   18.79916573   -1.00000000    4.90999985    0.81999999
   18.80249977   -1.00000000    4.90999985    0.83999997
   18.80555534   -1.00000000    4.90999985    0.86000001
   18.80888748   -1.00000000    4.90999985    0.86000001
   18.81194305   -1.00000000    4.90999985    1.07000005
   18.81527710   -1.00000000    4.90999985    1.00000000
   18.82166672   -1.00000000    4.90999985    2.05999994
   18.82583427   -1.00000000    4.90999985    1.58000004
   18.82888985   -1.00000000    4.90999985    1.25000000
   18.83222389   -1.00000000    4.90999985    1.63000000
   18.83527756   -1.00000000    4.90999985    1.05999994
   18.83861160   -1.00000000    4.90999985    1.21000004
   18.84194565   -1.00000000    4.90999985    1.23000002
   18.84500122   -1.00000000    4.90999985    1.30999994
   18.84833336   -1.00000000    4.90999985    1.11000001
   18.85166740   -1.00000000    4.90999985    1.13000000
   18.85472298   -1.00000000    4.90999985    1.30999994
   18.85805511   -1.00000000    4.90999985    1.23000002
   18.87500000  215.11199951    4.90999985    2.01999998
   18.87916756  215.11199951    4.90999985    2.03999996
   18.88333321  238.74200439    4.90999985    1.86000001
   18.88666725  322.27999878    4.90999985    1.83000004
   18.88972282  120.79499817    4.90999985    1.94000006
   18.89305496   79.37100220    4.90999985    1.51999998
   18.89638901  143.32800293    4.90999985    1.94000006
   18.89944458  192.60499573    4.90999985    2.28999996
   18.90277672  249.24600220    4.90999985    2.00000000
   18.90583229  154.38900757    4.90999985    1.96000004
   18.90833282  178.01499939    4.90999985    2.26999998
   18.90944481   -1.00000000    4.90999985    1.85000002
   18.91277695  168.04600525    4.90999985    1.75000000
   18.91611099  313.82299805    4.90999985    2.30999994
   18.92194366  313.82299805    4.90999985    2.01999998
   18.92611122  164.39399719    4.90999985    1.63000000
   18.92944336  139.25999451    4.90999985    1.58000004
   18.93249893  214.86300659    4.90999985    1.50000000
   18.93583298  133.87100220    4.90999985    2.23000002
   18.93916512  219.25300598    4.90999985    2.00000000
   18.94166565  147.64100647    4.90999985    1.85000002
   18.94249916  165.76699829    4.90999985    1.96000004
   18.94583321  244.25799561    4.90999985    2.25000000
   18.94916534   -1.00000000    4.90999985    1.96000004
   18.95222282   -1.00000000    4.90999985    0.95999998
   18.95555687  231.72500610    4.90999985    1.58000004
   18.95888901  271.80200195    4.90999985    1.91999996
   18.96500015  271.80200195    4.90999985    2.32999992
   18.96888924  153.92500305    4.90999985    2.66000009
   18.97222328   65.46430206    4.90999985    2.36999989
   18.97583389   -1.00000000    4.90999985    0.81999999
   18.97916794   -1.00000000    4.90999985    0.80000001
   18.98222351   -1.00000000    4.90999985    0.38000000
   18.98555565   -1.00000000    4.90999985    0.83999997
   18.98888969   -1.00000000    4.90999985    0.36000001
   18.99194527  253.86199951    4.90999985    1.60000002
   18.99527740  194.15699768    4.90999985    1.96000004
   18.99861145   -1.00000000    4.90999985    2.00000000
   19.00166702  231.38800049    4.90999985    1.36000001
   19.00777817  231.38800049    4.90999985    2.36999989
   19.01194382  137.97000122    4.90999985    2.39000010
   19.01499939  154.43499756    4.90999985    2.39000010
   19.01833344  138.38400269    4.90999985    2.15000010
   19.02166557  154.69900513    4.90999985    1.61000001
   19.02472115   -1.00000000    4.90999985    1.61000001
   19.02805519  147.13600159    4.90999985    1.55999994
   19.03111076   -1.00000000    4.90999985    1.46000004
   19.03444481   50.80920029    4.90999985    1.38000000
   19.03777695   -1.00000000    4.90999985    1.50000000
   19.04083252   -1.00000000    4.90999985    1.05999994
   19.04444313   -1.00000000    4.90999985    1.09000003
   19.05472183   -1.00000000    4.90999985    1.05999994
   19.05777740   -1.00000000    4.90999985    1.16999996
   19.06110954   -1.00000000    4.90999985    1.30999994
   19.06444359   -1.00000000    4.90999985    1.19000006
   19.06750107   -1.00000000    4.90999985    1.23000002
   19.07083511   -1.00000000    4.90999985    1.19000006
   19.07389069   -1.00000000    4.90999985    1.28999996
   19.07750130   -1.00000000    4.90999985    1.39999998
   19.08083344   -1.00000000    4.90999985    1.30999994
   19.08416748   -1.00000000    4.90999985    1.21000004
   19.08722305   -1.00000000    4.90999985    1.28999996
   19.09333420   -1.00000000    4.90999985    1.26999998
   19.09749985   -1.00000000    4.90999985    1.34000003
   19.10083389   -1.00000000    4.90999985    1.36000001
   19.10388947   -1.00000000    4.90999985    1.33000004
   19.10722351   -1.00000000    4.90999985    1.09000003
   19.11083412   -1.00000000    4.90999985    1.14999998
   19.11416626   -1.00000000    4.90999985    1.21000004
   19.11722183   -1.00000000    4.90999985    1.00000000
   19.12055588   -1.00000000    4.90999985    1.38000000
   19.12388992   -1.00000000    4.90999985    1.34000003
   19.12694550   -1.00000000    4.90999985    1.23000002
   19.13027763   -1.00000000    4.90999985    1.07000005
   19.14027786   -1.00000000    4.90999985    1.33000004
   19.14388847   -1.00000000    4.90999985    1.36000001
   19.14722252   -1.00000000    4.90999985    1.23000002
   19.15027809   -1.00000000    4.90999985    1.16999996
   19.15361023   -1.00000000    4.90999985    1.13000000
   19.15694427   -1.00000000    4.90999985    1.00000000
   19.15999985   -1.00000000    4.90999985    0.98000002
   19.16333389   -1.00000000    4.90999985    0.92000002
   19.16638756   -1.00000000    4.90999985    0.73000002
   19.16972160   -1.00000000    4.90999985    0.79000002
   19.17305565   -1.00000000    4.90999985    0.81999999
   19.18305397   -1.00000000    4.90999985    0.89999998
   19.18638802   -1.00000000    4.90999985    0.88000000
   19.18972206   -1.00000000    4.90999985    0.94000000
   19.19277763   -1.00000000    4.90999985    0.98000002
   19.19610977   -1.00000000    4.90999985    1.03999996
   19.19944382   -1.00000000    4.90999985    1.03999996
   19.20250130   -1.00000000    4.90999985    1.14999998
   19.20583344   -1.00000000    4.90999985    1.05999994
   19.20888901   -1.00000000    4.90999985    0.88000000
   19.21277809   -1.00000000    4.90999985    0.83999997
   19.21583366   -1.00000000    4.90999985    0.86000001
   19.22611237   -1.00000000    4.90999985    0.79000002
   19.22916794   -1.00000000    4.90999985    0.70999998
   19.23250008   -1.00000000    4.90999985    0.63000000
   19.23583412   -1.00000000    4.90999985    0.51999998
   19.23888969   -1.00000000    4.90999985    0.52999997
   19.24222183   -1.00000000    4.90999985    0.46000001
   19.24555588   -1.00000000    4.90999985    0.44000000
   19.24888992   -1.00000000    4.90999985    0.41999999
   19.25222206   -1.00000000    4.90999985    0.41999999
   19.25527763   -1.00000000    4.90999985    0.40000001
   19.25861168   -1.00000000    4.90999985    0.40000001
   19.26888847   -1.00000000    4.90999985    0.44000000
   19.27222252   -1.00000000    4.90999985    0.47999999
   19.27527809   -1.00000000    4.90999985    0.50000000
   19.27888870   -1.00000000    4.90999985    0.46000001
   19.28222275   -1.00000000    4.90999985    0.41999999
   19.28527641   -1.00000000    4.90999985    0.44000000
   19.28861046   -1.00000000    4.90999985    0.41999999
   19.29194450   -1.00000000    4.90999985    0.40000001
   19.29500008   -1.00000000    4.90999985    0.34000000
   19.29833221   -1.00000000    4.90999985    0.34000000
   19.30166626   -1.00000000    4.90999985    0.31999999
   19.31166649   -1.00000000    4.90999985    0.28000000
   19.31499863   -1.00000000    4.90999985    0.30000001
   19.31805611   -1.00000000    4.90999985    0.28000000
   19.32139015   -1.00000000    4.90999985    0.28000000
   19.32472229   -1.00000000    4.90999985    0.25999999
   19.32777786   -1.00000000    4.90999985    0.25999999
   19.33111191   -1.00000000    4.90999985    0.25000000
   19.33444595   -1.00000000    4.90999985    0.25000000
   19.33750153   -1.00000000    4.90999985    0.25000000
   19.34083366   -1.00000000    4.90999985    0.25000000
   19.34416771   -1.00000000    4.90999985    0.20999999
   19.35444450   -1.00000000    4.90999985    0.19000000
   19.35777855   -1.00000000    4.90999985    0.19000000
   19.36111069   -1.00000000    4.90999985    0.19000000
   19.36416626   -1.00000000    4.90999985    0.19000000
   19.36750031   -1.00000000    4.90999985    0.19000000
   19.37083435   -1.00000000    4.90999985    0.17000000
   19.37388992   -1.00000000    4.90999985    0.17000000
   19.37750053   -1.00000000    4.90999985    0.17000000
   19.38083267   -1.00000000    4.90999985    0.17000000
   19.38388824   -1.00000000    4.90999985    0.15000001
   19.38722229   -1.00000000    4.90999985    0.15000001
   19.39749908   -1.00000000    4.90999985    0.11000000
   19.40055466   -1.00000000    4.90999985    0.11000000
   19.40388870   -1.00000000    4.90999985    0.11000000
   19.40722275   -1.00000000    4.90999985    0.09000000
   19.41055489   -1.00000000    4.90999985    0.09000000
   19.41388893   -1.00000000    4.90999985    0.09000000
   19.41694450   -1.00000000    4.90999985    0.09000000
   19.42027664   -1.00000000    4.90999985    0.09000000
   19.42361069   -1.00000000    4.90999985    0.11000000
   19.42666626   -1.00000000    4.90999985    0.11000000
   19.43000031   -1.00000000    4.90999985    0.11000000
