    HOUR (UT)   FLARE FACTOR    SKY TESTER    SUN TESTER
   12.31972218   -1.00000000   -1.00000000   -1.00000000
   12.36138916  180.71000671    3.01999998    1.83000004
   12.36500072  171.44299316    3.01999998    1.83000004
   12.36805534  172.75199890    3.00000000    1.85000002
   12.37138939  171.17599487    3.00000000    1.83000004
   12.37472248  168.24000549    3.00000000    1.85000002
   12.37777805  167.26600647    3.00000000    1.85000002
   12.38111115  161.40199280    3.01999998    1.86000001
   12.38444424  167.34500122    2.98000002    1.86000001
   12.38749981  168.31399536    3.00000000    1.85000002
   12.39083290  172.28799438    2.98000002    1.86000001
   12.39388847  163.04100037    2.98000002    1.86000001
   12.39472198  167.60499573    2.98000002    1.86000001
   12.39750004  162.24600220    3.00000000    1.86000001
   12.40083313  170.63600159    2.98000002    1.86000001
   12.40416622  171.69799805    2.96000004    1.88000000
   12.40722179  167.99899292    2.98000002    1.88000000
   12.41055489  164.22900391    2.98000002    1.88000000
   12.41388893  163.82800293    2.96000004    1.88000000
   12.41694450  162.98300171    2.91000009    1.88000000
   12.42027855  159.95799255    2.91000009    1.89999998
   12.42333412  167.58599854    2.91000009    1.89999998
   12.42666721  166.04499817    2.89000010    1.88000000
   12.42805576  167.88200378    2.91000009    1.89999998
   12.43027782  171.63200378    2.89000010    1.89999998
   12.43361092  166.41200256    2.91000009    1.89999998
   12.43694496  168.47399902    2.86999989    1.89999998
   12.44000053  174.87500000    2.86999989    1.89999998
   12.44361115  182.62100220    2.89000010    1.89999998
   12.44666672  170.31900024    2.86999989    1.89999998
   12.44999981  173.18600464    2.89000010    1.91999996
   12.45305538  168.15699768    2.91000009    1.91999996
   12.45638847  160.87100220    2.93000007    1.91999996
   12.45972157  163.16299438    2.94000006    1.91999996
   12.46138859  160.94999695    2.91000009    1.91999996
   12.46333313  165.92700195    2.96000004    1.91999996
   12.46638870  163.72599792    2.96000004    1.94000006
   12.46972179  162.17199707    2.98000002    1.91999996
   12.47277737  166.52900696    3.01999998    1.91999996
   12.47611046  163.37600708    3.01999998    1.94000006
   12.47944355  157.74899292    3.01999998    1.94000006
   12.48249912  158.28900146    3.01999998    1.94000006
   12.48583317  167.28399658    3.01999998    1.94000006
   12.48916721  159.93800354    3.03999996    1.94000006
   12.49222279  165.05599976    3.03999996    1.94000006
   12.49472237  168.78599548    3.03999996    1.94000006
   12.49611092  162.28900146    3.03999996    1.94000006
   12.49916649  164.90600586    3.03999996    1.94000006
   12.50249958  166.53300476    3.01999998    1.94000006
   12.50555515  162.85499573    2.98000002    1.96000004
   12.50888920  157.28700256    2.98000002    1.94000006
   12.51222229  175.33799744    2.98000002    1.96000004
   12.51527786  166.96899414    2.96000004    1.96000004
   12.51861095  164.66200256    2.98000002    1.98000002
   12.52194405  165.03900146    2.94000006    1.98000002
   12.52499962  166.71600342    2.93000007    1.96000004
   12.52805519  156.31300354    2.93000007    1.98000002
   12.52888870  162.75199890    2.94000006    1.98000002
   12.53194427  155.93299866    2.91000009    1.96000004
   12.53527832  151.72099304    2.93000007    1.98000002
   12.53833389  161.64799500    2.93000007    1.98000002
   12.54166698  148.81700134    2.96000004    1.98000002
   12.54500008  151.44000244    3.00000000    1.98000002
   12.54805565  150.60400391    3.00000000    1.98000002
   12.55138874  158.14799500    3.00000000    1.98000002
   12.55472279  159.25799561    3.00000000    1.98000002
   12.55777836  161.03900146    3.05999994    1.98000002
   12.56111145  159.85499573    3.07999992    1.98000002
   12.56166649  170.92399597    3.07999992    2.00000000
   12.56472206  155.92700195    3.09999990    2.00000000
   12.56805515  162.72500610    3.11999989    2.00000000
   12.57138920  166.63499451    3.11999989    2.00000000
   12.57444477  162.22099304    3.09999990    2.00000000
   12.57777786  165.75399780    3.09999990    2.00000000
   12.58111095  158.74600220    3.09999990    2.00000000
   12.58416653  153.26400757    3.07999992    2.00000000
   12.58749962  159.06700134    3.07999992    2.01999998
   12.59055519  148.67199707    3.01999998    2.00000000
   12.59388828  153.24800110    3.03999996    2.01999998
   12.59499931  153.59100342    3.07999992    2.01999998
   12.59749985  154.08700562    3.01999998    2.01999998
   12.60083389  154.53999329    2.98000002    2.01999998
   12.60416698  154.18200684    2.98000002    2.01999998
   12.60722256  152.93600464    2.96000004    2.01999998
   12.61055565  153.77099609    2.96000004    2.03999996
   12.61388969  156.49200439    2.94000006    2.01999998
   12.61694431  157.34800720    2.91000009    2.01999998
   12.62027836  165.24899292    2.93000007    2.01999998
   12.62333393  154.99899292    2.94000006    2.01999998
   12.62666702  159.14900208    2.94000006    2.01999998
   12.62833309  153.47000122    2.94000006    2.03999996
   12.63027763  153.53900146    2.96000004    2.03999996
   12.63361073  158.82099915    2.98000002    2.03999996
   12.63694477  157.01899719    2.98000002    2.03999996
   12.64000034  164.64199829    3.01999998    2.05999994
   12.64333344  154.90600586    3.03999996    2.05999994
   12.64666653  153.98599243    3.09999990    2.05999994
   12.64972210  161.09100342    3.07999992    2.03999996
   12.65305519  158.67999268    3.09999990    2.03999996
   12.65611076  158.08000183    3.14000010    2.05999994
   12.65944386  161.78100586    3.07999992    2.05999994
   12.66166592  157.19700623    3.11999989    2.05999994
   12.66305542  153.49299622    3.09999990    2.05999994
   12.66638851  155.71099854    3.14000010    2.05999994
   12.66972256  152.66200256    3.14000010    2.05999994
   12.67277813  148.72300720    3.09999990    2.07999992
   12.67611122  148.99499512    3.05999994    2.05999994
   12.67944431  147.09599304    3.03999996    2.07999992
   12.68249989  154.64700317    3.03999996    2.07999992
   12.68583298  156.43099976    2.96000004    2.05999994
   12.68916702  156.15499878    2.98000002    2.05999994
   12.69222260  152.57899475    2.94000006    2.07999992
   12.69499969  151.72999573    2.91000009    2.07999992
   12.69583321  159.09500122    2.91000009    2.07999992
   12.69916630  156.66700745    2.89000010    2.07999992
   12.70249939  157.79100037    2.86999989    2.07999992
   12.70555496  149.51899719    2.82999992    2.07999992
   12.70888901  159.85800171    2.82999992    2.07999992
   12.71222210  152.71200562    2.86999989    2.09999990
   12.71527767  163.16200256    2.84999990    2.07999992
   12.71861076  168.38600159    2.91000009    2.07999992
   12.72166634  167.51199341    2.93000007    2.09999990
   12.72499943  169.29200745    2.98000002    2.09999990
   12.72833252  160.22700500    3.01999998    2.09999990
   12.72861099  162.44999695    3.01999998    2.09999990
   12.73194408  163.10299683    3.03999996    2.09999990
   12.73527813  163.90899658    3.07999992    2.09999990
   12.73833370  167.78799438    3.11999989    2.09999990
   12.74166679  158.07800293    3.18000007    2.09999990
   12.74499989  168.33500671    3.18000007    2.09999990
   12.74805546  174.70399475    3.23000002    2.09999990
   12.75138855  160.55799866    3.25000000    2.09999990
   12.75444412  162.72099304    3.26999998    2.09999990
   12.75777817  150.16900635    3.23000002    2.09999990
   12.76111126  160.31300354    3.23000002    2.09999990
   12.76166630  157.73599243    3.30999994    2.09999990
   12.76472187  153.22799683    3.26999998    2.09999990
   12.76777744  151.40699768    3.20000005    2.11999989
   12.77111053  155.29600525    3.18000007    2.11999989
   12.77444458  150.31799316    3.16000009    2.09999990
   12.77750015  160.80799866    3.18000007    2.11999989
   12.78083324  153.20100403    3.14000010    2.11999989
   12.78416729  150.77600098    3.07999992    2.13000011
   12.78722286  148.62500000    3.03999996    2.11999989
   12.79055595  149.76100159    3.03999996    2.13000011
   12.79361153  169.49400330    3.03999996    2.13000011
   12.79500008  168.66000366    3.01999998    2.13000011
   12.79750061  157.58700562    3.03999996    2.13000011
   12.80055618  157.58700562    3.03999996    2.13000011
   12.80388927  158.83900452    3.07999992    2.13000011
   12.80694485  144.54200745    3.07999992    2.15000010
   12.81027794  134.15299988    3.11999989    2.15000010
   12.81361103  140.14999390    3.11999989    2.13000011
   12.81666660  139.45700073    3.16000009    2.13000011
   12.81999969  142.54400635    3.21000004    2.13000011
   12.82333374  150.68299866    3.26999998    2.13000011
   12.82638836  141.94999695    3.28999996    2.15000010
   12.82833290  146.27099609    3.41000009    2.15000010
   12.83027744  140.91499329    3.41000009    2.15000010
   12.83333302  145.00799561    3.39000010    2.15000010
   12.83666611  144.64599609    3.39000010    2.15000010
   12.83972168  147.20500183    3.34999990    2.15000010
   12.84305477  141.28900146    3.43000007    2.15000010
   12.84638882  137.46600342    3.28999996    2.13000011
   12.84944439  141.13900757    3.34999990    2.15000010
   12.85277843  149.17700195    3.36999989    2.15000010
   12.85611153  145.24600220    3.39000010    2.17000008
   12.85916710  142.88200378    3.25000000    2.13000011
   12.86166668  140.71000671    3.20000005    2.15000010
   12.86305618  147.09700012    3.21000004    2.15000010
   12.86611176  143.05400085    3.16000009    2.15000010
   12.86944485  143.84700012    3.11999989    2.15000010
   12.87250042  150.61199951    3.09999990    2.17000008
   12.87583351  147.65400696    3.09999990    2.15000010
   12.87916660  149.40400696    3.11999989    2.17000008
   12.88222218  156.69099426    3.07999992    2.17000008
   12.88555527  150.55799866    3.05999994    2.17000008
   12.88888836  148.15699768    3.07999992    2.15000010
   12.89194393  154.10400391    3.09999990    2.17000008
   12.89499950  150.06399536    3.11999989    2.17000008
   12.89583302  154.01600647    3.11999989    2.17000008
   12.89888859  148.63099670    3.20000005    2.17000008
   12.90222168  153.04299927    3.25000000    2.17000008
   12.90527725  151.99200439    3.25000000    2.17000008
   12.90861034  152.09700012    3.25000000    2.17000008
   12.91194439  152.68800354    3.32999992    2.17000008
   12.91499996  155.27499390    3.43000007    2.17000008
   12.91833401  146.82800293    3.48000002    2.19000006
   12.92166710  148.24299622    3.46000004    2.17000008
   12.92472267  144.54400635    3.53999996    2.17000008
   12.92805576  146.40699768    3.61999989    2.19000006
   12.92861176  152.03900146    3.66000009    2.19000006
   12.93194485  148.17900085    3.66000009    2.19000006
   12.93500042  148.33999634    3.59999990    2.19000006
   12.93833351  155.08700562    3.66000009    2.19000006
   12.94138908  151.80099487    3.61999989    2.19000006
   12.94472218  149.11199951    3.57999992    2.19000006
   12.94805527  138.86500549    3.53999996    2.21000004
   12.95111084  146.53300476    3.51999998    2.19000006
   12.95444393  151.49200439    3.50000000    2.19000006
   12.95777798  151.97399902    3.46000004    2.19000006
   12.96083355  159.43200684    3.46000004    2.19000006
   12.96194458  153.73899841    3.45000005    2.19000006
   12.96472168  153.86700439    3.41000009    2.19000006
   12.96777725  151.72399902    3.43000007    2.21000004
   12.97111034  159.85200500    3.32999992    2.19000006
   12.97416592  164.86000061    3.39000010    2.21000004
   12.97749996  156.89999390    3.46000004    2.21000004
   12.98083305  149.45199585    3.36999989    2.21000004
   12.98388958  146.93499756    3.48000002    2.21000004
   12.98722267  145.29100037    3.46000004    2.21000004
   12.99055576  145.65600586    3.46000004    2.21000004
   12.99361134  150.38699341    3.53999996    2.21000004
   12.99527836  143.63400269    3.57999992    2.21000004
   12.99750042  150.53399658    3.53999996    2.21000004
   13.00055599  151.35200500    3.70000005    2.21000004
   13.00388908  154.66400146    3.78999996    2.21000004
   13.00694466  153.52999878    3.86999989    2.23000002
   13.01027775  151.77999878    3.93000007    2.23000002
   13.01361084  149.68699646    3.84999990    2.23000002
   13.01666641  151.38299561    3.93000007    2.21000004
   13.01999950  159.87100220    4.00000000    2.23000002
   13.02333355  153.02299500    4.03999996    2.23000002
   13.02638817  151.08200073    3.99000001    2.23000002
   13.02861118  152.37800598    3.99000001    2.23000002
   13.03027725  152.91999817    4.00000000    2.23000002
   13.03333378  163.20500183    3.95000005    2.23000002
   13.03666687  159.80400085    3.89000010    2.23000002
   13.03972244  145.25000000    3.95000005    2.23000002
   13.04305553  152.84899902    3.89000010    2.23000002
   13.04638958  152.02799988    3.73000002    2.23000002
   13.04944515  145.82699585    3.70000005    2.23000002
   13.05277824  155.57899475    3.76999998    2.25000000
   13.05611134  144.64999390    3.68000007    2.25000000
   13.05916691  145.41600037    3.70000005    2.23000002
   13.06194496  149.28700256    3.64000010    2.23000002
   13.06305599  143.01199341    3.70000005    2.25000000
   13.06611156  155.60200500    3.59999990    2.23000002
   13.06944466  155.45399475    3.68000007    2.23000002
   13.07277775  153.54100037    3.66000009    2.23000002
   13.07583332  159.51199341    3.76999998    2.23000002
   13.07916641  154.97200012    3.95000005    2.25000000
   13.08222198  154.05099487    3.95000005    2.25000000
   13.08555508  161.07299805    4.03999996    2.25000000
   13.08888817  159.07000732    4.05999994    2.25000000
   13.09194374  156.63600159    4.15999985    2.25000000
   13.09527779  154.38800049    4.19999981    2.25000000
   13.09583282  146.73100281    4.19999981    2.25000000
   13.09888840  153.18800354    4.32999992    2.25000000
   13.10222244  149.98599243    4.30999994    2.25000000
   13.10555553  146.04100037    4.30999994    2.25000000
   13.10861111  153.06199646    4.40999985    2.25000000
   13.11194515  159.13099670    4.44999981    2.25000000
   13.11500072  152.07499695    4.42999983    2.25000000
   13.11861134  143.85499573    4.36999989    2.25000000
   13.12194443  149.63200378    4.34999990    2.25000000
   13.12500000  146.87899780    4.36999989    2.26999998
   13.12833309  146.86900330    4.26000023    2.25000000
   13.12888908  148.64599609    4.26000023    2.25000000
   13.13222218  145.60099792    4.21999979    2.25000000
   13.13527775  147.75500488    4.17999983    2.26999998
   13.13861084  148.07000732    4.13999987    2.26999998
   13.14194393  146.23800659    4.11999989    2.26999998
   13.14499950  146.29400635    4.09999990    2.26999998
   13.14833355  148.32800293    4.09999990    2.26999998
   13.15138817  149.38299561    4.00000000    2.26999998
   13.15472221  163.74800110    4.03999996    2.26999998
   13.15805531  158.26499939    4.03999996    2.26999998
   13.16111088  158.80700684    4.09999990    2.26999998
   13.16222191  161.15699768    4.11999989    2.26999998
   13.16499996  155.26800537    4.15999985    2.26999998
   13.16805553  151.67100525    4.32999992    2.26999998
   13.17138958  147.35400391    4.30999994    2.26999998
   13.17472267  147.81799316    4.40999985    2.26999998
   13.17777824  150.25300598    4.44999981    2.26999998
   13.18111134  156.76800537    4.59999990    2.26999998
   13.18416691  161.79499817    4.69999981    2.26999998
   13.18750000  161.73800659    4.71999979    2.26999998
   13.19083309  155.57499695    4.73999977    2.28999996
   13.19416714  163.21400452    4.82999992    2.26999998
   13.19555569  154.17500305    4.88999987    2.28999996
   13.19777775  162.43800354    4.80999994    2.28999996
   13.20083332  158.65100098    4.80999994    2.28999996
   13.20416641  165.15100098    4.82999992    2.28999996
   13.20749950  158.41900635    4.84999990    2.28999996
   13.21055508  159.65199280    4.80999994    2.28999996
   13.21388912  150.01499939    4.78000021    2.28999996
   13.21694374  151.94099426    4.80000019    2.28999996
   13.22027779  159.50599670    4.73999977    2.28999996
   13.22361088  161.47599792    4.69999981    2.28999996
   13.22666645  153.60699463    4.63999987    2.28999996
   13.22888851  154.61000061    4.59999990    2.28999996
   13.23055553  159.83799744    4.65999985    2.28999996
   13.23361111  162.24299622    4.63999987    2.28999996
   13.23694515  154.99499512    4.59999990    2.28999996
   13.24027824  155.33099365    4.63999987    2.28999996
   13.24333382  157.26100159    4.65999985    2.30999994
   13.24666691  148.41200256    4.63999987    2.30999994
   13.24972248  154.02600098    4.67999983    2.30999994
   13.25305557  148.44599915    4.76000023    2.30999994
   13.25638866  155.24600220    4.90999985    2.30999994
   13.25944424  154.95399475    4.90999985    2.30999994
   13.26222229  157.97700500    4.90999985    2.30999994
   13.26333332  156.75300598    4.90999985    2.30999994
   13.26638889  153.88499451    4.90999985    2.30999994
   13.26972198  152.48599243    4.90999985    2.30999994
   13.27305508  151.83599854    4.90999985    2.30999994
   13.27611065  139.55999756    4.90999985    2.30999994
   13.27944374  143.78500366    4.90999985    2.30999994
   13.28249931  152.65600586    4.90999985    2.30999994
   13.28583336  154.83200073    4.90999985    2.30999994
   13.28916740  157.52999878    4.90999985    2.30999994
   13.29222298  155.50100708    4.90999985    2.30999994
   13.29555607  153.26199341    4.90999985    2.30999994
   13.29611111  155.70199585    4.90999985    2.30999994
   13.29916668  165.71600342    4.90999985    2.30999994
   13.30249977  142.39199829    4.90999985    2.30999994
   13.30583382  154.40499878    4.90999985    2.30999994
   13.30888939  151.35899353    4.90999985    2.32999992
   13.31222248  150.62500000    4.90999985    2.30999994
   13.31527805  150.66299438    4.90999985    2.32999992
   13.31861115  144.54699707    4.90999985    2.30999994
   13.32194424  144.31500244    4.90999985    2.32999992
   13.32499981  148.52600098    4.90999985    2.32999992
   13.32833290  145.83200073    4.90999985    2.32999992
   13.32888889  159.95100403    4.90999985    2.32999992
   13.33194447  144.94299316    4.90999985    2.32999992
   13.33500004  147.31100464    4.90999985    2.32999992
   13.33833313  153.51899719    4.90999985    2.32999992
   13.34166622  152.53900146    4.90999985    2.32999992
   13.34472179  156.25199890    4.90999985    2.32999992
   13.34805489  166.38800049    4.90999985    2.32999992
   13.35138893  172.74499512    4.90999985    2.32999992
   13.35444450  155.18400574    4.90999985    2.32999992
   13.35777855  155.47700500    4.90999985    2.32999992
   13.36083412  154.61799622    4.90999985    2.32999992
   13.37805557  148.91499329    4.90999985    2.32999992
   13.38055611  152.35099792    4.90999985    2.32999992
   13.38388920  153.18400574    4.90999985    2.32999992
   13.38722229  155.16900635    4.90999985    2.32999992
   13.39027786  160.62500000    4.90999985    2.32999992
   13.39361095  150.45399475    4.90999985    2.34999990
   13.39694405  156.63400269    4.90999985    2.34999990
   13.39999962  160.67500305    4.90999985    2.34999990
   13.40333271  164.26300049    4.90999985    2.32999992
   13.40666676  174.63000488    4.90999985    2.34999990
   13.40972137  165.64100647    4.90999985    2.32999992
   13.41111088  165.97700500    4.90999985    2.34999990
   13.41333294  159.66400146    4.90999985    2.34999990
   13.41666698  169.85200500    4.90999985    2.34999990
   13.41972256  159.56799316    4.90999985    2.34999990
   13.42305565  159.16900635    4.90999985    2.34999990
   13.42638874  160.61700439    4.90999985    2.34999990
   13.42944431  159.67199707    4.90999985    2.34999990
   13.43277836  155.22999573    4.90999985    2.34999990
   13.43611145  163.74899292    4.90999985    2.36999989
   13.43916702  168.48699951    4.90999985    2.34999990
   13.44250011  163.89599609    4.90999985    2.34999990
   13.44472218  166.63999939    4.90999985    2.36999989
   13.44611073  165.33900452    4.90999985    2.34999990
   13.44944477  164.86999512    4.90999985    2.34999990
   13.45277786  172.84300232    4.90999985    2.34999990
   13.45583344  156.50000000    4.90999985    2.36999989
   13.45916653  162.91700745    4.90999985    2.36999989
   13.46249962  163.94999695    4.90999985    2.36999989
   13.46555519  160.84899902    4.90999985    2.34999990
   13.46888828  160.83900452    4.90999985    2.36999989
   13.47194386  175.86700439    4.90999985    2.34999990
   13.47527695  168.61500549    4.90999985    2.36999989
   13.47805500  164.33500671    4.90999985    2.36999989
   13.47888851  163.11300659    4.90999985    2.36999989
   13.48222160  163.07699585    4.90999985    2.34999990
   13.48555565  165.39300537    4.90999985    2.36999989
   13.48861122  185.13800049    4.90999985    2.36999989
   13.49194431  164.00300598    4.90999985    2.36999989
   13.49527836  168.17799377    4.90999985    2.36999989
   13.49833393  161.00799561    4.90999985    2.36999989
   13.50166702  164.80099487    4.90999985    2.36999989
   13.50472260  157.07899475    4.90999985    2.36999989
   13.50805569  161.73699951    4.90999985    2.36999989
   13.51138878  169.93200684    4.90999985    2.36999989
   13.51166630  168.22700500    4.90999985    2.36999989
   13.51500034  165.97300720    4.90999985    2.36999989
   13.51833344  161.58500671    4.90999985    2.36999989
   13.52138901  158.19999695    4.90999985    2.39000010
   13.52472210  159.95799255    4.90999985    2.36999989
   13.52805519  163.89999390    4.90999985    2.36999989
   13.53138828  165.71699524    4.90999985    2.36999989
   13.53472233  162.75900269    4.90999985    2.39000010
   13.53805637  163.23500061    4.90999985    2.39000010
   13.54111195  160.21000671    4.90999985    2.36999989
   13.54444504  165.89700317    4.90999985    2.39000010
   13.54500008  165.60899353    4.90999985    2.36999989
   13.54833412  165.36099243    4.90999985    2.39000010
   13.55138874  162.71000671    4.90999985    2.39000010
   13.55472279  173.10200500    4.90999985    2.39000010
   13.55777836  159.82899475    4.90999985    2.39000010
   13.56111145  169.52400208    4.90999985    2.39000010
   13.56444454  162.82499695    4.90999985    2.39000010
   13.56750011  165.59300232    4.90999985    2.36999989
   13.57083321  156.05499268    4.90999985    2.39000010
   13.57416630  165.84700012    4.90999985    2.39000010
   13.57722187  157.72399902    4.90999985    2.39000010
   13.57833290  161.92100525    4.90999985    2.39000010
   13.58111095  163.53199768    4.90999985    2.39000010
   13.58416653  163.66499329    4.90999985    2.39000010
   13.58749962  171.13800049    4.90999985    2.39000010
   13.59055519  160.56799316    4.90999985    2.39000010
   13.59388828  167.45799255    4.90999985    2.39000010
   13.59722233  169.11700439    4.90999985    2.39000010
   13.60027790  161.78300476    4.90999985    2.39000010
   13.60361195  169.28999329    4.90999985    2.39000010
   13.60694504  164.55799866    4.90999985    2.39000010
   13.61000061  163.90600586    4.90999985    2.40000010
   13.61166668  164.85899353    4.90999985    2.39000010
   13.61388969  163.60800171    4.90999985    2.39000010
   13.61694431  166.83599854    4.90999985    2.39000010
   13.62027836  167.44799805    4.90999985    2.40000010
   13.62333393  157.83200073    4.90999985    2.39000010
   13.62666702  168.34300232    4.90999985    2.40000010
   13.63000011  165.38800049    4.90999985    2.39000010
   13.63305569  162.00000000    4.90999985    2.39000010
   13.63638878  161.74400330    4.90999985    2.39000010
   13.63972187  169.48300171    4.90999985    2.40000010
   13.64277744  163.68099976    4.90999985    2.39000010
   13.64499950  167.22399902    4.90999985    2.40000010
   13.64666653  165.59399414    4.90999985    2.40000010
   13.64972210  165.40400696    4.90999985    2.40000010
   13.65305519  162.42799377    4.90999985    2.40000010
   13.65611076  171.02499390    4.90999985    2.39000010
   13.65944386  158.06300354    4.90999985    2.40000010
   13.66277695  168.48300171    4.90999985    2.40000010
   13.66583252  169.66299438    4.90999985    2.40000010
   13.66916656  167.46299744    4.90999985    2.40000010
   13.67250061  166.96899414    4.90999985    2.40000010
   13.67555618  165.78300476    4.90999985    2.40000010
   13.67833328  166.27299500    4.90999985    2.40000010
   13.67944431  157.24299622    4.90999985    2.40000010
   13.68249989  166.52799988    4.90999985    2.40000010
   13.68583298  171.20500183    4.90999985    2.40000010
   13.68916702  170.60699463    4.90999985    2.40000010
   13.69222260  171.84800720    4.90999985    2.40000010
   13.69555569  166.49899292    4.90999985    2.40000010
   13.69888878  165.92599487    4.90999985    2.40000010
   13.70194435  168.86900330    4.90999985    2.40000010
   13.70527744  169.18600464    4.90999985    2.40000010
   13.70861053  170.95799255    4.90999985    2.40000010
   13.71166611  169.88099670    4.90999985    2.40000010
   13.71222210  173.41000366    4.90999985    2.40000010
   13.71527767  170.00000000    4.90999985    2.42000008
   13.71861076  167.87800598    4.90999985    2.40000010
   13.72194386  167.65800476    4.90999985    2.40000010
   13.72499943  164.84800720    4.90999985    2.40000010
   13.72833252  163.87500000    4.90999985    2.40000010
   13.73138809  163.33799744    4.90999985    2.40000010
   13.73472214  168.21800232    4.90999985    2.42000008
   13.73805618  167.45399475    4.90999985    2.40000010
   13.74111176  168.26400757    4.90999985    2.42000008
   13.74444485  164.22399902    4.90999985    2.42000008
   13.74499989  160.06199646    4.90999985    2.42000008
   13.74805546  162.90899658    4.90999985    2.42000008
   13.75111103  166.69200134    4.90999985    2.42000008
   13.75444412  162.63999939    4.90999985    2.40000010
   13.75805569  168.96400452    4.90999985    2.40000010
   13.76111126  163.12399292    4.90999985    2.42000008
   13.76444435  161.83399963    4.90999985    2.40000010
   13.76777744  163.18800354    4.90999985    2.42000008
   13.77083302  165.27400208    4.90999985    2.40000010
   13.77416611  162.76800537    4.90999985    2.42000008
   13.77750015  158.05999756    4.90999985    2.42000008
   13.77833271  160.88000488    4.90999985    2.42000008
   13.78111076  158.16099548    4.90999985    2.42000008
   13.78416729  161.17399597    4.90999985    2.42000008
   13.78750038  163.86300659    4.90999985    2.42000008
   13.79083347  160.43899536    4.90999985    2.42000008
   13.79388905  157.57400513    4.90999985    2.42000008
   13.79722309  159.81100464    4.90999985    2.42000008
   13.80055618  159.55700684    4.90999985    2.42000008
   13.80361176  160.12399292    4.90999985    2.42000008
   13.80694485  159.83799744    4.90999985    2.42000008
   13.81000042  163.70100403    4.90999985    2.42000008
   13.81166649  160.82099915    4.90999985    2.42000008
   13.81388950  161.49200439    4.90999985    2.44000006
   13.81694412  160.58399963    4.90999985    2.42000008
   13.82027817  163.24099731    4.90999985    2.42000008
   13.82361126  164.29499817    4.90999985    2.42000008
   13.82666683  162.96400452    4.90999985    2.42000008
   13.82999992  159.81799316    4.90999985    2.42000008
   13.83333302  156.89399719    4.90999985    2.44000006
   13.83638859  163.74299622    4.90999985    2.44000006
   13.83972168  159.87100220    4.90999985    2.44000006
   13.84277725  163.94599915    4.90999985    2.44000006
   13.84499931  165.05799866    4.90999985    2.44000006
   13.84666634  162.13499451    4.90999985    2.44000006
   13.84972191  161.12800598    4.90999985    2.44000006
   13.85305595  162.70500183    4.90999985    2.42000008
   13.85638905  160.65400696    4.90999985    2.44000006
   13.85944462  157.12899780    4.90999985    2.44000006
   13.86277771  156.95300293    4.90999985    2.44000006
   13.86611176  159.32099915    4.90999985    2.44000006
   13.86916637  163.05099487    4.90999985    2.42000008
   13.87250042  163.06500244    4.90999985    2.44000006
   13.87555599  158.87800598    4.90999985    2.44000006
   13.87833309  161.27799988    4.90999985    2.44000006
   13.87944412  155.27600098    4.90999985    2.44000006
   13.88249969  157.51499939    4.90999985    2.44000006
   13.88583279  159.27600098    4.90999985    2.42000008
   13.88916683  156.97500610    4.90999985    2.44000006
   13.89222240  157.68699646    4.90999985    2.44000006
   13.89555550  162.00599670    4.90999985    2.44000006
   13.89888859  157.31500244    4.90999985    2.44000006
   13.90194416  162.64300537    4.90999985    2.44000006
   13.90527725  156.81100464    4.90999985    2.44000006
   13.90833282  161.63200378    4.90999985    2.44000006
   13.91166592  152.95500183    4.90999985    2.44000006
   13.91222191  158.02600098    4.90999985    2.44000006
   13.91527748  160.74499512    4.90999985    2.44000006
   13.91861153  149.05400085    4.90999985    2.44000006
   13.92194462  158.64599609    4.90999985    2.44000006
   13.92500019  153.17399597    4.90999985    2.44000006
   13.92833328  153.48100281    4.90999985    2.44000006
   13.93166733  163.38000488    4.90999985    2.44000006
   13.93472195  153.29499817    4.90999985    2.46000004
   13.93805599  165.44000244    4.90999985    2.44000006
   13.94111156  155.96499634    4.90999985    2.46000004
   13.94444466  155.69099426    4.90999985    2.44000006
   13.94499969  160.85600281    4.90999985    2.44000006
   13.94805527  161.16999817    4.90999985    2.44000006
   13.95138836  150.29299927    4.90999985    2.46000004
   13.95444393  148.28900146    4.90999985    2.46000004
   13.95777798  147.65699768    4.90999985    2.44000006
   13.96111107  152.41700745    4.90999985    2.44000006
   13.96416664  148.29299927    4.90999985    2.46000004
   13.96749973  145.02799988    4.90999985    2.46000004
   13.97055531  151.34700012    4.90999985    2.46000004
   13.97388840  158.03599548    4.90999985    2.46000004
   13.97722149  157.64599609    4.90999985    2.44000006
   13.97833252  146.33399963    4.90999985    2.44000006
   13.98083305  151.22999573    4.90999985    2.46000004
   13.98388958  148.02400208    4.90999985    2.44000006
   13.98722267  148.98699951    4.90999985    2.46000004
   13.99055576  144.79200745    4.90999985    2.46000004
   13.99361134  148.03199768    4.90999985    2.46000004
   13.99694443  148.73500061    4.90999985    2.46000004
   14.00027752  154.02999878    4.90999985    2.46000004
   14.00333309  157.63699341    4.90999985    2.46000004
   14.00666714  153.73300171    4.90999985    2.44000006
   14.00972176  165.77000427    4.90999985    2.46000004
   14.01166630  169.53500366    4.90999985    2.46000004
   14.01361084  174.06100464    4.90999985    2.46000004
   14.01694393  161.96000671    4.90999985    2.46000004
   14.01999950  152.97200012    4.90999985    2.46000004
   14.02333355  144.75199890    4.90999985    2.46000004
   14.02638817  145.29100037    4.90999985    2.46000004
   14.02972221  154.61799622    4.90999985    2.46000004
   14.03305531  173.14500427    4.90999985    2.46000004
   14.03638935  149.93099976    4.90999985    2.46000004
   14.03944492  148.48800659    4.90999985    2.46000004
   14.04277802  148.84100342    4.90999985    2.46000004
   14.04500008  155.75700378    4.90999985    2.46000004
   14.04638958  144.19500732    4.90999985    2.46000004
   14.04972267  155.55099487    4.90999985    2.46000004
   14.05277824  147.94799805    4.90999985    2.46000004
   14.05611134  155.10200500    4.90999985    2.46000004
   14.05916691  156.42300415    4.90999985    2.46000004
   14.06250000  155.60000610    4.90999985    2.46000004
   14.06583309  162.25799561    4.90999985    2.46000004
   14.06888866  159.28799438    4.90999985    2.46000004
   14.07222176  157.65600586    4.90999985    2.46000004
   14.07555580  158.58700562    4.90999985    2.46000004
   14.07833290  161.65800476    4.90999985    2.46000004
   14.07916641  160.91000366    4.90999985    2.46000004
   14.08222198  169.07299805    4.90999985    2.46000004
   14.08555508  157.92199707    4.90999985    2.46000004
   14.08888817  146.24299622    4.90999985    2.46000004
   14.09194374  158.69700623    4.90999985    2.46000004
   14.09527779  170.23399353    4.90999985    2.46000004
   14.09861088  157.99899292    4.90999985    2.48000002
   14.10166740  155.75999451    4.90999985    2.48000002
   14.10500050  155.86199951    4.90999985    2.48000002
   14.10805607  154.95100403    4.90999985    2.46000004
   14.11138916  144.90100098    4.90999985    2.46000004
   14.11194515  151.82899475    4.90999985    2.46000004
   14.11527824  156.98199463    4.90999985    2.46000004
   14.11861134  153.50399780    4.90999985    2.48000002
   14.12166691  151.87899780    4.90999985    2.46000004
   14.12500000  161.44799805    4.90999985    2.46000004
   14.12805557  183.97500610    4.90999985    2.48000002
   14.13138866  181.71499634    4.90999985    2.46000004
   14.13472176  171.52299500    4.90999985    2.46000004
   14.13777733  162.01899719    4.90999985    2.46000004
   14.14111137  166.43699646    4.90999985    2.48000002
   14.14444447  172.84800720    4.90999985    2.48000002
   14.14527798  165.83099365    4.90999985    2.46000004
   14.14805508  160.63999939    4.90999985    2.48000002
   14.15111065  162.86500549    4.90999985    2.48000002
   14.15444374  174.48100281    4.90999985    2.48000002
   14.15777779  168.24000549    4.90999985    2.46000004
   14.16083336  165.81900024    4.90999985    2.48000002
   14.16416645  155.06700134    4.90999985    2.46000004
   14.16722298  165.67300415    4.90999985    2.48000002
   14.17055607  160.14500427    4.90999985    2.48000002
   14.17388916  152.67599487    4.90999985    2.48000002
   14.17694473  145.35000610    4.90999985    2.48000002
   14.17888927  143.73800659    4.90999985    2.48000002
   14.18111134  143.65299988    4.90999985    2.48000002
   14.18444443  148.66099548    4.90999985    2.48000002
   14.18750000  151.04100037    4.90999985    2.48000002
   14.19083309  153.86099243    4.90999985    2.48000002
   14.19388866  148.23899841    4.90999985    2.48000002
   14.19722271  153.74200439    4.90999985    2.48000002
   14.20055580  150.48399353    4.90999985    2.48000002
   14.20361137  150.63499451    4.90999985    2.48000002
   14.20694447  150.05200195    4.90999985    2.48000002
   14.21027756  153.35899353    4.90999985    2.48000002
   14.21194458  158.64599609    4.90999985    2.48000002
   14.21388912  159.56599426    4.90999985    2.48000002
   14.21694374  163.12100220    4.90999985    2.48000002
   14.22027779  157.68099976    4.90999985    2.46000004
   14.22361088  162.56599426    4.90999985    2.48000002
   14.22666645  164.77400208    4.90999985    2.48000002
   14.22999954  150.58799744    4.90999985    2.48000002
   14.23305511  150.14599609    4.90999985    2.48000002
   14.23638916  152.24000549    4.90999985    2.48000002
   14.23972225  155.49699402    4.90999985    2.48000002
   14.24277782  141.14799500    4.90999985    2.48000002
   14.24527836  141.21800232    4.90999985    2.48000002
   14.24666691  152.19599915    4.90999985    2.48000002
   14.24972248  154.38299561    4.90999985    2.48000002
   14.25305557  159.24800110    4.90999985    2.50000000
   14.25638866  156.46600342    4.90999985    2.48000002
   14.25944424  152.52299500    4.90999985    2.48000002
   14.26277733  172.73399353    4.90999985    2.48000002
   14.26583290  167.16099548    4.90999985    2.48000002
   14.26916599  155.50700378    4.90999985    2.48000002
   14.27250004  177.41299438    4.90999985    2.48000002
   14.27555561  168.80400085    4.90999985    2.48000002
   14.27861118  154.51800537    4.90999985    2.50000000
   14.27944374  160.33200073    4.90999985    2.48000002
   14.28249931  150.21099854    4.90999985    2.48000002
   14.28583336  175.95399475    4.90999985    2.48000002
   14.28916740  171.20300293    4.90999985    2.48000002
   14.29222298  161.37800598    4.90999985    2.48000002
   14.29555607  176.11500549    4.90999985    2.48000002
   14.29861164  167.13499451    4.90999985    2.48000002
   14.30194473  158.71200562    4.90999985    2.48000002
   14.30527782  171.57099915    4.90999985    2.48000002
   14.30833340  165.22999573    4.90999985    2.48000002
   14.31166649  169.01899719    4.90999985    2.48000002
   14.31222248  176.63900757    4.90999985    2.48000002
   14.31555557  154.82899475    4.90999985    2.48000002
   14.31861115  166.49400330    4.90999985    2.48000002
   14.32194424  147.88000488    4.90999985    2.50000000
   14.32499981  152.81199646    4.90999985    2.50000000
   14.32833290  149.40199280    4.90999985    2.50000000
   14.33166695  149.91099548    4.90999985    2.50000000
   14.33472157  152.67100525    4.90999985    2.50000000
   14.33805561  151.19400024    4.90999985    2.50000000
   14.34138870  150.27499390    4.90999985    2.50000000
   14.34444427  150.72700500    4.90999985    2.50000000
   14.34555531  155.15400696    4.90999985    2.48000002
   14.34833336  166.45199585    4.90999985    2.50000000
   14.35138893  149.19200134    4.90999985    2.50000000
   14.35472298  156.21899414    4.90999985    2.50000000
   14.35777855  150.50300598    4.90999985    2.48000002
   14.36111164  158.37800598    4.90999985    2.50000000
   14.36444473  160.06500244    4.90999985    2.50000000
   14.36777782  161.52299500    4.90999985    2.50000000
   14.37083340  166.88600159    4.90999985    2.50000000
   14.37416649  153.10200500    4.90999985    2.50000000
   14.37750053  154.00900269    4.90999985    2.50000000
   14.39472198  146.88800049    4.90999985    2.50000000
   14.39722252  150.45500183    4.90999985    2.50000000
   14.40055561  148.81100464    4.90999985    2.50000000
   14.40388870  150.77000427    4.90999985    2.50000000
   14.40694427  148.02299500    4.90999985    2.50000000
   14.41027737  148.64999390    4.90999985    2.50000000
   14.41333294  149.62699890    4.90999985    2.50000000
   14.41666698  150.02200317    4.90999985    2.50000000
   14.42000008  144.69999695    4.90999985    2.50000000
   14.42305565  146.58900452    4.90999985    2.48000002
   14.42638874  159.79499817    4.90999985    2.51999998
   14.42777824  159.37199402    4.90999985    2.51999998
   14.43000031  162.27200317    4.90999985    2.50000000
   14.43333340  159.51100159    4.90999985    2.50000000
   14.43638897  166.25000000    4.90999985    2.50000000
   14.43972206  156.42599487    4.90999985    2.50000000
   14.44277763  152.95199585    4.90999985    2.50000000
   14.44611073  149.37899780    4.90999985    2.50000000
   14.44944477  151.54499817    4.90999985    2.51999998
   14.45249939  147.09300232    4.90999985    2.51999998
   14.45583344  149.19900513    4.90999985    2.50000000
   14.45916653  146.83099365    4.90999985    2.50000000
   14.46138859  157.37100220    4.90999985    2.50000000
   14.46277714  147.72500610    4.90999985    2.50000000
   14.46611118  147.74299622    4.90999985    2.50000000
   14.46916580  146.70799255    4.90999985    2.51999998
   14.47249985  147.31100464    4.90999985    2.51999998
   14.47583294  158.02200317    4.90999985    2.50000000
   14.47888851  151.23199463    4.90999985    2.50000000
   14.48222160  159.48699951    4.90999985    2.51999998
   14.48555565  149.48599243    4.90999985    2.51999998
   14.48861122  160.21299744    4.90999985    2.51999998
   14.49194431  175.82400513    4.90999985    2.50000000
   14.49472237  162.88800049    4.90999985    2.50000000
   14.49555588  167.81599426    4.90999985    2.50000000
   14.49888897  170.84300232    4.90999985    2.51999998
   14.50194454  154.25300598    4.90999985    2.51999998
   14.50527763  163.50700378    4.90999985    2.51999998
   14.50861073  166.95700073    4.90999985    2.50000000
   14.51166630  162.88000488    4.90999985    2.50000000
   14.51500034  174.45300293    4.90999985    2.51999998
   14.51833344  163.42900085    4.90999985    2.51999998
   14.52138901  156.48399353    4.90999985    2.51999998
   14.52472210  159.08299255    4.90999985    2.50000000
   14.52805519  173.22000122    4.90999985    2.51999998
   14.52833271  163.58700562    4.90999985    2.51999998
   14.53166676  172.61900330    4.90999985    2.51999998
   14.53472233  163.66499329    4.90999985    2.51999998
   14.53805637  162.55200195    4.90999985    2.51999998
   14.54138947  160.06199646    4.90999985    2.51999998
   14.54444504  158.87100220    4.90999985    2.51999998
   14.54777813  169.94999695    4.90999985    2.51999998
   14.55111122  161.00000000    4.90999985    2.51999998
   14.55416679  178.56500244    4.90999985    2.51999998
   14.55749989  180.05200195    4.90999985    2.50000000
   14.56083393  155.52799988    4.90999985    2.51999998
   14.56138897  156.78100586    4.90999985    2.51999998
   14.56416702  156.11399841    4.90999985    2.50000000
   14.56750011  157.11799622    4.90999985    2.51999998
   14.57055569  148.71800232    4.90999985    2.51999998
   14.57388878  154.18899536    4.90999985    2.51999998
   14.57722187  159.72399902    4.90999985    2.51999998
   14.58027744  157.00300598    4.90999985    2.51999998
   14.58361053  160.32600403    4.90999985    2.51999998
   14.58694458  168.52099609    4.90999985    2.51999998
   14.59000015  154.37500000    4.90999985    2.51999998
   14.59333324  170.00100708    4.90999985    2.51999998
   14.59472179  162.95500183    4.90999985    2.51999998
   14.59694386  161.87600708    4.90999985    2.51999998
   14.60027790  161.93099976    4.90999985    2.51999998
   14.60361195  169.15100098    4.90999985    2.51999998
   14.60666752  165.00399780    4.90999985    2.53999996
   14.61000061  164.71000671    4.90999985    2.51999998
   14.61305618  154.71600342    4.90999985    2.53999996
   14.61638927  157.16799927    4.90999985    2.51999998
   14.61972237  165.10299683    4.90999985    2.51999998
   14.62277794  160.37100220    4.90999985    2.51999998
   14.62611103  148.59399414    4.90999985    2.51999998
   14.62805557  158.67500305    4.90999985    2.53999996
   14.62972260  151.15699768    4.90999985    2.51999998
   14.63305569  151.96499634    4.90999985    2.51999998
   14.63638878  156.21600342    4.90999985    2.53999996
   14.63944435  154.50100708    4.90999985    2.51999998
   14.64277744  165.65199280    4.90999985    2.51999998
   14.64583302  162.10099792    4.90999985    2.51999998
   14.64916611  163.01199341    4.90999985    2.53999996
   14.65249920  156.75000000    4.90999985    2.51999998
   14.65555477  162.80099487    4.90999985    2.51999998
   14.65888882  160.91600037    4.90999985    2.51999998
   14.66138840  162.57499695    4.90999985    2.51999998
   14.66249943  162.11900330    4.90999985    2.53999996
   14.66583252  162.35400391    4.90999985    2.51999998
   14.66916656  165.23899841    4.90999985    2.53999996
   14.67222214  155.79299927    4.90999985    2.51999998
   14.67555618  165.96400452    4.90999985    2.53999996
   14.67861176  160.27099609    4.90999985    2.53999996
   14.68194485  158.56300354    4.90999985    2.53999996
   14.68527794  146.71499634    4.90999985    2.51999998
   14.68833351  148.79699707    4.90999985    2.51999998
   14.69166660  148.41999817    4.90999985    2.51999998
   14.69472218  160.59500122    4.90999985    2.51999998
   14.69527817  156.33900452    4.90999985    2.51999998
   14.69861126  152.11700439    4.90999985    2.51999998
   14.70194435  165.73300171    4.90999985    2.53999996
   14.70499992  153.33700562    4.90999985    2.51999998
   14.70833302  153.69099426    4.90999985    2.53999996
   14.71138859  159.29800415    4.90999985    2.53999996
   14.71472168  156.86000061    4.90999985    2.53999996
   14.71805477  160.02999878    4.90999985    2.53999996
   14.72138882  150.02299500    4.90999985    2.53999996
   14.72444439  152.18400574    4.90999985    2.53999996
   14.72777748  157.88699341    4.90999985    2.53999996
   14.72833252  160.54299927    4.90999985    2.53999996
   14.73138809  151.41299438    4.90999985    2.53999996
   14.73472214  159.30700684    4.90999985    2.53999996
   14.73805618  153.89100647    4.90999985    2.53999996
   14.74111176  156.82499695    4.90999985    2.53999996
   14.74444485  149.94799805    4.90999985    2.53999996
   14.74777794  156.37699890    4.90999985    2.53999996
   14.75083351  154.91600037    4.90999985    2.53999996
   14.75416660  147.62699890    4.90999985    2.53999996
   14.75722218  152.38200378    4.90999985    2.53999996
   14.76055527  151.22900391    4.90999985    2.51999998
   14.76166630  143.86599731    4.90999985    2.51999998
   14.76416683  158.08399963    4.90999985    2.51999998
   14.76749992  158.30999756    4.90999985    2.55999994
   14.77083302  152.64599609    4.90999985    2.51999998
   14.77388859  150.19599915    4.90999985    2.53999996
   14.77722168  148.64300537    4.90999985    2.53999996
   14.78055573  159.26699829    4.90999985    2.53999996
   14.78361130  158.14300537    4.90999985    2.53999996
   14.78694534  151.06799316    4.90999985    2.53999996
   14.79000092  156.18600464    4.90999985    2.53999996
   14.79333401  153.46699524    4.90999985    2.53999996
   14.79500008  140.63400269    4.90999985    2.53999996
   14.79694462  159.74000549    4.90999985    2.53999996
   14.80027771  148.94000244    4.90999985    2.53999996
   14.80361176  162.44999695    4.90999985    2.51999998
   14.80666733  163.73399353    4.90999985    2.53999996
   14.81000042  152.94099426    4.90999985    2.53999996
   14.81333351  151.93400574    4.90999985    2.53999996
   14.81638908  151.26199341    4.90999985    2.53999996
   14.81972218  149.54499817    4.90999985    2.55999994
   14.82277775  140.00300598    4.90999985    2.53999996
   14.82611084  152.64199829    4.90999985    2.53999996
   14.82833290  149.75599670    4.90999985    2.53999996
   14.82972240  160.78599548    4.90999985    2.53999996
   14.83305550  148.87300110    4.90999985    2.53999996
   14.83638859  146.17700195    4.90999985    2.53999996
   14.83944416  153.69000244    4.90999985    2.53999996
   14.84277725  146.48300171    4.90999985    2.53999996
   14.84611034  150.09700012    4.90999985    2.53999996
   14.84916592  148.12600708    4.90999985    2.53999996
   14.85249996  146.80599976    4.90999985    2.53999996
   14.85555553  175.18800354    4.90999985    2.53999996
   14.85888958  165.48899841    4.90999985    2.53999996
   14.86166668  187.71200562    4.90999985    2.53999996
   14.86277771  184.98599243    4.90999985    2.53999996
   14.86583328  195.34700012    4.90999985    2.51999998
   14.86916637  192.84199524    4.90999985    2.53999996
   14.87222195  183.15400696    4.90999985    2.53999996
   14.87555599  158.32400513    4.90999985    2.53999996
   14.87888908  170.91000366    4.90999985    2.53999996
   14.88222218  208.83900452    4.90999985    2.53999996
   14.88527775  211.36500549    4.90999985    2.53999996
   14.88861084  184.12199402    4.90999985    2.53999996
   14.89166641  179.74600220    4.90999985    2.53999996
   14.89499950  207.26300049    4.90999985    2.53999996
   14.89555550  189.68800354    4.90999985    2.53999996
   14.89861107  185.25900269    4.90999985    2.53999996
   14.90194416  196.19599915    4.90999985    2.53999996
   14.90499973  162.47999573    4.90999985    2.55999994
   14.90833282  164.99200439    4.90999985    2.53999996
   14.91166592  181.25500488    4.90999985    2.53999996
   14.91472149  169.04200745    4.90999985    2.53999996
   14.91805553  161.03599548    4.90999985    2.53999996
   14.92138958  175.15800476    4.90999985    2.53999996
   14.92444515  174.39100647    4.90999985    2.53999996
   14.92777824  181.74400330    4.90999985    2.53999996
   14.92833328  160.94799805    4.90999985    2.53999996
   14.93138885  176.46600342    4.90999985    2.55999994
   14.93444443  151.20599365    4.90999985    2.53999996
   14.93777752  154.59899902    4.90999985    2.55999994
   14.94111156  154.88499451    4.90999985    2.53999996
   14.94416714  147.12800598    4.90999985    2.53999996
   14.94750023  150.15899658    4.90999985    2.53999996
   14.95055580  159.67599487    4.90999985    2.53999996
   14.95388889  171.14799500    4.90999985    2.53999996
   14.95722198  181.12199402    4.90999985    2.53999996
   14.96027756  164.96400452    4.90999985    2.53999996
   14.96166611  159.65800476    4.90999985    2.53999996
   14.96416664  169.15699768    4.90999985    2.53999996
   14.96722221  171.68099976    4.90999985    2.55999994
   14.97055531  174.28199768    4.90999985    2.55999994
   14.97388840  170.91400146    4.90999985    2.53999996
   14.97694397  166.67199707    4.90999985    2.53999996
   14.98027706  179.59199524    4.90999985    2.53999996
   14.98333359  176.43600464    4.90999985    2.55999994
   14.98666668  178.17300415    4.90999985    2.53999996
   14.99000072  180.11399841    4.90999985    2.53999996
   14.99305534  183.40699768    4.90999985    2.55999994
   14.99499989  175.41499329    4.90999985    2.55999994
   14.99694443  168.03999329    4.90999985    2.55999994
   15.00000000  169.71200562    4.90999985    2.53999996
   15.00333309  163.93200684    4.90999985    2.55999994
   15.00666714  184.09399414    4.90999985    2.53999996
   15.00972176  171.65699768    4.90999985    2.55999994
   15.01305580  167.20899963    4.90999985    2.53999996
   15.01611137  161.43499756    4.90999985    2.53999996
   15.01944447  181.19599915    4.90999985    2.55999994
   15.02277756  187.93600464    4.90999985    2.55999994
   15.02583313  189.38999939    4.90999985    2.53999996
   15.02833271  194.13499451    4.90999985    2.55999994
   15.02972221  172.94200134    4.90999985    2.55999994
   15.03277779  188.85000610    4.90999985    2.55999994
   15.03611183  203.99600220    4.90999985    2.55999994
   15.03944492  194.88299561    4.90999985    2.55999994
   15.04250050  182.53300476    4.90999985    2.55999994
   15.04583359  195.53700256    4.90999985    2.55999994
   15.04916668  186.53399658    4.90999985    2.55999994
   15.05222225  193.43200684    4.90999985    2.55999994
   15.05555534  153.35699463    4.90999985    2.55999994
   15.05888939  157.79299927    4.90999985    2.55999994
   15.06166649  206.32800293    4.90999985    2.55999994
   15.06250000  175.26300049    4.90999985    2.53999996
   15.06555557  195.26499939    4.90999985    2.55999994
   15.06888866  186.16400146    4.90999985    2.55999994
   15.07222176  197.65800476    4.90999985    2.55999994
   15.07527733  172.83700562    4.90999985    2.55999994
   15.07861137  193.76499939    4.90999985    2.55999994
   15.08166695  188.46099854    4.90999985    2.55999994
   15.08500004  169.87399292    4.90999985    2.55999994
   15.08833313  196.28700256    4.90999985    2.53999996
   15.09138870  167.45799255    4.90999985    2.55999994
   15.09472179  191.13499451    4.90999985    2.55999994
   15.09527779  202.20599365    4.90999985    2.55999994
   15.09861088  186.38699341    4.90999985    2.55999994
   15.10166740  182.56700134    4.90999985    2.55999994
   15.10500050  173.63699341    4.90999985    2.55999994
   15.10805607  194.26300049    4.90999985    2.55999994
   15.11138916  182.36599731    4.90999985    2.55999994
   15.11472225  171.88200378    4.90999985    2.55999994
   15.11777782  175.54499817    4.90999985    2.55999994
   15.12111092  163.65699768    4.90999985    2.55999994
   15.12444496  191.05200195    4.90999985    2.55999994
   15.12750053  183.89700317    4.90999985    2.55999994
   15.12861156  184.67799377    4.90999985    2.55999994
   15.13138866  160.59500122    4.90999985    2.55999994
   15.13444424  176.20399475    4.90999985    2.55999994
   15.13777733  155.49800110    4.90999985    2.55999994
   15.14083290  188.36500549    4.90999985    2.55999994
   15.14416695  153.64300537    4.90999985    2.55999994
   15.24000072   -1.00000000   -1.00000000   -1.00000000
   15.46194458   -1.00000000   -1.00000000   -1.00000000
   15.64805508   -1.00000000   -1.00000000   -1.00000000
   15.76611137  111.34799957    4.90999985    2.57999992
   15.76944447  180.28399658    4.90999985    2.55999994
   15.77277756  175.05200195    4.90999985    2.57999992
   15.77611065  184.76600647    4.90999985    2.57999992
   15.77916622  163.24099731    4.90999985    2.57999992
   15.78249931  222.13699341    4.90999985    2.57999992
   15.78555584  227.85800171    4.90999985    2.57999992
   15.78888893  219.33599854    4.90999985    2.57999992
   15.79222298  233.24800110    4.90999985    2.57999992
   15.79527855  278.32000732    4.90999985    2.57999992
   15.79861164  284.13198853    4.90999985    2.59999990
   15.79944515  301.66799927    4.90999985    2.57999992
   15.80222225  243.28900146    4.90999985    2.57999992
   15.80555534  271.27999878    4.90999985    2.59999990
   15.80861092  237.83900452    4.90999985    2.57999992
   15.81194496  224.04499817    4.90999985    2.59999990
   15.81527805  214.04200745    4.90999985    2.57999992
   15.81833363  265.07299805    4.90999985    2.57999992
   15.82166672  216.72799683    4.90999985    2.57999992
   15.82472229  232.87699890    4.90999985    2.59999990
   15.82805538  224.14999390    4.90999985    2.57999992
   15.83138847  258.24600220    4.90999985    2.59999990
   15.83277798  250.54299927    4.90999985    2.57999992
   15.83500004  258.55099487    4.90999985    2.57999992
   15.83833313  218.99200439    4.90999985    2.57999992
   15.84138870  266.62500000    4.90999985    2.57999992
   15.84472179  272.23199463    4.90999985    2.57999992
   15.84805489  247.40100098    4.90999985    2.57999992
   15.85111141  258.21899414    4.90999985    2.57999992
   15.85444450  219.32000732    4.90999985    2.57999992
   15.85750008  237.29299927    4.90999985    2.57999992
   15.86083412  209.52900696    4.90999985    2.57999992
   15.86416721  230.10800171    4.90999985    2.57999992
   15.86638927  243.03900146    4.90999985    2.57999992
   15.86777782  233.97700500    4.90999985    2.59999990
   15.87111092  231.75399780    4.90999985    2.59999990
   15.87416649  212.36999512    4.90999985    2.59999990
   15.87750053  191.95399475    4.90999985    2.57999992
   15.88083363  205.26600647    4.90999985    2.57999992
   15.88388920  236.16499329    4.90999985    2.59999990
   15.88722229  193.18600464    4.90999985    2.57999992
   15.89055538  185.34100342    4.90999985    2.59999990
   15.89361095  191.65899658    4.90999985    2.57999992
   15.89694405  199.26600647    4.90999985    2.57999992
   15.89972210  223.67300415    4.90999985    2.59999990
   15.90055561  206.77299500    4.90999985    2.59999990
   15.90388870  205.11700439    4.90999985    2.59999990
   15.90694427  249.83799744    4.90999985    2.57999992
   15.91027737  233.57000732    4.90999985    2.57999992
   15.91361046  225.42399597    4.90999985    2.57999992
   15.91666698  214.15100098    4.90999985    2.59999990
   15.92000008  194.82899475    4.90999985    2.57999992
   15.92333412  188.71600342    4.90999985    2.59999990
   15.92638874  209.09300232    4.90999985    2.59999990
   15.92972279  217.64599609    4.90999985    2.59999990
   15.93305588  214.54100037    4.90999985    2.59999990
   15.93333340  194.08900452    4.90999985    2.57999992
   15.93666649  217.36199951    4.90999985    2.57999992
   15.93972206  208.81900024    4.90999985    2.59999990
   15.94305515  224.78300476    4.90999985    2.59999990
   15.94638920  191.05000305    4.90999985    2.59999990
   15.94944477  180.36500549    4.90999985    2.57999992
   15.95277786  190.88099670    4.90999985    2.59999990
   15.95583344  173.30700684    4.90999985    2.57999992
   15.95916653  197.61900330    4.90999985    2.57999992
   15.96249962  195.51100159    4.90999985    2.59999990
   15.96555519  213.02699280    4.90999985    2.59999990
   15.96638870  223.48399353    4.90999985    2.59999990
   15.96916580  209.83299255    4.90999985    2.59999990
   15.97249985  202.14599609    4.90999985    2.59999990
   15.97555542  210.16900635    4.90999985    2.59999990
   15.97888851  216.78100586    4.90999985    2.59999990
   15.98222160  220.24699402    4.90999985    2.59999990
   15.98527813  219.94200134    4.90999985    2.59999990
   15.98861122  208.49699402    4.90999985    2.59999990
   15.99194431  199.88299561    4.90999985    2.59999990
   15.99499989  214.44599915    4.90999985    2.57999992
   15.99833393  205.47500610    4.90999985    2.59999990
   15.99972248  209.78300476    4.90999985    2.59999990
   16.00194359  221.88600159    4.90999985    2.59999990
   16.00527763  218.45500183    4.90999985    2.59999990
   16.00833321  216.40699768    4.90999985    2.59999990
   16.01166725  203.27099609    4.90999985    2.59999990
   16.01499939  205.86500549    4.90999985    2.57999992
   16.01805496  208.80400085    4.90999985    2.59999990
   16.02138901  188.01899719    4.90999985    2.61999989
   16.02472115  201.52099609    4.90999985    2.59999990
   16.02777672  185.86999512    4.90999985    2.57999992
   16.03111076  198.49099731    4.90999985    2.57999992
   16.03305435  211.71099854    4.90999985    2.57999992
   16.03472137  209.94700623    4.90999985    2.59999990
   16.03805542  188.37100220    4.90999985    2.59999990
   16.04111099  198.04499817    4.90999985    2.57999992
   16.04444313  219.50199890    4.90999985    2.59999990
   16.04777718  206.77499390    4.90999985    2.59999990
   16.05083275  225.09800720    4.90999985    2.66000009
   16.05416679  231.06599426    4.90999985    2.71000004
   16.05749893  223.76199341    4.90999985    2.71000004
   16.06055450  234.32600403    4.90999985    2.69000006
   16.06388855  215.04699707    4.90999985    2.69000006
   16.06638718  236.69999695    4.90999985    2.69000006
   16.06750107  242.35200500    4.90999985    2.71000004
   16.07083511  212.14100647    4.90999985    2.71000004
   16.07389069  238.75199890    4.90999985    2.69000006
   16.07722282  240.04699707    4.90999985    2.71000004
   16.08055687  222.08999634    4.90999985    2.71000004
   16.08361244  223.62199402    4.90999985    2.69000006
   16.08694458  231.92399597    4.90999985    2.71000004
   16.09027863  196.45100403    4.90999985    2.71000004
   16.09333420  207.41700745    4.90999985    2.71000004
   16.09666824  216.89500427    4.90999985    2.71000004
   16.09972191  227.21699524    4.90999985    2.71000004
   16.10027885  243.68299866    4.90999985    2.71000004
   16.10361099  217.64700317    4.90999985    2.69000006
   16.10666656  234.25999451    4.90999985    2.71000004
   16.11000061  199.35099792    4.90999985    2.71000004
   16.11333466  210.95300293    4.90999985    2.71000004
   16.11638832  212.13000488    4.90999985    2.71000004
   16.11972237  225.75799561    4.90999985    2.69000006
   16.12305641  231.00500488    4.90999985    2.71000004
   16.12611198  237.50399780    4.90999985    2.71000004
   16.12944412  218.93200684    4.90999985    2.71000004
   16.13249969  213.55900574    4.90999985    2.71000004
   16.13305473  233.63299561    4.90999985    2.71000004
   16.13638878  237.96699524    4.90999985    2.71000004
   16.13972282  225.97099304    4.90999985    2.71000004
   16.14277840  246.79699707    4.90999985    2.71000004
   16.14611053  213.81399536    4.90999985    2.71000004
   16.14944458  223.46200562    4.90999985    2.71000004
   16.15250015  207.56900024    4.90999985    2.71000004
   16.15583229  221.83900452    4.90999985    2.71000004
   16.15888786  235.36999512    4.90999985    2.71000004
   16.16222191  257.56298828    4.90999985    2.71000004
   16.16555595  233.59700012    4.90999985    2.71000004
   16.16638756  220.72599792    4.90999985    2.71000004
   16.16916656  224.28100586    4.90999985    2.71000004
   16.17249870  243.80900574    4.90999985    2.71000004
   16.17555428  240.57899475    4.90999985    2.71000004
   16.17888832  261.84201050    4.90999985    2.71000004
   16.18222237  214.62100220    4.90999985    2.71000004
   16.18527603  255.88000488    4.90999985    2.71000004
   16.18861008  270.62899780    4.90999985    2.71000004
   16.19194412  276.94601440    4.90999985    2.69000006
   16.19499969  249.21000671    4.90999985    2.69000006
   16.19833183  278.76098633    4.90999985    2.71000004
   16.19972038  254.71200562    4.90999985    2.71000004
   16.20194435  265.98300171    4.90999985    2.71000004
   16.20527840  300.53100586    4.90999985    2.71000004
   16.20833397  258.34899902    4.90999985    2.71000004
   16.21166801  304.57199097    4.90999985    2.71000004
   16.21500015  304.25601196    4.90999985    2.71000004
   16.21805573  279.50201416    4.90999985    2.69000006
   16.22138977  296.34298706    4.90999985    2.71000004
   16.22472191  330.52099609    4.90999985    2.71000004
   16.22777748  287.50299072    4.90999985    2.71000004
   16.23111153  306.90600586    4.90999985    2.71000004
   16.23333359  313.92300415    4.90999985    2.71000004
   16.23472214  364.71600342    4.90999985    2.71000004
   16.23805618  295.19000244    4.90999985    2.71000004
   16.24111176  377.79800415    4.90999985    2.71000004
   16.24444389  396.81698608    4.90999985    2.71000004
   16.24777794  374.87799072    4.90999985    2.69000006
   16.25083351  391.41198730    4.90999985    2.71000004
   16.25416756  355.88299561    4.90999985    2.71000004
   16.25749969  358.38500977    4.90999985    2.71000004
   16.26055527  363.45199585    4.90999985    2.71000004
   16.26388931  344.30200195    4.90999985    2.71000004
   16.26666641  368.54699707    4.90999985    2.71000004
   16.26749992  358.56698608    4.90999985    2.71000004
   16.27083397  351.19699097    4.90999985    2.71000004
   16.27388954  428.14401245    4.90999985    2.71000004
   17.18472099  428.14401245    4.90999985    2.71000004
   17.18499947  374.87799072    4.90999985    2.69000006
   17.18499947  391.41198730    4.90999985    2.71000004
   17.18527603  355.88299561    4.90999985    2.71000004
   17.18527603  358.38500977    4.90999985    2.71000004
   17.18527603  363.45199585    4.90999985    2.71000004
   17.18555450  344.30200195    4.90999985    2.71000004
   17.18555450  358.56698608    4.90999985    2.71000004
   17.18916512  520.80902100    4.90999985    2.71000004
   17.19083214  554.48999023    4.90999985    2.71000004
   17.19416618  511.50399780    4.90999985    2.71000004
   17.23972321  511.50399780    4.90999985    2.71000004
   17.24138832  518.29101563    4.90999985    2.71000004
   17.24277878  522.64099121    4.90999985    2.71000004
   17.24611092  482.12200928    4.90999985    2.71000004
   17.28722191   -1.00000000   -1.00000000   -1.00000000
   17.31138802  471.80999756    4.90999985    2.71000004
   17.31444359  496.26400757    4.90999985    2.71000004
   17.31666756  441.29998779    4.90999985    2.73000002
   17.31777954  447.32800293    4.90999985    2.71000004
   17.31916809  502.52499390    4.90999985    2.71000004
   17.32055664  481.14700317    4.90999985    2.71000004
   17.32194519  480.42498779    4.90999985    2.71000004
   17.32333374  451.21899414    4.90999985    2.71000004
   17.32472229  472.57199097    4.90999985    2.71000004
   17.32611275  496.56100464    4.90999985    2.71000004
   17.32750130  499.97100830    4.90999985    2.71000004
   17.32888985  490.80599976    4.90999985    2.71000004
   17.33027840  466.26000977    4.90999985    2.73000002
   17.33166695  498.57000732    4.90999985    2.71000004
   17.33305550  477.59500122    4.90999985    2.71000004
   17.33444595  515.96899414    4.90999985    2.71000004
   17.33583450  508.47299194    4.90999985    2.71000004
   17.33722305  499.15399170    4.90999985    2.71000004
   17.33861160  498.17098999    4.90999985    2.71000004
   17.34000015  490.15701294    4.90999985    2.71000004
   17.34138870  498.06600952    4.90999985    2.71000004
   17.34277916  477.38598633    4.90999985    2.71000004
   17.34416771  469.83499146    4.90999985    2.71000004
   17.34555626  457.32998657    4.90999985    2.71000004
   17.34694481  475.84600830    4.90999985    2.71000004
   17.34833336  488.15100098    4.90999985    2.71000004
   17.34972191  504.22900391    4.90999985    2.71000004
   17.35111237  504.53399658    4.90999985    2.71000004
   17.35250092  467.82901001    4.90999985    2.69000006
   17.35388947  510.50500488    4.90999985    2.71000004
   17.35527802  453.32699585    4.90999985    2.71000004
   17.35666656  489.85900879    4.90999985    2.71000004
   17.35805511  469.93499756    4.90999985    2.71000004
   17.35944557  517.76800537    4.90999985    2.71000004
   17.36083412  482.31600952    4.90999985    2.71000004
   17.36222267  482.83499146    4.90999985    2.71000004
   17.36361122  480.72500610    4.90999985    2.71000004
   17.36499977  472.41799927    4.90999985    2.71000004
   17.36638832  490.37799072    4.90999985    2.71000004
   17.36777878  480.26901245    4.90999985    2.71000004
   17.36916733  499.29501343    4.90999985    2.71000004
   17.37055588  461.16900635    4.90999985    2.71000004
   17.37194443  492.43499756    4.90999985    2.71000004
   17.37333298  486.90499878    4.90999985    2.71000004
   17.37472153  504.34600830    4.90999985    2.71000004
   17.37611198  508.26901245    4.90999985    2.71000004
   17.37750053  503.34799194    4.90999985    2.71000004
   17.37888908  486.22100830    4.90999985    2.71000004
   17.38027763  490.29901123    4.90999985    2.71000004
   17.38166618  495.32501221    4.90999985    2.71000004
   17.38305473  463.37298584    4.90999985    2.71000004
   17.38444519  502.23001099    4.90999985    2.71000004
   17.38583374  492.65798950    4.90999985    2.71000004
   17.38722229  486.55200195    4.90999985    2.71000004
   17.38861084  474.36199951    4.90999985    2.71000004
   17.38999939  503.95800781    4.90999985    2.71000004
   17.39138794  493.50799561    4.90999985    2.71000004
   17.39277840  485.99398804    4.90999985    2.71000004
   17.39416695  467.74200439    4.90999985    2.71000004
   17.39555550  490.86700439    4.90999985    2.71000004
   17.39694405  499.70901489    4.90999985    2.71000004
   17.39833260  511.01199341    4.90999985    2.71000004
   17.39972115  473.20700073    4.90999985    2.71000004
   17.40111160  488.22900391    4.90999985    2.71000004
   17.40250015  462.82299805    4.90999985    2.71000004
   17.40388870  461.50100708    4.90999985    2.71000004
   17.40527725  461.11599731    4.90999985    2.71000004
   17.40666580  460.36401367    4.90999985    2.71000004
   17.40805435  481.45300293    4.90999985    2.71000004
   17.40944481  464.95498657    4.90999985    2.71000004
   17.41083336  453.97198486    4.90999985    2.71000004
   17.41222191  479.89300537    4.90999985    2.71000004
   17.41361046  435.60501099    4.90999985    2.71000004
   17.41499901  470.72399902    4.90999985    2.71000004
   17.41638756  472.83599854    4.90999985    2.71000004
   17.41777802  472.92401123    4.90999985    2.69000006
   17.41916656  462.25299072    4.90999985    2.71000004
   17.42055511  460.32699585    4.90999985    2.69000006
   17.42194366  479.54400635    4.90999985    2.71000004
   17.42333221  462.12399292    4.90999985    2.71000004
   17.42472076  432.26599121    4.90999985    2.71000004
   17.42611122  463.05099487    4.90999985    2.71000004
   17.42749977  432.69400024    4.90999985    2.71000004
   17.42888832  467.98001099    4.90999985    2.71000004
   17.43027687  425.78900146    4.90999985    2.71000004
   17.43166542  449.56600952    4.90999985    2.71000004
   17.43305397  458.58999634    4.90999985    2.71000004
   17.43444443  452.87200928    4.90999985    2.71000004
   17.43583298  459.13299561    4.90999985    2.71000004
   17.43722153  447.92800903    4.90999985    2.71000004
   17.43861008  426.23599243    4.90999985    2.71000004
   17.43999863  472.41101074    4.90999985    2.71000004
   17.44138718  447.46200562    4.90999985    2.71000004
   17.44277763  463.12899780    4.90999985    2.71000004
   17.44416618  439.86801147    4.90999985    2.71000004
   17.44555473  474.90100098    4.90999985    2.71000004
   17.44694328  467.38900757    4.90999985    2.71000004
   17.44833183  483.58200073    4.90999985    2.71000004
   17.44972038  471.25698853    4.90999985    2.71000004
   17.45111275  434.19100952    4.90999985    2.71000004
   17.45250130  454.95901489    4.90999985    2.71000004
   17.45388985  448.07901001    4.90999985    2.71000004
   17.45527840  481.15499878    4.90999985    2.71000004
   17.45666695  470.92098999    4.90999985    2.71000004
   17.45805550  400.58599854    4.90999985    2.71000004
   17.45944595  455.44100952    4.90999985    2.71000004
   17.46083450  459.64401245    4.90999985    2.71000004
   17.46222305  431.71200562    4.90999985    2.71000004
   17.46361160  446.79998779    4.90999985    2.71000004
   17.46500015  446.42800903    4.90999985    2.71000004
   17.46638870  453.23199463    4.90999985    2.71000004
   17.46777916  446.41299438    4.90999985    2.71000004
   17.46916771  461.71701050    4.90999985    2.71000004
   17.47055626  462.36099243    4.90999985    2.69000006
   17.47194481  408.29501343    4.90999985    2.71000004
   17.47333336  445.76699829    4.90999985    2.71000004
   17.47472191  456.46301270    4.90999985    2.71000004
   17.47611237  447.40499878    4.90999985    2.71000004
   17.47750092  469.28100586    4.90999985    2.71000004
   17.47888947  472.32101440    4.90999985    2.69000006
   17.48027802  472.56298828    4.90999985    2.71000004
   17.48166656  482.64199829    4.90999985    2.71000004
   17.48305511  451.03399658    4.90999985    2.71000004
   17.48444557  457.37200928    4.90999985    2.71000004
   17.48583412  432.02301025    4.90999985    2.71000004
   17.48722267  459.08099365    4.90999985    2.71000004
   17.48861122  463.95001221    4.90999985    2.71000004
   17.48999977  442.64599609    4.90999985    2.69000006
   17.49138832  457.14001465    4.90999985    2.71000004
   17.49277878  463.60598755    4.90999985    2.71000004
   17.49416733  450.70300293    4.90999985    2.71000004
   17.49555588  459.77801514    4.90999985    2.71000004
   17.49694443  446.89401245    4.90999985    2.71000004
   17.49861145  433.30899048    4.90999985    2.71000004
   17.49972153  453.04199219    4.90999985    2.71000004
   17.50111198  428.55099487    4.90999985    2.71000004
   17.50250053  455.32598877    4.90999985    2.71000004
   17.50388908  438.37200928    4.90999985    2.71000004
   17.50527763  455.97198486    4.90999985    2.71000004
   17.50694466  449.05899048    4.90999985    2.71000004
   17.50805473  441.86898804    4.90999985    2.71000004
   17.50944519  441.77200317    4.90999985    2.71000004
   17.51083374  470.55300903    4.90999985    2.69000006
   17.51222229  424.38000488    4.90999985    2.71000004
   17.51361084  431.35000610    4.90999985    2.71000004
   17.51499939  456.09899902    4.90999985    2.71000004
   17.51638794  443.99499512    4.90999985    2.71000004
   17.51777840  476.06298828    4.90999985    2.71000004
   17.51916695  424.93600464    4.90999985    2.69000006
   17.52055550  443.59600830    4.90999985    2.71000004
   17.52194405  451.19100952    4.90999985    2.69000006
   17.52333260  446.09100342    4.90999985    2.71000004
   17.52472115  472.25100708    4.90999985    2.71000004
   17.52611160  466.29098511    4.90999985    2.69000006
   17.52750015  433.39401245    4.90999985    2.71000004
   17.52888870  438.98999023    4.90999985    2.71000004
   17.53027725  417.32199097    4.90999985    2.71000004
   17.53166580  389.61599731    4.90999985    2.71000004
   17.53305435  409.77301025    4.90999985    2.71000004
   17.53444481  451.73699951    4.90999985    2.71000004
   17.53583336  445.01699829    4.90999985    2.71000004
   17.53722191  447.59201050    4.90999985    2.71000004
   17.53861046  451.47100830    4.90999985    2.71000004
   17.53999901  439.61300659    4.90999985    2.71000004
   17.54138756  445.33200073    4.90999985    2.71000004
   17.54277802  423.32598877    4.90999985    2.71000004
   17.54444313  415.43200684    4.90999985    2.71000004
   17.54555511  464.78500366    4.90999985    2.71000004
   17.54694366  438.76501465    4.90999985    2.71000004
   17.54833221  452.33099365    4.90999985    2.71000004
   17.54972076  452.66799927    4.90999985    2.71000004
   17.55111122  457.14099121    4.90999985    2.71000004
   17.55249977  453.88598633    4.90999985    2.71000004
   17.55388832  477.76599121    4.90999985    2.71000004
   17.55527687  460.19299316    4.90999985    2.71000004
   17.55666542  434.91000366    4.90999985    2.71000004
   17.55805397  413.28298950    4.90999985    2.71000004
   17.55944443  445.41598511    4.90999985    2.71000004
   17.56083298  454.42001343    4.90999985    2.69000006
   17.56222153  441.15899658    4.90999985    2.71000004
   17.56361008  464.20901489    4.90999985    2.71000004
   17.56499863  459.16400146    4.90999985    2.69000006
   17.56638718  456.73599243    4.90999985    2.71000004
   17.56777954  443.10101318    4.90999985    2.71000004
   17.56916809  424.48400879    4.90999985    2.71000004
   17.57055664  453.61499023    4.90999985    2.69000006
   17.57194519  436.46701050    4.90999985    2.69000006
   17.57333374  465.94601440    4.90999985    2.69000006
   17.57472229  449.28799438    4.90999985    2.69000006
   17.57611275  447.32400513    4.90999985    2.71000004
   17.57750130  478.65701294    4.90999985    2.71000004
   17.57888985  454.36801147    4.90999985    2.69000006
   17.58027840  463.82699585    4.90999985    2.71000004
   17.58166695  509.10000610    4.90999985    2.71000004
   17.58305550  487.55200195    4.90999985    2.71000004
   17.58444595  462.87600708    4.90999985    2.71000004
   17.58583450  466.91101074    4.90999985    2.71000004
   17.58722305  426.19900513    4.90999985    2.71000004
   17.58861160  424.66299438    4.90999985    2.71000004
   17.59000015  481.99398804    4.90999985    2.71000004
   17.59138870  458.20199585    4.90999985    2.71000004
   17.59277916  444.26400757    4.90999985    2.71000004
   17.59416771  459.77099609    4.90999985    2.69000006
   17.59555626  464.74099731    4.90999985    2.71000004
   17.59694481  475.28799438    4.90999985    2.71000004
   17.59833336  474.51400757    4.90999985    2.71000004
   17.59972191  460.93099976    4.90999985    2.71000004
   17.60111237  447.42898560    4.90999985    2.71000004
   17.60250092  468.16799927    4.90999985    2.71000004
   17.60388947  476.45300293    4.90999985    2.69000006
   17.60527802  460.16799927    4.90999985    2.71000004
   17.60666656  435.35299683    4.90999985    2.71000004
   17.60805511  454.15899658    4.90999985    2.71000004
   17.60944557  466.19500732    4.90999985    2.71000004
   17.61083412  452.94799805    4.90999985    2.71000004
   17.61222267  452.29299927    4.90999985    2.71000004
   17.61361122  430.28298950    4.90999985    2.69000006
   17.61499977  456.05801392    4.90999985    2.69000006
   17.61638832  452.93099976    4.90999985    2.69000006
   17.61777878  406.48001099    4.90999985    2.71000004
   17.61916733  419.64300537    4.90999985    2.71000004
   17.62055588  421.42999268    4.90999985    2.71000004
   17.62194443  432.98800659    4.90999985    2.71000004
   17.62333298  403.00201416    4.90999985    2.69000006
   17.62472153  390.06500244    4.90999985    2.71000004
   17.62611198  424.61401367    4.90999985    2.71000004
   17.62750053  440.48699951    4.90999985    2.71000004
   17.62888908  447.04000854    4.90999985    2.71000004
   17.63027763  444.82800293    4.90999985    2.71000004
   17.63166618  416.36700439    4.90999985    2.71000004
   17.63305473  438.75799561    4.90999985    2.71000004
   17.63444519  432.78201294    4.90999985    2.71000004
   17.63583374  422.10299683    4.90999985    2.71000004
   17.63722229  417.30599976    4.90999985    2.69000006
   17.63861084  413.03201294    4.90999985    2.71000004
   17.63999939  431.36801147    4.90999985    2.71000004
   17.64138794  425.91900635    4.90999985    2.71000004
   17.64277840  444.97500610    4.90999985    2.69000006
   17.64416695  418.88198853    4.90999985    2.71000004
   17.64555550  415.91598511    4.90999985    2.71000004
   17.64694405  439.65399170    4.90999985    2.69000006
   17.64833260  450.25100708    4.90999985    2.71000004
   17.64972115  423.01300049    4.90999985    2.69000006
   17.65111160  455.01501465    4.90999985    2.71000004
   17.65250015  433.82000732    4.90999985    2.69000006
   17.65388870  460.08599854    4.90999985    2.71000004
   17.65527725  412.07501221    4.90999985    2.71000004
   17.65666580  406.48800659    4.90999985    2.71000004
   17.65805435  438.39498901    4.90999985    2.71000004
   17.65944481  445.12500000    4.90999985    2.69000006
   17.66083336  445.72100830    4.90999985    2.69000006
   17.66222191  435.62298584    4.90999985    2.69000006
   17.66361046  401.96701050    4.90999985    2.71000004
   17.66499901  414.26599121    4.90999985    2.71000004
   17.66638756  422.98098755    4.90999985    2.69000006
   17.66777802  432.67098999    4.90999985    2.71000004
   17.66916656  455.04901123    4.90999985    2.69000006
   17.67055511  442.19299316    4.90999985    2.71000004
   17.67194366  424.23498535    4.90999985    2.69000006
   17.67333221  433.92098999    4.90999985    2.71000004
   17.67472076  435.32901001    4.90999985    2.69000006
   17.67611122  441.54098511    4.90999985    2.69000006
   17.67749977  433.04098511    4.90999985    2.71000004
   17.67888832  402.89099121    4.90999985    2.71000004
   17.68027687  416.02899170    4.90999985    2.69000006
   17.68166542  432.33300781    4.90999985    2.69000006
   17.68305397  451.14001465    4.90999985    2.71000004
   17.68444443  432.43099976    4.90999985    2.71000004
   17.68583298  382.90399170    4.90999985    2.69000006
   17.68722153  419.10998535    4.90999985    2.71000004
   17.68861008  422.63400269    4.90999985    2.71000004
   17.68999863  403.29000854    4.90999985    2.71000004
   17.69138718  381.09500122    4.90999985    2.71000004
   17.69277763  417.57598877    4.90999985    2.71000004
   17.69416618  412.62600708    4.90999985    2.69000006
   17.69555473  405.56100464    4.90999985    2.69000006
   17.69694328  369.56399536    4.90999985    2.71000004
   17.69833183  421.13900757    4.90999985    2.69000006
   17.69972038  394.06100464    4.90999985    2.71000004
   17.70111275  436.10998535    4.90999985    2.71000004
   17.70250130  401.98800659    4.90999985    2.71000004
   17.70388985  419.19400024    4.90999985    2.69000006
   17.70527840  390.88800049    4.90999985    2.71000004
   17.70666695  382.50100708    4.90999985    2.69000006
   17.70805550  401.10299683    4.90999985    2.71000004
   17.70944595  389.27398682    4.90999985    2.71000004
   17.71083450  400.10800171    4.90999985    2.71000004
   17.71222305  392.26800537    4.90999985    2.71000004
   17.71361160  420.48300171    4.90999985    2.71000004
   17.71500015  428.60800171    4.90999985    2.69000006
   17.71638870  402.22500610    4.90999985    2.69000006
   17.71777916  402.84899902    4.90999985    2.71000004
   17.71916771  414.14199829    4.90999985    2.71000004
   17.72055626  408.89099121    4.90999985    2.69000006
   17.72194481  378.65798950    4.90999985    2.69000006
   17.72333336  387.72299194    4.90999985    2.71000004
   17.72472191  395.94601440    4.90999985    2.71000004
   17.72611237  406.18600464    4.90999985    2.69000006
   17.72750092  401.78399658    4.90999985    2.69000006
   17.72888947  407.83099365    4.90999985    2.71000004
   17.73027802  322.32901001    4.90999985    2.69000006
   17.73055649  496.26400757    4.90999985    2.71000004
   17.73111153  395.55499268    4.90999985    2.69000006
   17.73416710  379.39999390    4.90999985    2.69000006
   17.73750114  384.15200806    4.90999985    2.71000004
   17.74055672  389.71701050    4.90999985    2.69000006
   17.74388885  419.02499390    4.90999985    2.69000006
   17.74583435  407.86300659    4.90999985    2.71000004
   17.74722290  414.92199707    4.90999985    2.71000004
   17.74861145  400.88699341    4.90999985    2.69000006
   17.75000000  418.98199463    4.90999985    2.71000004
   17.75138855  376.48699951    4.90999985    2.71000004
   17.75277710  377.83300781    4.90999985    2.71000004
   17.75416756  384.74798584    4.90999985    2.69000006
   17.75555611  388.39001465    4.90999985    2.69000006
   17.75694466  379.36898804    4.90999985    2.69000006
   17.75833321  409.33499146    4.90999985    2.71000004
   17.75972176  376.65301514    4.90999985    2.69000006
   17.76111031  393.42300415    4.90999985    2.71000004
   17.76250076  393.37799072    4.90999985    2.69000006
   17.76388931  393.28201294    4.90999985    2.69000006
   17.76527786  386.79098511    4.90999985    2.71000004
   17.76666641  378.01098633    4.90999985    2.71000004
   17.76805496  405.43399048    4.90999985    2.69000006
   17.76944351  378.61401367    4.90999985    2.69000006
   17.77083397  395.19601440    4.90999985    2.69000006
   17.77222252  392.82299805    4.90999985    2.71000004
   17.77361107  417.74700928    4.90999985    2.71000004
   17.77499962  382.65301514    4.90999985    2.69000006
   17.77638817  394.88598633    4.90999985    2.69000006
   17.77777672  396.73001099    4.90999985    2.69000006
   17.77916718  396.96600342    4.90999985    2.69000006
   17.78055573  372.88198853    4.90999985    2.69000006
   17.78194427  377.87799072    4.90999985    2.71000004
   17.78333282  398.95599365    4.90999985    2.69000006
   17.78472137  389.16799927    4.90999985    2.69000006
   17.78610992  385.77398682    4.90999985    2.71000004
   17.78750038  380.08300781    4.90999985    2.71000004
   17.78888893  390.33700562    4.90999985    2.69000006
   17.79027748  377.40200806    4.90999985    2.69000006
   17.79166603  387.36199951    4.90999985    2.69000006
   17.79305458  383.07501221    4.90999985    2.69000006
   17.79444313  402.07101440    4.90999985    2.69000006
   17.79583359  409.94699097    4.90999985    2.69000006
   17.79722214  389.83099365    4.90999985    2.69000006
   17.79861069  415.85900879    4.90999985    2.71000004
   17.79999924  393.46798706    4.90999985    2.69000006
   17.80138779  413.07501221    4.90999985    2.69000006
   17.80277634  388.60998535    4.90999985    2.69000006
   17.80416679  384.64498901    4.90999985    2.69000006
   17.80555534  412.44198608    4.90999985    2.69000006
   17.80694389  426.40798950    4.90999985    2.69000006
   17.80833244  413.44198608    4.90999985    2.69000006
   17.80972099  383.42098999    4.90999985    2.71000004
   17.81110954  388.14801025    4.90999985    2.69000006
   17.81250000  413.50000000    4.90999985    2.69000006
   17.81388855  384.07598877    4.90999985    2.71000004
   17.81527710  409.11199951    4.90999985    2.71000004
   17.81666756  405.72698975    4.90999985    2.71000004
   17.81805611  380.43499756    4.90999985    2.69000006
   17.81944466  387.40701294    4.90999985    2.69000006
   17.82083511  392.75201416    4.90999985    2.69000006
   17.82222366  400.76599121    4.90999985    2.69000006
   17.82361221  404.51199341    4.90999985    2.69000006
   17.82500076  402.70199585    4.90999985    2.69000006
   17.82638931  385.01998901    4.90999985    2.69000006
   17.82777786  388.87799072    4.90999985    2.69000006
   17.82916832  406.47198486    4.90999985    2.69000006
   17.83055687  411.67999268    4.90999985    2.69000006
   17.83194542  402.51400757    4.90999985    2.69000006
   17.83333397  421.77301025    4.90999985    2.69000006
   17.83472252  415.07699585    4.90999985    2.71000004
   17.83611107  408.52099609    4.90999985    2.69000006
   17.83750153  409.93200684    4.90999985    2.69000006
   17.83889008  386.40399170    4.90999985    2.69000006
   17.84027863  377.13500977    4.90999985    2.69000006
   17.84166718  391.46099854    4.90999985    2.69000006
   17.84305573  390.33300781    4.90999985    2.71000004
   17.84444427  412.25100708    4.90999985    2.69000006
   17.84583473  404.22601318    4.90999985    2.71000004
   17.84722328  397.20999146    4.90999985    2.71000004
   17.84861183  394.45300293    4.90999985    2.69000006
   17.85000038  363.63101196    4.90999985    2.71000004
   17.85138893  377.83200073    4.90999985    2.69000006
   17.85277748  406.36199951    4.90999985    2.71000004
   17.85416794  400.62298584    4.90999985    2.69000006
   17.85555649  391.86401367    4.90999985    2.69000006
   17.85694504  398.27999878    4.90999985    2.69000006
   17.85833359  411.74600220    4.90999985    2.71000004
   17.85972214  374.54400635    4.90999985    2.69000006
   17.86111069  411.03399658    4.90999985    2.69000006
   17.86250114  399.86199951    4.90999985    2.69000006
   17.86388969  396.97299194    4.90999985    2.69000006
   17.86527824  411.23199463    4.90999985    2.71000004
   17.86666679  404.04098511    4.90999985    2.69000006
   17.86805534  380.24200439    4.90999985    2.69000006
   17.86944389  399.64999390    4.90999985    2.69000006
   17.87083435  397.00000000    4.90999985    2.69000006
   17.87222290  396.39001465    4.90999985    2.69000006
   17.87361145  401.37500000    4.90999985    2.69000006
   17.87500000  395.54800415    4.90999985    2.69000006
   17.87638855  390.13800049    4.90999985    2.69000006
   17.87777710  385.00799561    4.90999985    2.69000006
   17.87916756  397.59500122    4.90999985    2.69000006
   17.88055611  404.32400513    4.90999985    2.69000006
   17.88194466  397.98498535    4.90999985    2.69000006
   17.88333321  401.30398560    4.90999985    2.69000006
   17.88472176  422.45098877    4.90999985    2.69000006
   17.88611031  397.95001221    4.90999985    2.69000006
   17.88750076  389.05801392    4.90999985    2.69000006
   17.88888931  416.27700806    4.90999985    2.69000006
   17.89027786  399.60998535    4.90999985    2.69000006
   17.89166641  363.76000977    4.90999985    2.69000006
   17.89305496  394.18499756    4.90999985    2.69000006
   17.89444351  387.96200562    4.90999985    2.69000006
   17.89583397  417.72900391    4.90999985    2.69000006
   17.89722252  383.24600220    4.90999985    2.69000006
   17.89861107  388.72799683    4.90999985    2.71000004
   17.89999962  414.59500122    4.90999985    2.69000006
   17.90138817  400.78799438    4.90999985    2.71000004
   17.90277672  400.92800903    4.90999985    2.69000006
   17.90416718  361.51501465    4.90999985    2.69000006
   17.90555573  396.98098755    4.90999985    2.69000006
   17.90694427  422.35000610    4.90999985    2.69000006
   17.90833282  411.65399170    4.90999985    2.69000006
   17.90972137  402.98999023    4.90999985    2.69000006
   17.91110992  390.95700073    4.90999985    2.69000006
   17.91250038  393.24499512    4.90999985    2.69000006
   17.91388893  404.71398926    4.90999985    2.69000006
   17.91527748  372.09100342    4.90999985    2.69000006
   17.91666603  385.62399292    4.90999985    2.69000006
   17.91805458  406.76901245    4.90999985    2.69000006
   17.91944313  388.89001465    4.90999985    2.69000006
   17.92083359  394.00500488    4.90999985    2.69000006
   17.92222214  400.16598511    4.90999985    2.69000006
   17.92361069  389.13101196    4.90999985    2.69000006
   17.92499924  387.53201294    4.90999985    2.69000006
   17.92638779  394.50799561    4.90999985    2.69000006
   17.92777634  387.42199707    4.90999985    2.69000006
   17.92916679  389.78698730    4.90999985    2.69000006
   17.93055534  401.06698608    4.90999985    2.69000006
   17.93194389  377.86199951    4.90999985    2.69000006
   17.93333244  357.88800049    4.90999985    2.69000006
   17.93472099  361.69699097    4.90999985    2.69000006
   17.93610954  393.47799683    4.90999985    2.69000006
   17.93750000  393.15899658    4.90999985    2.69000006
   17.93888855  388.23400879    4.90999985    2.67000008
   17.94027710  393.01199341    4.90999985    2.69000006
   17.94166565  401.85699463    4.90999985    2.69000006
   17.94305420  400.37399292    4.90999985    2.69000006
   17.94444275  407.79998779    4.90999985    2.69000006
   17.94583321  406.76501465    4.90999985    2.71000004
   17.94722176  393.49398804    4.90999985    2.69000006
   17.94861031  368.14199829    4.90999985    2.69000006
   17.95000076  394.85699463    4.90999985    2.69000006
   17.95138931  382.95401001    4.90999985    2.69000006
   17.95277786  394.26599121    4.90999985    2.69000006
   17.95416832  379.32598877    4.90999985    2.69000006
   17.95555687  396.23400879    4.90999985    2.69000006
   17.95694542  396.90499878    4.90999985    2.69000006
   17.95833397  404.34600830    4.90999985    2.69000006
   17.95972252  390.73599243    4.90999985    2.69000006
   17.96111107  395.78100586    4.90999985    2.69000006
   17.96250153  398.34799194    4.90999985    2.71000004
   17.96389008  403.88198853    4.90999985    2.69000006
   17.96527863  398.02200317    4.90999985    2.69000006
   17.96666718  390.04098511    4.90999985    2.69000006
   17.96805573  389.36199951    4.90999985    2.69000006
   17.96944427  409.73498535    4.90999985    2.69000006
   17.97083473  396.67098999    4.90999985    2.69000006
   17.97222328  402.04400635    4.90999985    2.69000006
   17.97361183  390.04400635    4.90999985    2.69000006
   17.97500038  395.70300293    4.90999985    2.69000006
   17.97638893  409.58401489    4.90999985    2.69000006
   17.97777748  414.01300049    4.90999985    2.69000006
   17.97916794  392.53500366    4.90999985    2.69000006
   17.98055649  402.82299805    4.90999985    2.69000006
   17.98194504  384.96301270    4.90999985    2.69000006
   17.98333359  392.14599609    4.90999985    2.69000006
   17.98472214  384.76699829    4.90999985    2.69000006
   17.98611069  371.76300049    4.90999985    2.67000008
   17.98750114  385.32901001    4.90999985    2.69000006
   17.98888969  397.04998779    4.90999985    2.69000006
   17.99027824  380.36300659    4.90999985    2.69000006
   17.99166679  363.03900146    4.90999985    2.69000006
   17.99305534  372.70800781    4.90999985    2.67000008
   17.99444389  367.92498779    4.90999985    2.69000006
   17.99583435  389.51501465    4.90999985    2.69000006
   17.99722290  357.45098877    4.90999985    2.69000006
   17.99861145  398.91699219    4.90999985    2.69000006
   18.00000000  384.45098877    4.90999985    2.69000006
   18.00138855  381.62399292    4.90999985    2.69000006
   18.00277710  375.10299683    4.90999985    2.69000006
   18.00416756  371.96099854    4.90999985    2.69000006
   18.00555611  374.66000366    4.90999985    2.69000006
   18.00694466  378.71899414    4.90999985    2.69000006
   18.00833321  346.56500244    4.90999985    2.67000008
   18.00833321  395.55499268    4.90999985    2.69000006
   18.00861168  379.39999390    4.90999985    2.69000006
   18.00861168  384.15200806    4.90999985    2.71000004
   18.00861168  389.71701050    4.90999985    2.69000006
   18.00888824  419.02499390    4.90999985    2.69000006
   18.00944519  391.80700684    4.90999985    2.69000006
   18.01277733  359.11898804    0.92000002    2.59999990
   18.01583290  371.34201050    0.92000002    2.59999990
   18.01916695  387.96499634    0.75000000    2.59999990
   18.02222252  371.85998535    0.58999997    2.59999990
   18.02916718  371.85998535    0.56999999    2.59999990
   18.03333282  376.04501343    0.58999997    2.57999992
   18.03666687  359.16699219    0.58999997    2.59999990
   18.03972244  384.17800903    0.56999999    2.57999992
   18.04222107  385.79199219    0.56999999    2.59999990
   18.04361153  369.74200439    0.56999999    2.59999990
   18.04666710  381.77301025    0.56999999    2.57999992
   18.04999924  389.82400513    0.56999999    2.57999992
   18.05333328  351.19400024    0.56999999    2.59999990
   18.05638885  362.86898804    0.56999999    2.57999992
   18.05972099  386.99301147    0.56999999    2.59999990
   18.06277657  370.54098511    0.56999999    2.59999990
   18.06611061  386.37701416    0.56999999    2.59999990
   18.07194519  386.37701416    0.56999999    2.57999992
   18.07611275  351.35299683    0.56999999    2.57999992
   18.07944489  339.35400391    0.56999999    2.59999990
   18.08250046  379.16400146    0.58999997    2.59999990
   18.08583450  369.70199585    0.58999997    2.59999990
   18.08916664  361.26199341    0.58999997    2.59999990
   18.09222221  393.33499146    0.58999997    2.59999990
   18.09555626  379.34100342    0.58999997    2.59999990
   18.09889030  354.86898804    0.58999997    2.57999992
   18.10194397  383.08401489    0.58999997    2.57999992
   18.10527802  369.21798706    0.58999997    2.57999992
   18.10833359  381.55398560    0.58999997    2.57999992
   18.10916710  367.91299438    0.58999997    2.57999992
   18.11499977  367.91299438    0.58999997    2.57999992
   18.11888885  385.22500610    0.58999997    2.57999992
   18.12222290  374.98599243    0.58999997    2.57999992
   18.12555504  355.65899658    0.58999997    2.59999990
   18.12861061  367.07800293    0.58999997    2.59999990
   18.13194466  389.15100098    0.58999997    2.59999990
   18.13527679  377.17098999    0.61000001    2.59999990
   18.13833237  371.45001221    0.61000001    2.57999992
   18.14166641  382.03900146    0.58999997    2.57999992
   18.14222145  370.46701050    0.58999997    2.57999992
   18.14527702  378.03601074    0.61000001    2.57999992
   18.14861107  362.21899414    0.58999997    2.57999992
   18.15166664  364.91000366    0.58999997    2.57999992
   18.15777779  364.91000366    0.61000001    2.57999992
   18.16194344  368.26901245    0.61000001    2.57999992
   18.16499901  372.71899414    0.61000001    2.59999990
   18.16833305  356.96701050    0.61000001    2.57999992
   18.17166519  376.70001221    0.61000001    2.57999992
   18.17472076  357.55801392    0.61000001    2.57999992
   18.17555428  341.60101318    0.61000001    2.57999992
   18.17833328  340.99798584    0.61000001    2.57999992
   18.18166542  347.01300049    0.61000001    2.57999992
   18.18472099  377.62298584    0.61000001    2.57999992
   18.18805504  375.55599976    0.61000001    2.57999992
   18.19138718  355.14199829    0.61000001    2.57999992
   18.19444275  362.99899292    0.61000001    2.57999992
   18.20055580  362.99899292    0.61000001    2.59999990
   18.20472336  360.83700562    0.61000001    2.57999992
   18.20805550  378.24200439    0.58999997    2.57999992
   18.20888901  363.47698975    0.58999997    2.57999992
   18.21166801  372.70098877    0.58999997    2.57999992
   18.21500015  374.38800049    0.61000001    2.57999992
   18.21805573  390.75000000    0.61000001    2.57999992
   18.22138977  386.63400269    0.61000001    2.57999992
   18.22472191  375.03900146    0.61000001    2.57999992
   18.22777748  359.06500244    0.58999997    2.57999992
   18.23111153  370.45199585    0.58999997    2.57999992
   18.23416710  372.74899292    0.58999997    2.57999992
   18.23750114  352.47601318    0.58999997    2.57999992
   18.24333382  352.47601318    0.58999997    2.57999992
   18.24749947  372.73901367    0.61000001    2.57999992
   18.25083351  352.40399170    0.58999997    2.59999990
   18.25388908  354.18899536    0.58999997    2.59999990
   18.25722313  362.40399170    0.58999997    2.57999992
   18.26055527  369.70800781    0.61000001    2.57999992
   18.26361084  359.90399170    0.61000001    2.57999992
   18.26694489  356.32299805    0.61000001    2.57999992
   18.27027702  367.85400391    0.61000001    2.57999992
   18.27333260  359.98800659    0.61000001    2.57999992
   18.27555466  353.21200562    0.61000001    2.57999992
   18.27694511  360.22100830    0.61000001    2.57999992
   18.28027725  378.70800781    0.63000000    2.57999992
   18.28610992  378.70800781    0.64999998    2.57999992
   18.29027748  360.89999390    0.67000002    2.57999992
   18.29361153  346.34100342    0.67000002    2.57999992
   18.29694366  339.32101440    0.67000002    2.57999992
   18.29999924  317.49301147    0.67000002    2.57999992
   18.30333328  346.65200806    0.69000000    2.57999992
   18.30666542  354.12399292    0.70999998    2.57999992
   18.30916595  333.63101196    0.73000002    2.55999994
   18.31055450  358.22601318    0.73000002    2.55999994
   18.33166695  358.22601318    0.70999998    2.55999994
   18.33583450  338.15899658    0.70999998    2.57999992
   18.33916664  335.29800415    0.70999998    2.57999992
   18.34250069  343.54000854    0.69000000    2.57999992
   18.34277916  325.69198608    0.69000000    2.57999992
   18.34611130  341.81500244    0.69000000    2.57999992
   18.34944534  356.77099609    0.69000000    2.57999992
   18.35250092  330.91500854    0.69000000    2.57999992
   18.35583305  338.73498535    0.69000000    2.55999994
   18.35916710  335.66101074    0.70999998    2.57999992
   18.36222267  331.81100464    0.70999998    2.57999992
   18.36555672  304.08300781    0.69000000    2.57999992
   18.36888885  329.99200439    0.69000000    2.55999994
   18.37444496  329.99200439    0.70999998    2.57999992
   18.37861061  332.58300781    0.70999998    2.55999994
   18.38194466  331.94900513    0.73000002    2.57999992
   18.38500023  336.39599609    0.70999998    2.57999992
   18.38833237  310.82699585    0.70999998    2.55999994
   18.39166641  317.57400513    0.70999998    2.57999992
   18.39472198  316.59600830    0.70999998    2.57999992
   18.39805603  307.78601074    0.70999998    2.57999992
   18.40138817  320.12701416    0.70999998    2.57999992
   18.40444374  291.23400879    0.70999998    2.55999994
   18.40777779  319.23098755    0.70999998    2.55999994
   18.40972137  292.45098877    0.69000000    2.55999994
   18.41138840  310.19400024    0.69000000    2.55999994
   18.41722107  310.19400024    0.69000000    2.55999994
   18.42138863  312.10598755    0.69000000    2.55999994
   18.42472076  308.67599487    0.69000000    2.55999994
   18.42805481  304.66198730    0.69000000    2.55999994
   18.43138885  301.17999268    0.69000000    2.55999994
   18.43444443  312.58700562    0.69000000    2.55999994
   18.43777657  317.52301025    0.69000000    2.55999994
   18.44083214  315.67098999    0.70999998    2.55999994
   18.44305420  323.52200317    0.70999998    2.55999994
   18.44444275  312.18600464    0.70999998    2.55999994
   18.44777679  319.75100708    0.70999998    2.55999994
   18.45083427  324.82800293    0.70999998    2.55999994
   18.45416832  305.55499268    0.70999998    2.55999994
   18.46027946  305.55499268    0.70999998    2.55999994
   18.46444511  275.83599854    0.70999998    2.55999994
   18.46750069  330.56500244    0.70999998    2.55999994
   18.47083473  321.48098755    0.70999998    2.55999994
   18.47416687  318.51599121    0.69000000    2.55999994
   18.47638893  305.36700439    0.69000000    2.55999994
   18.47777748  288.10998535    0.69000000    2.57999992
   18.48111153  306.05200195    0.69000000    2.57999992
   18.48416710  267.09600830    0.69000000    2.57999992
   18.48750114  310.45498657    0.69000000    2.55999994
   18.49055672  274.92800903    0.69000000    2.55999994
   18.49416733  300.88500977    0.69000000    2.55999994
   18.49722290  302.09298706    0.67000002    2.55999994
   18.50305557  302.09298706    0.69000000    2.55999994
   18.50722313  315.66299438    0.69000000    2.55999994
   18.50972176  315.77700806    0.69000000    2.55999994
   18.51083374  305.77301025    0.69000000    2.55999994
   18.51416588  302.22799683    0.69000000    2.55999994
   18.51722145  307.92800903    0.69000000    2.55999994
   18.52055550  312.97500610    0.69000000    2.55999994
   18.52361107  306.06500244    0.69000000    2.57999992
   18.52694511  309.41500854    0.69000000    2.55999994
   18.53027725  312.15399170    0.70999998    2.55999994
   18.53333282  312.85000610    0.70999998    2.55999994
   18.53666687  309.23400879    0.70999998    2.55999994
   18.53999901  318.57299805    0.70999998    2.55999994
   18.54583359  318.57299805    0.70999998    2.55999994
   18.54999924  300.58499146    0.70999998    2.55999994
   18.55333328  310.23901367    0.70999998    2.55999994
   18.55638885  279.52301025    0.70999998    2.55999994
   18.55972099  295.17599487    0.70999998    2.55999994
   18.56305504  314.15100098    0.70999998    2.55999994
   18.56611061  314.95498657    0.70999998    2.55999994
   18.56944466  320.64401245    0.70999998    2.55999994
   18.57277870  306.34399414    0.73000002    2.55999994
   18.57583427  304.12899780    0.73000002    2.55999994
   18.57666779  323.60000610    0.73000002    2.55999994
   18.57944489  294.38198853    0.73000002    2.55999994
   18.58277893  307.04699707    0.70999998    2.55999994
   18.58861160  307.04699707    0.70999998    2.55999994
   18.59277916  304.36099243    0.70999998    2.55999994
   18.59611130  321.04199219    0.70999998    2.53999996
   18.59944534  302.63800049    0.70999998    2.53999996
   18.60250092  316.96899414    0.70999998    2.55999994
   18.60583305  312.31698608    0.73000002    2.55999994
   18.60916710  328.79598999    0.73000002    2.55999994
   18.61027908  301.56600952    0.73000002    2.55999994
   18.61305618  312.28799438    0.73000002    2.55999994
   18.61611176  310.50601196    0.73000002    2.55999994
   18.61944389  316.48498535    0.73000002    2.55999994
   18.62277794  314.43701172    0.73000002    2.55999994
   18.62583351  320.03399658    0.73000002    2.53999996
   18.63166618  320.03399658    0.73000002    2.55999994
   18.63583374  310.00500488    0.73000002    2.55999994
   18.63888931  310.27801514    0.73000002    2.55999994
   18.64222145  318.51599121    0.73000002    2.55999994
   18.64361191  334.63699341    0.73000002    2.55999994
   18.64583397  303.52700806    0.73000002    2.55999994
   18.64916611  313.13101196    0.75000000    2.55999994
   18.65250015  306.35900879    0.75000000    2.55999994
   18.65583229  289.44601440    0.75000000    2.55999994
   18.65888786  324.91400146    0.75000000    2.55999994
   18.66222191  299.67800903    0.75000000    2.55999994
   18.66527748  316.03201294    0.75000000    2.55999994
   18.66860962  307.30099487    0.75000000    2.53999996
   18.67444420  307.30099487    0.76999998    2.55999994
   18.67860985  272.29098511    0.76999998    2.55999994
   18.68194389  291.58700562    0.76999998    2.55999994
   18.68527603  302.51901245    0.76999998    2.55999994
   18.68861008  308.85400391    0.76999998    2.55999994
   18.69166565  309.94799805    0.76999998    2.55999994
   18.69499969  316.29000854    0.76999998    2.53999996
   18.69805527  321.39001465    0.76999998    2.53999996
   18.70138931  300.75601196    0.76999998    2.53999996
   18.70472336  306.42599487    0.79000002    2.53999996
   18.70777893  320.01998901    0.79000002    2.53999996
   18.71027946  306.87701416    0.76999998    2.53999996
   18.71166801  308.37298584    0.76999998    2.53999996
   18.71722221  308.37298584    0.76999998    2.53999996
   18.72138977  314.57000732    0.79000002    2.55999994
   18.72472191  300.00000000    0.76999998    2.53999996
   18.72777748  288.21899414    0.76999998    2.53999996
   18.73111153  293.53698730    0.76999998    2.53999996
   18.73444557  282.22399902    0.75000000    2.53999996
   18.73750114  299.51199341    0.75000000    2.53999996
   18.74083328  308.09500122    0.73000002    2.53999996
   18.74361229  276.44198608    0.73000002    2.53999996
   18.74444389  307.28201294    0.73000002    2.53999996
   18.74777794  306.24398804    0.73000002    2.53999996
   18.75083351  308.88101196    0.73000002    2.53999996
   18.75416756  317.15399170    0.73000002    2.53999996
   18.76000023  317.15399170    0.70999998    2.53999996
   18.76416588  300.55200195    0.70999998    2.55999994
   18.76749992  287.00900269    0.70999998    2.53999996
   18.77083397  295.00201416    0.69000000    2.53999996
   18.77388954  285.05899048    0.69000000    2.53999996
   18.77694511  286.85000610    0.69000000    2.53999996
   18.77750015  292.16101074    0.69000000    2.53999996
   18.78083229  294.26501465    0.69000000    2.53999996
   18.78388786  282.21200562    0.69000000    2.53999996
   18.78722191  295.92800903    0.69000000    2.53999996
   18.79027748  299.57901001    0.70999998    2.53999996
   18.79361153  293.81399536    0.70999998    2.53999996
   18.79694366  294.17300415    0.73000002    2.53999996
   18.80305481  294.17300415    0.75000000    2.53999996
   18.80722237  278.32000732    0.75000000    2.51999998
   18.81027794  278.31799316    0.75000000    2.53999996
   18.81083298  276.88800049    0.75000000    2.53999996
   18.81416512  281.92001343    0.75000000    2.53999996
   18.81722260  295.10299683    0.76999998    2.53999996
   18.82055664  263.37899780    0.79000002    2.53999996
   18.82361221  275.41299438    0.76999998    2.53999996
   18.82694626  272.64700317    0.75000000    2.53999996
   18.83027840  273.98001099    0.73000002    2.53999996
   18.83333397  295.45599365    0.73000002    2.53999996
   18.83666801  272.75201416    0.73000002    2.53999996
   18.84000015  284.12500000    0.73000002    2.53999996
   18.84583473  284.12500000    0.75000000    2.53999996
   18.85000038  278.03500366    0.73000002    2.53999996
   18.85305595  266.49099731    0.73000002    2.53999996
   18.85639000  298.06698608    0.73000002    2.53999996
   18.85972214  294.86499023    0.73000002    2.53999996
   18.86277771  311.00500488    0.75000000    2.53999996
   18.86611176  271.61599731    0.73000002    2.53999996
   18.86944389  255.09800720    0.76999998    2.53999996
   18.87249947  297.74600220    0.73000002    2.53999996
   18.87583351  263.51098633    0.73000002    2.53999996
   18.87694550  292.13500977    0.73000002    2.53999996
   18.87944412  294.95700073    0.73000002    2.53999996
   18.88277817  285.10000610    0.70999998    2.53999996
   18.88861084  285.10000610    0.70999998    2.53999996
   18.89277840  279.52398682    0.73000002    2.53999996
   18.89611053  251.30599976    0.70999998    2.53999996
   18.89916611  246.98500061    0.70999998    2.53999996
   18.90250015  281.10501099    0.70999998    2.51999998
   18.90583229  275.18099976    0.73000002    2.53999996
   18.90888786  293.23901367    0.73000002    2.53999996
   18.91027832  246.76199341    0.70999998    2.53999996
   18.91277695  269.13400269    0.70999998    2.53999996
   18.91611099  272.13800049    0.73000002    2.53999996
   18.91916656  269.75698853    0.75000000    2.53999996
   18.92249870  258.06100464    0.75000000    2.53999996
   18.92555428  256.00399780    0.75000000    2.53999996
   18.93138885  256.00399780    0.75000000    2.53999996
   18.93555450  269.62500000    0.76999998    2.51999998
   18.93888855  301.34600830    0.76999998    2.51999998
   18.94222069  287.39099121    0.79000002    2.53999996
   18.94388771  277.36499023    0.79000002    2.53999996
   18.94583321  278.70599365    0.79000002    2.53999996
   18.94888878  287.23999023    0.79000002    2.53999996
   18.95222282  264.95199585    0.79000002    2.51999998
   18.95555687  242.81100464    0.76999998    2.53999996
   18.95861244  271.04400635    0.76999998    2.53999996
   18.96194458  257.10198975    0.80000001    2.51999998
   18.96500015  286.11499023    0.83999997    2.53999996
   18.96833420  271.57000732    0.81999999    2.53999996
   18.97444534  271.57000732    0.80000001    2.51999998
   18.97833443  287.53100586    0.80000001    2.51999998
   18.98166656  266.96899414    0.80000001    2.53999996
   18.98500061  295.66000366    0.81999999    2.53999996
   18.98805618  275.71798706    0.81999999    2.53999996
   18.99138832  283.22500610    0.92000002    2.51999998
   18.99472237  277.23999023    1.05999994    2.51999998
   18.99777794  289.77600098    1.33000004    2.51999998
   19.00111198  294.20199585    1.21000004    2.51999998
   19.00416756  229.48800659    1.14999998    2.53999996
   19.00749969  294.09600830    1.13000000    2.51999998
   19.01055527  278.45599365    1.07000005    2.51999998
   19.01111031  260.63299561    1.07000005    2.51999998
   19.01722145  260.63299561    1.03999996    2.51999998
   19.02138901  267.23001099    1.00000000    2.53999996
   19.02444458  237.21400452    0.94000000    2.51999998
   19.02777672  270.02899170    0.92000002    2.51999998
   19.03111076  273.14199829    0.88000000    2.51999998
   19.03444481  267.97299194    0.88000000    2.51999998
   19.03750038  269.76998901    0.88000000    2.51999998
   19.04083252  254.26400757    0.88000000    2.51999998
   19.04388809  262.24301147    0.88000000    2.51999998
   19.04444313  280.19198608    0.88000000    2.51999998
   19.04749870  276.62399292    0.83999997    2.51999998
   19.05083275  260.06600952    0.83999997    2.53999996
   19.05416679  300.60299683    0.81999999    2.51999998
   19.05999947  300.60299683    0.81999999    2.51999998
   19.06416512  303.69900513    0.81999999    2.51999998
   19.06750107  305.44500732    0.80000001    2.51999998
   19.07083511  296.80398560    0.80000001    2.51999998
   19.07416725  313.71499634    0.81999999    2.51999998
   19.07722282  267.03601074    0.81999999    2.51999998
   19.07777786  239.99099731    0.81999999    2.51999998
   19.08111191  252.89100647    0.83999997    2.51999998
   19.08416748  257.42098999    0.83999997    2.51999998
   19.08750153  269.51800537    0.83999997    2.51999998
   19.09083366  253.65299988    0.81999999    2.51999998
   19.09388924  292.81900024    0.81999999    2.51999998
   19.09722328  286.19100952    0.81999999    2.50000000
   19.10305595  286.19100952    0.83999997    2.51999998
   19.10722351  299.42498779    0.86000001    2.51999998
   19.11027908  289.39401245    0.86000001    2.50000000
   19.11083412  266.58200073    0.86000001    2.50000000
   19.11416626  269.56698608    0.86000001    2.51999998
   19.11722183  271.26800537    0.86000001    2.51999998
   19.12055588  269.75100708    0.86000001    2.51999998
   19.12388992  275.61300659    0.86000001    2.51999998
   19.12694550  274.58801270    0.83999997    2.50000000
   19.13027763  253.56599426    0.81999999    2.51999998
   19.13361168  269.65499878    0.81999999    2.51999998
   19.13666725  281.54501343    0.81999999    2.51999998
   19.13999939  261.73901367    0.81999999    2.51999998
   19.14583397  261.73901367    0.81999999    2.50000000
   19.14972115  261.77899170    0.81999999    2.51999998
   19.15305519  256.23098755    0.81999999    2.51999998
   19.15638924  246.42100525    0.81999999    2.51999998
   19.15944481  244.91700745    0.83999997    2.50000000
   19.16277695  266.13699341    0.83999997    2.50000000
   19.16611099  235.49899292    0.86000001    2.50000000
   19.16916656  219.84500122    0.86000001    2.50000000
   19.17249870  256.27899170    0.86000001    2.51999998
   19.17555428  241.33700562    0.86000001    2.50000000
   19.17749977  215.81700134    0.86000001    2.50000000
   19.17944336  249.15899658    0.88000000    2.50000000
   19.18249893  269.33999634    0.86000001    2.51999998
   19.18861008  269.33999634    0.86000001    2.50000000
   19.19277763  257.10299683    0.86000001    2.50000000
   19.19583321  269.01300049    0.86000001    2.50000000
   19.19916534  261.60998535    0.86000001    2.50000000
   19.20250130  256.23999023    0.86000001    2.50000000
   19.20555687  290.48400879    0.86000001    2.50000000
   19.20888901  270.10101318    0.86000001    2.50000000
   19.21083450  262.46798706    0.88000000    2.50000000
   19.21250153  264.31100464    0.88000000    2.50000000
   19.21555710  279.83999634    0.88000000    2.51999998
   19.21888924  259.85800171    0.86000001    2.50000000
   19.22222328  257.72198486    0.83999997    2.50000000
   19.22527885  265.79998779    0.83999997    2.50000000
   19.23139000  265.79998779    0.83999997    2.50000000
   19.23555565  271.42199707    0.81999999    2.51999998
   19.23888969  259.56201172    0.83999997    2.50000000
   19.24194527  275.40301514    0.83999997    2.50000000
   19.24416733  260.56399536    0.86000001    2.51999998
   19.24583435  288.59899902    0.86000001    2.51999998
   19.24888992  284.90301514    0.86000001    2.50000000
   19.25222206  285.86099243    0.86000001    2.50000000
   19.25555611  267.04800415    0.83999997    2.50000000
   19.25861168  271.79501343    0.86000001    2.50000000
   19.26194382  266.16400146    0.83999997    2.50000000
   19.26527786  268.33200073    0.83999997    2.48000002
   19.26833344  253.75300598    0.83999997    2.48000002
   19.27444458  253.75300598    0.86000001    2.50000000
   19.27861023  243.10600281    0.86000001    2.48000002
   19.28194427  266.82000732    0.86000001    2.50000000
   19.28499985  264.99600220    0.86000001    2.50000000
   19.28833199  264.15100098    0.86000001    2.50000000
   19.29138756  244.07600403    0.86000001    2.48000002
   19.29472160  258.46499634    0.86000001    2.48000002
   19.29805565  264.85501099    0.86000001    2.48000002
   19.30111122  243.50599670    0.86000001    2.48000002
   19.30444336  292.85198975    0.86000001    2.48000002
   19.30777740  279.33499146    0.86000001    2.50000000
   19.31083298  254.98500061    0.86000001    2.48000002
   19.31138802  253.88699341    0.86000001    2.48000002
   19.31722260  253.88699341    0.86000001    2.48000002
   19.32111168  269.60900879    0.86000001    2.48000002
   19.32444572  253.46099854    0.86000001    2.48000002
   19.32777786  256.72198486    0.88000000    2.48000002
   19.34555626  236.87100220    0.94000000    2.48000002
   19.34749985  260.73901367    0.94000000    2.48000002
   19.35083389  253.44000244    0.92000002    2.48000002
   19.35388947  246.62600708    0.94000000    2.48000002
   19.36000061  246.62600708    0.95999998    2.48000002
   19.36416626  250.79499817    0.95999998    2.48000002
   19.36750031  243.55099487    0.98000002    2.48000002
   19.37055588  257.60501099    1.00000000    2.48000002
   19.37388992  241.16999817    1.00000000    2.48000002
   19.37722206  255.64500427    1.01999998    2.48000002
   19.37861061  272.64999390    1.01999998    2.48000002
   19.38083267  258.59201050    1.01999998    2.48000002
   19.38416672  235.28999329    1.01999998    2.48000002
   19.38722229  262.33200073    1.00000000    2.50000000
   19.39055634  258.05499268    1.00000000    2.50000000
   19.39388847  266.39001465    1.00000000    2.48000002
   19.39694405  260.73199463    0.98000002    2.48000002
   19.40277672  260.73199463    0.98000002    2.48000002
   19.40694427  268.14199829    0.98000002    2.46000004
   19.41027832  257.31799316    0.95999998    2.48000002
   19.41194344  263.29400635    0.95999998    2.48000002
   19.41388893  256.71398926    0.94000000    2.48000002
   19.41722107  257.32400513    0.94000000    2.48000002
   19.42027664  251.88600159    0.94000000    2.48000002
   19.42361069  237.49600220    0.94000000    2.48000002
   19.42694473  239.02499390    0.92000002    2.46000004
   19.43000031  261.50601196    0.92000002    2.46000004
   19.43333244  212.75199890    0.92000002    2.48000002
   19.43638802  254.86900330    0.92000002    2.48000002
   19.43972206  254.07400513    0.94000000    2.48000002
   19.44583321  254.07400513    0.94000000    2.48000002
   19.44972038  235.97999573    0.94000000    2.48000002
   19.45305634  247.60200500    0.94000000    2.46000004
   19.45639038  227.52900696    0.95999998    2.46000004
   19.45944595  227.35200500    0.95999998    2.48000002
   19.46277809  236.82499695    0.95999998    2.48000002
   19.46611214  236.56300354    0.95999998    2.46000004
   19.46916771  241.91499329    0.95999998    2.46000004
   19.47249985  226.41000366    0.95999998    2.48000002
   19.47555542  260.42999268    0.95999998    2.48000002
   19.47861099  258.90798950    0.95999998    2.48000002
   19.47944450  258.26901245    0.95999998    2.46000004
   19.48277855  263.67599487    0.95999998    2.46000004
   19.48861122  263.67599487    0.98000002    2.46000004
   19.49277878  264.64700317    1.00000000    2.46000004
   19.49583435  232.52400208    1.00000000    2.46000004
   19.49916649  239.32600403    1.01999998    2.48000002
   19.50250053  280.26501465    1.01999998    2.48000002
   19.50555611  252.93400574    1.01999998    2.46000004
   19.50888824  256.40200806    1.03999996    2.46000004
   19.51194382  277.44601440    1.09000003    2.46000004
   19.51250076  262.35900879    1.09000003    2.46000004
   19.51583290  259.20599365    1.13000000    2.46000004
   19.51888847  274.83499146    1.13000000    2.46000004
   19.52222252  266.54699707    1.11000001    2.46000004
   19.52555466  258.72198486    1.09000003    2.46000004
   19.53138924  258.72198486    1.07000005    2.46000004
   19.53555489  240.50700378    1.07000005    2.46000004
   19.53888893  249.51100159    1.07000005    2.46000004
   19.54194450  269.14999390    1.07000005    2.44000006
   19.54527664  245.06199646    1.07000005    2.44000006
   19.54583359  242.68899536    1.07000005    2.46000004
   19.54888916  237.92500305    1.07000005    2.46000004
   19.55222130  243.99400330    1.05999994    2.46000004
   19.55555534  240.43200684    1.03999996    2.46000004
   19.55861092  250.21299744    1.03999996    2.46000004
   19.56194305  242.13400269    1.03999996    2.46000004
   19.56527710  253.46800232    1.09000003    2.46000004
   19.56833458  223.37300110    1.11000001    2.44000006
   19.57416725  223.37300110    1.09000003    2.44000006
   19.57833481  248.45700073    1.11000001    2.46000004
   19.57916832  257.10299683    1.11000001    2.46000004
   19.58194542  264.38299561    1.11000001    2.44000006
   19.58527756  246.47799683    1.11000001    2.44000006
   19.58861160  275.12200928    1.11000001    2.44000006
   19.59166718  251.71000671    1.13000000    2.44000006
   19.59500122  214.87899780    1.16999996    2.44000006
   19.59833336  248.51899719    1.19000006    2.44000006
   19.60138893  230.61399841    1.19000006    2.44000006
   19.60472298  233.02900696    1.21000004    2.44000006
   19.60777855  270.96301270    1.23000002    2.44000006
   19.61111069  265.92599487    1.23000002    2.42000008
   19.61250114  258.30999756    1.23000002    2.42000008
   19.61722183  258.30999756    1.25000000    2.44000006
   19.62111092  259.11700439    1.23000002    2.42000008
   19.62444496  255.47300720    1.21000004    2.44000006
   19.62777710  260.99301147    1.23000002    2.42000008
   19.63083267  251.48500061    1.23000002    2.44000006
   19.63416672  263.86099243    1.23000002    2.44000006
   19.63750076  262.94198608    1.23000002    2.44000006
   19.64055634  261.97100830    1.25000000    2.44000006
   19.64388847  261.05499268    1.25000000    2.44000006
   19.64583397  263.22299194    1.26999998    2.44000006
   19.64749908  255.30200195    1.26999998    2.44000006
   19.65083313  254.11099243    1.28999996    2.44000006
   19.65416718  271.10101318    1.26999998    2.42000008
   19.65999985  271.10101318    1.28999996    2.42000008
   19.66416550  248.28900146    1.28999996    2.42000008
   19.66722107  243.92799377    1.28999996    2.42000008
   19.67055511  243.71200562    1.30999994    2.42000008
   19.67388916  245.27900696    1.30999994    2.42000008
   19.67694473  248.79800415    1.30999994    2.42000008
   19.67916679  258.21301270    1.33000004    2.42000008
   19.68055534  272.55499268    1.33000004    2.42000008
   19.68388748  220.62399292    1.33000004    2.42000008
   19.68722153  217.12300110    1.30999994    2.42000008
   19.69027710  251.12800598    1.33000004    2.42000008
   19.69361115  241.98100281    1.33000004    2.42000008
   19.69694328  261.07501221    1.30999994    2.42000008
   19.70277786  261.07501221    1.30999994    2.42000008
   19.70694542  237.12899780    1.28999996    2.42000008
   19.71027946  238.47799683    1.28999996    2.42000008
   19.71250153  235.78300476    1.28999996    2.40000010
   19.71389008  250.11599731    1.28999996    2.40000010
   19.71694565  201.67999268    1.30999994    2.42000008
   19.72027779  232.74099731    1.33000004    2.42000008
   19.72361183  235.48599243    1.33000004    2.42000008
   19.72666740  237.34199524    1.36000001    2.42000008
   19.73000145  233.84700012    1.36000001    2.42000008
   19.73333359  236.98699951    1.36000001    2.42000008
   19.73638916  227.99400330    1.38000000    2.42000008
   19.73972321  245.55299377    1.38000000    2.42000008
   19.74555588  245.55299377    1.36000001    2.42000008
   19.74972153  257.73400879    1.36000001    2.42000008
   19.75305557  243.26199341    1.36000001    2.42000008
   19.75611115  183.27699280    1.36000001    2.42000008
   19.75944519  198.12100220    1.38000000    2.42000008
   19.76277733  171.95199585    1.41999996    2.40000010
   19.76583290  146.12800598    1.41999996    2.40000010
   19.76916695   -1.00000000    1.41999996    2.40000010
   19.77249908   -1.00000000    1.41999996    2.42000008
   19.77555466   -1.00000000    1.41999996    2.42000008
   19.77888870   -1.00000000    1.39999998    2.40000010
   19.78249931   -1.00000000    1.39999998    2.40000010
   19.79249954   -1.00000000    1.39999998    2.40000010
   19.79583359   -1.00000000    1.38000000    2.40000010
   19.79916573   -1.00000000    1.38000000    2.40000010
   19.80249977   -1.00000000    1.38000000    2.40000010
   19.80555534   -1.00000000    1.39999998    2.40000010
   19.80888748   -1.00000000    1.41999996    2.40000010
   19.81194305   -1.00000000    1.41999996    2.40000010
   19.81555557   -1.00000000    1.41999996    2.40000010
   19.81888962   -1.00000000    1.41999996    2.40000010
   19.82194519   -1.00000000    1.41999996    2.40000010
   19.82527924   -1.00000000    1.39999998    2.40000010
   19.83527756   -1.00000000    1.44000006    2.40000010
   19.83861160   -1.00000000    1.41999996    2.40000010
   19.84194565   -1.00000000    1.44000006    2.40000010
   19.84500122   -1.00000000    1.44000006    2.40000010
   19.84861183   -1.00000000    1.46000004    2.40000010
   19.85194397   -1.00000000    1.44000006    2.40000010
   19.85527802   -1.00000000    1.44000006    2.39000010
   19.85833359   -1.00000000    1.44000006    2.39000010
   19.86166763   -1.00000000    1.44000006    2.39000010
   19.86472321   -1.00000000    1.44000006    2.39000010
   19.86805534   -1.00000000    1.46000004    2.39000010
   19.87833405   -1.00000000    1.48000002    2.39000010
   19.88166618   -1.00000000    1.48000002    2.39000010
   19.88500023   -1.00000000    1.48000002    2.39000010
   19.88833237   -1.00000000    1.48000002    2.39000010
   19.89166641   -1.00000000    1.50000000    2.39000010
   19.89472198   -1.00000000    1.50000000    2.39000010
   19.89805603   -1.00000000    1.51999998    2.39000010
   19.90138817   -1.00000000    1.51999998    2.39000010
   19.90444374   -1.00000000    1.53999996    2.39000010
   19.90777779   -1.00000000    1.53999996    2.39000010
   19.91083336   -1.00000000    1.51999998    2.39000010
   19.92111015   -1.00000000    1.53999996    2.36999989
   19.92416573   -1.00000000    1.55999994    2.39000010
   19.92749977   -1.00000000    1.58000004    2.39000010
   19.93083191   -1.00000000    1.58000004    2.36999989
   19.93388748   -1.00000000    1.58000004    2.39000010
   19.93722153   -1.00000000    1.58000004    2.39000010
   19.94055557   -1.00000000    1.58000004    2.39000010
   19.94361115   -1.00000000    1.55999994    2.36999989
   19.94694328   -1.00000000    1.58000004    2.39000010
   19.95055580   -1.00000000    1.61000001    2.36999989
   19.95388985   -1.00000000    1.61000001    2.36999989
   19.96389008   -1.00000000    1.61000001    2.36999989
   19.96722221   -1.00000000    1.61000001    2.36999989
   19.97027779   -1.00000000    1.61000001    2.36999989
   19.97361183   -1.00000000    1.63000000    2.36999989
   19.97694588   -1.00000000    1.63000000    2.36999989
   19.98000145   -1.00000000    1.63000000    2.36999989
   19.98361206   -1.00000000    1.63000000    2.36999989
   19.98666763   -1.00000000    1.63000000    2.36999989
   19.98999977   -1.00000000    1.63000000    2.36999989
   19.99333382   -1.00000000    1.63000000    2.36999989
   19.99638939   -1.00000000    1.61000001    2.36999989
   20.00666618   -1.00000000    1.64999998    2.36999989
   20.01000023   -1.00000000    1.64999998    2.34999990
   20.01333427   -1.00000000    1.64999998    2.34999990
   20.01694489   -1.00000000    1.64999998    2.36999989
   20.02000046   -1.00000000    1.66999996    2.36999989
   20.02333260   -1.00000000    1.66999996    2.34999990
   20.02638817   -1.00000000    1.69000006    2.36999989
   20.02972221   -1.00000000    1.69000006    2.36999989
   20.03305435   -1.00000000    1.69000006    2.36999989
   20.03610992   -1.00000000    1.73000002    2.34999990
   20.03944397   -1.00000000    1.75000000    2.34999990
   20.04972076   -1.00000000    1.75000000    2.34999990
   20.05277634   -1.00000000    1.75000000    2.34999990
   20.05611038   -1.00000000    1.73000002    2.34999990
   20.05916595   -1.00000000    1.73000002    2.34999990
   20.06250000   -1.00000000    1.75000000    2.34999990
   20.06583214   -1.00000000    1.75000000    2.34999990
   20.06888962   -1.00000000    1.75000000    2.34999990
   20.07222366   -1.00000000    1.75000000    2.34999990
   20.07555580   -1.00000000    1.75000000    2.34999990
   20.07861137   -1.00000000    1.73000002    2.34999990
   20.08222389   -1.00000000    1.71000004    2.34999990
   20.09250069   -1.00000000    1.66999996    2.32999992
   20.09555626   -1.00000000    1.69000006    2.32999992
   20.09889030   -1.00000000    1.69000006    2.32999992
   20.10222244   -1.00000000    1.73000002    2.32999992
   20.10527802   -1.00000000    1.76999998    2.32999992
   20.10861206   -1.00000000    1.76999998    2.32999992
   20.11194420   -1.00000000    1.83000004    2.32999992
   20.11555672   -1.00000000    1.86000001    2.32999992
   20.11861038   -1.00000000    1.88000000    2.32999992
   20.12194443   -1.00000000    1.88000000    2.32999992
   20.12500000   -1.00000000    1.88000000    2.32999992
   20.13527679   -1.00000000    1.80999994    2.32999992
   20.13861084   -1.00000000    1.76999998    2.32999992
   20.14166641   -1.00000000    1.73000002    2.32999992
   20.14500046   -1.00000000    1.69000006    2.32999992
   20.14861107   -1.00000000    1.69000006    2.32999992
   20.15166664   -1.00000000    1.66999996    2.30999994
   20.15499878   -1.00000000    1.63000000    2.32999992
   20.15805435   -1.00000000    1.61000001    2.32999992
   20.16138840   -1.00000000    1.61000001    2.32999992
   20.16472244   -1.00000000    1.60000002    2.32999992
   20.16777802   -1.00000000    1.55999994    2.32999992
   20.17805481   -1.00000000    1.48000002    2.30999994
   20.18194389   -1.00000000    1.50000000    2.32999992
   20.18499947   -1.00000000    1.48000002    2.30999994
   20.18833160   -1.00000000    1.50000000    2.30999994
   20.19138718   -1.00000000    1.48000002    2.30999994
   20.19472122   -1.00000000    1.48000002    2.30999994
   20.19805527   -1.00000000    1.48000002    2.30999994
   20.20111275   -1.00000000    1.48000002    2.30999994
   20.20444489   -1.00000000    1.48000002    2.30999994
   20.20777893   -1.00000000    1.50000000    2.30999994
   20.21083450   -1.00000000    1.53999996    2.30999994
   20.22111130   -1.00000000    1.60000002    2.30999994
   20.22416687   -1.00000000    1.63000000    2.30999994
   20.22750092   -1.00000000    1.63000000    2.28999996
   20.23055649   -1.00000000    1.66999996    2.28999996
   20.23388863   -1.00000000    1.66999996    2.28999996
   20.23722267   -1.00000000    1.66999996    2.28999996
   20.24027824   -1.00000000    1.66999996    2.28999996
   20.24361229   -1.00000000    1.69000006    2.30999994
   20.24694443   -1.00000000    1.69000006    2.28999996
   20.25083351   -1.00000000    1.71000004    2.28999996
   20.25416756   -1.00000000    1.73000002    2.28999996
   20.26388931   -1.00000000    1.75000000    2.28999996
   20.26694489   -1.00000000    1.73000002    2.28999996
   20.27027702   -1.00000000    1.71000004    2.28999996
   20.27361107   -1.00000000    1.69000006    2.28999996
   20.27666664   -1.00000000    1.69000006    2.28999996
   20.28000069   -1.00000000    1.66999996    2.26999998
   20.28361130   -1.00000000    1.64999998    2.28999996
   20.28666687   -1.00000000    1.66999996    2.28999996
   20.28999901   -1.00000000    1.66999996    2.28999996
   20.29333305   -1.00000000    1.69000006    2.28999996
   20.29666710   -1.00000000    1.71000004    2.26999998
   20.30666542   -1.00000000    1.75000000    2.26999998
   20.30999947   -1.00000000    1.76999998    2.26999998
   20.31305504   -1.00000000    1.80999994    2.26999998
   20.31666756   -1.00000000    1.85000002    2.26999998
   20.32000160   -1.00000000    1.85000002    2.26999998
   20.32333374   -1.00000000    1.88000000    2.26999998
   20.32638931   -1.00000000    1.88000000    2.26999998
   20.32972336   -1.00000000    1.94000006    2.26999998
   20.33305550   -1.00000000    1.96000004    2.26999998
   20.33611107   -1.00000000    1.96000004    2.26999998
   20.33944511   -1.00000000    1.91999996    2.25000000
   20.36388969   -1.00000000    2.28999996    2.25000000
   20.36694527   -1.00000000    2.30999994    2.25000000
   20.37027740   -1.00000000    2.26999998    2.25000000
   20.37333298   -1.00000000    2.25000000    2.25000000
   20.37666702   -1.00000000    2.21000004    2.25000000
   20.38000107   -1.00000000    2.17000008    2.23000002
   20.38305473   -1.00000000    2.15000010    2.25000000
   20.39249992   -1.00000000    2.15000010    2.23000002
   20.39583397   -1.00000000    2.17000008    2.23000002
   20.39944458   -1.00000000    2.17000008    2.23000002
   20.40277672   -1.00000000    2.17000008    2.23000002
   20.40583229   -1.00000000    2.15000010    2.23000002
   20.40916634   -1.00000000    2.13000011    2.23000002
   20.41222191   -1.00000000    2.13000011    2.23000002
   20.41555595   -1.00000000    2.09999990    2.23000002
   20.41888809   -1.00000000    2.09999990    2.23000002
   20.42194366   -1.00000000    2.09999990    2.23000002
   20.42527771   -1.00000000    2.09999990    2.23000002
   20.43527603   -1.00000000    2.07999992    2.23000002
   20.43861008   -1.00000000    2.03999996    2.21000004
   20.44194412   -1.00000000    2.01999998    2.21000004
   20.44499969   -1.00000000    2.00000000    2.23000002
   20.44833183   -1.00000000    2.00000000    2.21000004
   20.45166779   -1.00000000    2.00000000    2.23000002
   20.45472336   -1.00000000    2.00000000    2.21000004
   20.45805550   -1.00000000    2.01999998    2.21000004
