    HOUR (UT)   FLARE FACTOR    SKY TESTER    SUN TESTER
   12.60527802   -1.00000000   -1.00000000   -1.00000000
   12.62527752  113.23100281    4.90999985    2.09999990
   12.63027763  106.56600189    4.90999985    2.11999989
   12.63444424   86.20500183    4.90999985    2.11999989
   12.63777733   96.85489655    4.90999985    2.11999989
   12.64083290   85.52310181    4.90999985    2.09999990
   12.64416695  103.49800110    4.90999985    2.09999990
   12.64750004   89.19869995    4.90999985    2.09999990
   12.65055561   90.55979919    4.90999985    2.09999990
   12.65388870   98.27140045    4.90999985    2.07999992
   12.65722179   91.95439911    4.90999985    2.09999990
   12.65861034   79.82070160    4.90999985    2.09999990
   12.66055489   95.87879944    4.90999985    2.09999990
   12.66388893  100.62300110    4.90999985    2.11999989
   12.66694450  102.96800232    4.90999985    2.09999990
   12.67027855   87.82140350    4.90999985    2.11999989
   12.67361164  113.33200073    4.90999985    2.11999989
   12.67666721   92.31169891    4.90999985    2.13000011
   12.68000031  103.79299927    4.90999985    2.11999989
   12.68333340  108.16000366    4.90999985    2.13000011
   12.68638897  108.52300262    4.90999985    2.13000011
   12.68972206  106.49700165    4.90999985    2.15000010
   12.69194412  100.98699951    4.90999985    2.15000010
   12.69333363  103.79000092    4.90999985    2.15000010
   12.69666672  109.63600159    4.90999985    2.17000008
   12.69972229  114.08799744    4.90999985    2.15000010
   12.70305538   96.72200012    4.90999985    2.17000008
   12.70638847  104.87300110    4.90999985    2.15000010
   12.70944405  100.47299957    4.90999985    2.17000008
   12.71277714  108.79900360    4.90999985    2.17000008
   12.71611118  103.89700317    4.90999985    2.17000008
   12.71916580  101.86299896    4.90999985    2.17000008
   12.72249985   94.18340302    4.90999985    2.17000008
   12.72527695   96.31030273    4.90999985    2.17000008
   12.72611046  103.32700348    4.90999985    2.17000008
   12.72944355   88.25150299    4.90999985    2.15000010
   12.73277760   97.75740051    4.90999985    2.15000010
   12.73583317   91.25569916    4.90999985    2.15000010
   12.73916721   91.91680145    4.90999985    2.13000011
   12.74222279   85.15779877    4.90999985    2.13000011
   12.74555588   90.12889862    4.90999985    2.13000011
   12.74888897   84.50119781    4.90999985    2.13000011
   12.75194454   91.25019836    4.90999985    2.13000011
   12.75527763   88.31649780    4.90999985    2.13000011
   12.75861073   82.63169861    4.90999985    2.15000010
   12.75888920   87.46209717    4.90999985    2.15000010
   12.76222229   81.60690308    4.90999985    2.15000010
   12.76555538   79.56849670    4.90999985    2.19000006
   12.76861095   88.43309784    4.90999985    2.19000006
   12.77194405   85.25689697    4.90999985    2.21000004
   12.77499962   83.73400116    4.90999985    2.23000002
   12.77833271   87.43109894    4.90999985    2.23000002
   12.78166676   87.10070038    4.90999985    2.25000000
   12.78472233   86.95690155    4.90999985    2.25000000
   12.78805637   84.86959839    4.90999985    2.26999998
   12.79138947   93.26309967    4.90999985    2.26999998
   12.79194450   92.19640350    4.90999985    2.26999998
   12.79472256   86.24520111    4.90999985    2.26999998
   12.79805565   89.56529999    4.90999985    2.15000010
   12.80138874   89.87979889    4.90999985    2.15000010
   12.80444431   94.21430206    4.90999985    2.15000010
   12.80777836   86.32790375    4.90999985    2.17000008
   12.81083393   85.74539948    4.90999985    2.17000008
   12.81416702   83.32920074    2.91000009    2.17000008
   12.81750011   81.99369812    0.94000000    2.17000008
   12.82055569   83.76869965    0.88000000    2.17000008
   12.82388878   97.71369934    0.64999998    2.17000008
   12.82527733   86.06349945    0.64999998    2.17000008
   12.82750034   83.15239716    0.63000000    2.17000008
   12.83083344   84.15969849    0.61000001    2.17000008
   12.83416653   81.43450165    0.61000001    2.17000008
   12.83722210   82.91940308    0.61000001    2.17000008
   12.84055519   88.71060181    0.58999997    2.15000010
   12.84361076   85.78900146    0.58999997    2.15000010
   12.84694386   85.32869720    0.58999997    2.17000008
   12.85027790   89.47869873    0.58999997    2.15000010
   12.85333347   91.26219940    0.58999997    2.15000010
   12.85666752   90.18669891    0.61000001    2.17000008
   12.85861111   84.67659760    0.61000001    2.15000010
   12.86027813   85.57749939    0.63000000    2.17000008
   12.86361122   88.95369720    0.67000002    2.15000010
   12.86694431   84.82990265    0.79000002    2.17000008
   12.86999989   80.98370361    0.89999998    2.17000008
   12.87333393   81.12239838    1.01999998    2.17000008
   12.87666702   82.32080078    1.16999996    2.17000008
   12.87972260   88.36350250    1.36000001    2.19000006
   12.88305569   88.51789856    2.03999996    2.21000004
   12.88611126   88.83290100    2.26999998    2.23000002
   12.88944435   95.75599670    2.86999989    2.23000002
   12.89194393   86.84439850    3.32999992    2.23000002
   12.89305496   89.00509644    3.64000010    2.25000000
   12.89638901   86.61109924    4.90999985    2.25000000
   12.89972210   84.35009766    4.90999985    2.25000000
   12.90277767   90.92050171    4.90999985    2.25000000
   12.90611076   84.95890045    4.90999985    2.25000000
   12.90944386   82.21739960    4.90999985    2.25000000
   12.91249943   82.63829803    4.90999985    2.25000000
   12.91583252   85.70290375    4.90999985    2.25000000
   12.91888905   86.82209778    4.90999985    2.25000000
   12.92222214   88.03379822    4.90999985    2.25000000
   12.92527771   81.43800354    4.90999985    2.25000000
   12.92583370   85.26679993    4.90999985    2.25000000
   12.92916679   87.63960266    4.90999985    2.25000000
   12.93249989   85.21759796    4.90999985    2.25000000
   12.93555546   86.32740021    4.90999985    2.25000000
   12.93888855   90.18499756    4.90999985    2.25000000
   12.94194412   88.79740143    4.90999985    2.25000000
   12.94527817   86.77639771    4.90999985    2.26999998
   12.94861126   89.14140320    4.90999985    2.26999998
   12.95166683   90.79709625    4.90999985    2.26999998
   12.95499992   86.39530182    4.90999985    2.28999996
   12.95833302   92.94339752    4.90999985    2.28999996
   12.95861053   97.30690002    4.90999985    2.28999996
   12.96194458   89.88400269    4.90999985    2.28999996
   12.96527767   82.40000153    4.90999985    2.28999996
   12.96833324   90.54109955    4.90999985    2.30999994
   12.97166634   87.67009735    4.90999985    2.30999994
   12.97499943   86.56590271    4.90999985    2.32999992
   12.97805500   86.02030182    4.90999985    2.32999992
   12.98138809   87.92030334    4.90999985    2.32999992
   12.98472214   84.97589874    4.90999985    2.30999994
   12.98777771   85.99279785    4.90999985    2.32999992
   12.99111176   78.57810211    4.90999985    2.32999992
   12.99222279   81.35179901    4.90999985    2.30999994
   12.99472237   82.52919769    4.90999985    2.30999994
   12.99805546   81.95929718    4.90999985    2.28999996
   13.00111103   83.79949951    4.90999985    2.28999996
   13.00444412   79.53289795    4.90999985    2.26999998
   13.00777817   84.27420044    4.90999985    2.26999998
   13.01083374   80.50340271    4.90999985    2.25000000
   13.01416683   81.72470093    4.90999985    2.25000000
   13.01749992   80.64340210    4.90999985    2.25000000
   13.02055550   81.95059967    4.90999985    2.25000000
   13.02388859   88.93579865    4.90999985    2.25000000
   13.02555561   84.73079681    4.90999985    2.25000000
   13.02777767   81.12020111    4.90999985    2.25000000
   13.03083324   82.66889954    4.90999985    2.25000000
   13.03416729   79.97509766    4.90999985    2.25000000
   13.03750038   94.16049957    4.90999985    2.25000000
   13.04055595   96.48549652    4.90999985    2.25000000
   13.04388905   80.91989899    4.90999985    2.25000000
   13.04694462   90.62310028    4.90999985    2.25000000
   13.05027771   87.23560333    4.90999985    2.25000000
   13.05361176   87.05909729    4.90999985    2.25000000
   13.05666733   85.51360321    4.90999985    2.26999998
   13.05888939   86.48760223    0.55000001    2.28999996
   13.06027794   90.07710266    0.52999997    2.28999996
   13.06361103   95.74269867    0.52999997    2.28999996
   13.06666660   83.73190308    0.52999997    2.26999998
   13.06999969   90.92890167    0.52999997    2.26999998
   13.07333374   87.73750305    0.52999997    2.26999998
   13.07638836  102.43699646    0.51999998    2.25000000
   13.07972240  122.66699982    0.51999998    2.26999998
   13.08305550  100.34799957    0.52999997    2.25000000
   13.08611107  130.21400452    0.51999998    2.25000000
   13.08944416   85.69390106    0.52999997    2.25000000
   13.09222221  111.67400360    0.52999997    2.25000000
   13.09305477  113.55300140    0.52999997    2.26999998
   13.09638882  135.20399475    0.56999999    2.26999998
   13.09944439  146.59199524    0.63000000    2.26999998
   13.10277843  115.47100067    0.70999998    2.25000000
   13.10611153  145.19200134    0.83999997    2.26999998
   13.10916710  140.16600037    1.00000000    2.28999996
   13.11250019  103.63300323    1.23000002    2.28999996
   13.11583328  110.78600311    1.51999998    2.30999994
   13.11888885  121.24800110    1.83000004    2.30999994
   13.12222195  108.37200165    2.28999996    2.32999992
   13.12555599  108.40100098    2.75000000    2.32999992
   13.12583351  118.37400055    2.86999989    2.32999992
   13.12916660  126.37599945    3.75000000    2.34999990
   13.13222218  115.15200043    4.90999985    2.34999990
   13.13555527   97.70410156    4.90999985    2.34999990
   13.13888836   91.73159790    4.90999985    2.34999990
   13.14194393   88.90679932    4.90999985    2.34999990
   13.14527798  102.48699951    4.90999985    2.34999990
   13.14861107   86.26950073    4.90999985    2.36999989
   13.15166664   86.41010284    4.90999985    2.34999990
   13.15499973   91.62519836    4.90999985    2.34999990
   13.15805531   93.26090240    4.90999985    2.34999990
   13.15888882  107.60199738    4.90999985    2.32999992
   13.16166592  120.63400269    4.90999985    2.34999990
   13.16499996  100.49099731    4.90999985    2.34999990
   13.16805553   92.71219635    4.90999985    2.34999990
   13.17138958  110.94999695    4.90999985    2.34999990
   13.17472267  126.46199799    4.90999985    2.34999990
   13.17777824  111.53900146    4.90999985    2.36999989
   13.18111134   86.23490143    4.90999985    2.36999989
   13.18444443   96.84609985    4.90999985    2.36999989
   13.18750000  118.69499969    4.90999985    2.36999989
   13.19083309   98.51370239    4.90999985    2.36999989
   13.19222260   84.80970001    4.90999985    2.36999989
   13.19444466  107.26799774    4.90999985    2.39000010
   13.19777775  100.73600006    4.90999985    2.39000010
   13.20083332  134.06100464    4.90999985    0.80000001
   13.20416641  115.19000244    4.90999985    2.32999992
   13.20749950  128.54600525    4.90999985    2.32999992
   13.21055508   82.81950378    3.50000000    2.32999992
   13.21388912   98.23480225    0.46000001    2.32999992
   13.21722221  116.45400238    0.44000000    2.32999992
   13.22027779   95.03859711    0.44000000    2.32999992
   13.22361088  162.28900146    0.44000000    2.32999992
   13.22555542  113.67299652    0.44000000    2.34999990
   13.22722149  172.41799927    0.44000000    2.34999990
   13.23055553  138.95199585    0.44000000    2.32999992
   13.23361111  169.12800598    0.44000000    2.32999992
   13.23694515  175.46400452    0.44000000    2.32999992
   13.24027824  228.94700623    0.44000000    2.32999992
   13.24333382  139.01600647    0.46000001    2.32999992
   13.24666691  191.59800720    0.46000001    2.30999994
   13.25000000  185.47300720    0.46000001    2.30999994
   13.25305557  144.76899719    0.46000001    2.30999994
   13.25638866  177.35299683    0.50000000    2.30999994
   13.25888920  172.48800659    0.55000001    2.30999994
   13.26000023  114.61900330    0.55000001    2.30999994
   13.26333332  140.50100708    0.80000001    2.32999992
   13.26666641  175.53599548    1.00000000    2.32999992
   13.26972198  116.77999878    1.69000006    2.34999990
   13.27305508  136.99099731    2.01999998    2.34999990
   13.28333378  144.25799561    0.00000000    0.00000000
   13.28722286  102.17500305    0.00000000    0.00000000
   13.29111195  163.60800171    0.00000000    0.00000000
   13.29500008  137.96499634    0.00000000    0.00000000
   13.29888916  129.47700500    0.00000000    0.00000000
   13.29916668  129.53799438    0.00000000    0.00000000
   13.30277824  133.01199341    0.00000000    0.00000000
   13.30611134  127.79499817    2.21000004    2.36999989
   13.30944443  148.35600281    2.21000004    2.36999989
   13.31250000  131.56700134    2.21000004    2.36999989
   13.31583309  124.33100128    2.21000004    2.36999989
   13.31916618  140.03300476    2.21000004    2.36999989
   13.32222176  107.69200134    2.21000004    2.36999989
   13.32555580  101.27999878    2.21000004    2.36999989
   13.32861137  142.30299377    2.21000004    2.36999989
   13.33194447  109.55100250    2.21000004    2.36999989
   13.33249950  132.71200562    2.21000004    2.36999989
   13.33555508  129.33799744    4.90999985    2.39000010
   13.33888817  140.07800293    4.90999985    2.39000010
   13.34194374  147.41200256    4.90999985    2.39000010
   13.34527779  119.05500031    4.90999985    2.40000010
   13.34861088  110.65499878    4.90999985    2.42000008
   13.35166740  112.11100006    4.90999985    2.42000008
   13.35500050  108.91799927    4.90999985    2.42000008
   13.35833359  122.39700317    4.90999985    2.44000006
   13.36138916  139.96299744    4.90999985    2.44000006
   13.36472225  120.93199921    4.90999985    2.44000006
   13.36583328  117.09799957    4.90999985    2.46000004
   13.36833382  135.21099854    4.90999985    2.40000010
   13.37166691  129.94299316    4.90999985    2.36999989
   13.37500000  130.02699280    0.67000002    2.39000010
   13.37805557  130.77400208    0.51999998    2.39000010
   13.38138866  129.74099731    0.41999999    2.39000010
   13.38472176  135.37899780    0.40000001    2.39000010
   13.38777733  146.21099854    0.40000001    2.39000010
   13.39111137  143.08299255    0.40000001    2.39000010
   13.39416695  129.87899780    0.38000000    2.39000010
   13.39750004  118.95400238    0.40000001    2.39000010
   13.39916611  132.27999878    0.40000001    2.39000010
   13.40111065  122.04399872    0.40000001    2.36999989
   13.40444374  139.20899963    0.40000001    2.36999989
   13.40749931  151.14599609    0.40000001    2.39000010
   13.41083336  138.27900696    0.40000001    2.39000010
   13.41416645  132.64500427    0.40000001    2.39000010
   13.41722298  135.19599915    0.40000001    2.36999989
   13.42055607  131.93099976    0.40000001    2.36999989
   13.42388916  120.58100128    0.40000001    2.39000010
   13.42694473  138.75900269    0.40000001    2.39000010
   13.43027782  121.24099731    0.40000001    2.36999989
   13.43277836  126.72100067    0.40000001    2.39000010
   13.43388939  126.74700165    0.40000001    2.39000010
   13.43722248  119.00499725    0.40000001    2.39000010
   13.44055557  127.93699646    0.40000001    2.39000010
   13.44361115  128.53100586    0.40000001    2.39000010
   13.44694424  142.22300720    0.40000001    2.39000010
   13.44999981  159.11500549    0.40000001    2.39000010
   13.45333290  138.23300171    0.40000001    2.39000010
   13.45666695  142.55299377    0.40000001    2.39000010
   13.45972157  138.28399658    0.40000001    2.39000010
   13.46305561  164.64199829    0.40000001    2.39000010
   13.46611118  157.82099915    0.40000001    2.40000010
   13.46666622  161.50000000    0.40000001    2.40000010
   13.46999931  153.30400085    0.40000001    2.39000010
   13.47305489  160.41499329    0.40000001    2.40000010
   13.47638798  147.61599731    0.40000001    2.40000010
   13.47972202  154.12500000    0.40000001    2.39000010
   13.48277760  148.97399902    0.40000001    2.40000010
   13.48611164  167.86799622    0.40000001    2.40000010
   13.48944473  132.01100159    0.40000001    2.40000010
   13.49250031  115.97000122    0.40000001    2.39000010
   13.49583340  130.38900757    0.38000000    2.40000010
   13.49888897  147.12199402    0.38000000    2.40000010
   13.49944496  130.61300659    0.38000000    2.40000010
   13.50277805  126.75499725    0.38000000    2.40000010
   13.50611115  140.16299438    0.38000000    2.40000010
   13.50916672  126.52799988    0.38000000    2.40000010
   13.51249981  136.10800171    0.38000000    2.40000010
   13.51583290  128.12699890    0.38000000    2.40000010
   13.51888847  118.15599823    0.38000000    2.40000010
   13.52222157  124.03399658    0.38000000    2.40000010
   13.52527714  116.76899719    0.38000000    2.40000010
   13.52861118  125.99400330    0.38000000    2.40000010
   13.53194427  109.23000336    0.38000000    2.40000010
   13.53277779  123.20899963    0.38000000    2.40000010
   13.53555584  132.76199341    0.38000000    2.40000010
   13.53888893  126.23899841    0.38000000    2.40000010
   13.54194450  139.11999512    0.38000000    2.40000010
   13.54527855  125.96600342    0.38000000    2.40000010
   13.54861164  137.45899963    0.38000000    2.40000010
   13.55166721  125.41999817    0.38000000    2.40000010
   13.55500031  125.08599854    0.38000000    2.40000010
   13.55805588  143.73100281    0.38000000    2.42000008
   13.56138897  121.71399689    0.38000000    2.42000008
   13.56472206  125.16899872    0.38000000    2.42000008
   13.56611156  127.56500244    0.38000000    2.40000010
   13.56833363  135.06799316    0.38000000    2.40000010
   13.57166672  125.33000183    0.38000000    2.42000008
   13.57472229  138.71200562    0.38000000    2.40000010
   13.57805538  136.33599854    0.38000000    2.40000010
   13.58138847  139.72900391    0.38000000    2.40000010
   13.58444405  126.95200348    0.38000000    2.40000010
   13.58777714  128.68400574    0.38000000    2.40000010
   13.59111118  116.73200226    0.38000000    2.42000008
   13.59416676  126.56099701    0.38000000    2.42000008
   13.59749985  135.22000122    0.38000000    2.42000008
   13.59944439  113.45200348    0.38000000    2.42000008
   13.60111141  129.62899780    0.38000000    2.42000008
   13.60444450   99.78749847    0.38000000    2.42000008
   13.60750008  106.65399933    0.38000000    2.42000008
   13.61083412  106.43099976    0.38000000    2.40000010
   13.61416721  133.33500671    0.38000000    2.40000010
   13.61722279  119.31400299    0.38000000    2.42000008
   13.62055588  111.14600372    0.38000000    2.42000008
   13.62361145  109.43599701    0.38000000    2.42000008
   13.62694454  109.28099823    0.38000000    2.42000008
   13.64499950  110.45099640    0.38000000    2.42000008
   13.64694405  100.23699951    0.38000000    2.44000006
   13.65027714  115.64800262    0.38000000    2.44000006
   13.65361118   88.96209717    0.38000000    2.44000006
   13.65666676  102.52200317    0.38000000    2.44000006
   13.65999985  119.54199982    0.38000000    2.44000006
   13.66305542  101.92299652    0.38000000    2.44000006
   13.66638851   89.45539856    0.38000000    2.44000006
   13.66972256  114.92800140    0.38000000    2.44000006
   13.67277813  107.95300293    0.38000000    2.44000006
   13.67611122  104.63899994    0.38000000    2.44000006
   13.67833328  108.58699799    0.38000000    2.44000006
   13.67972279  100.72100067    0.38000000    2.44000006
   13.68305588   87.19010162    0.36000001    2.44000006
   13.68638897   93.17620087    0.36000001    2.44000006
   13.68944454   94.56169891    0.36000001    2.44000006
   13.69277763   99.04570007    0.38000000    2.44000006
   13.69611073   95.10569763    0.38000000    2.44000006
   13.69916630  109.23300171    0.36000001    2.44000006
   13.70249939  105.65100098    0.36000001    2.44000006
   13.70555496  121.03500366    0.38000000    2.44000006
   13.70888901  119.32399750    0.36000001    2.44000006
   13.71166611  128.10099792    0.36000001    2.44000006
   13.71277714  120.40100098    0.36000001    2.44000006
   13.71583271  112.82800293    0.38000000    2.44000006
   13.71916580  121.93000031    0.36000001    2.44000006
   13.72249985  109.90599823    0.38000000    2.44000006
   13.72555542  101.08499908    0.38000000    2.44000006
   13.72888851  133.29499817    0.38000000    2.46000004
   13.73194408  111.23300171    0.36000001    2.44000006
   13.73527813  123.89600372    0.38000000    2.44000006
   13.73861122  126.16899872    0.36000001    2.44000006
   13.74166679  106.51499939    0.36000001    2.44000006
   13.74499989  130.72000122    0.36000001    2.46000004
   13.74555588  112.27700043    0.36000001    2.46000004
   13.74861145  105.00599670    0.38000000    2.44000006
   13.75194454  108.27600098    0.38000000    2.44000006
   13.75500011  102.36299896    0.38000000    2.44000006
   13.75833321  102.66999817    0.38000000    2.44000006
   13.76166630  120.53600311    0.38000000    2.44000006
   13.76472187  110.29299927    0.38000000    2.46000004
   13.76805496  130.00700378    0.38000000    2.46000004
   13.77138901  102.51599884    0.38000000    2.44000006
   13.77444458  100.32099915    0.38000000    2.46000004
   13.77777767  101.09200287    0.38000000    2.44000006
   13.77833271  118.27200317    0.38000000    2.44000006
   13.78138828   99.99199677    0.38000000    2.44000006
   13.78444481  108.35500336    0.38000000    2.44000006
   13.78777790   88.94709778    0.38000000    2.46000004
   13.79111195  114.00800323    0.38000000    2.46000004
   13.79416752  131.66799927    0.38000000    2.46000004
   13.79750061  123.45300293    0.38000000    2.46000004
   13.80083370  143.52099609    0.38000000    2.46000004
   13.80388927  166.15600586    0.38000000    2.44000006
   13.80722237  146.59199524    0.38000000    2.46000004
   13.81027794  140.13999939    0.38000000    2.46000004
   13.81166649  163.35699463    0.38000000    2.46000004
   13.81416702  188.48500061    0.38000000    2.46000004
   13.81722260  149.40499878    0.38000000    2.46000004
   13.82055569  141.47200012    0.38000000    2.48000002
   13.82388878  169.14599609    0.38000000    2.46000004
   13.82694435  185.65899658    0.38000000    2.46000004
   13.83027744  156.14100647    0.38000000    2.46000004
   13.83361053  138.73300171    0.38000000    2.46000004
   13.83666611  154.07899475    0.38000000    2.48000002
   13.84000015  159.40499878    0.38000000    2.48000002
   13.84305477  166.09800720    0.38000000    2.48000002
   13.84499931  161.66900635    0.38000000    2.46000004
   13.84694386  150.11199951    0.38000000    2.46000004
   13.85000038  161.47399902    0.38000000    2.46000004
   13.85333347  159.61700439    0.38000000    2.48000002
   13.85666752  159.09100342    0.38000000    2.46000004
   13.85972214  154.75199890    0.38000000    2.46000004
   13.86305618  160.17500305    0.38000000    2.48000002
   13.86611176  149.45199585    0.38000000    2.48000002
   13.86944485  152.78900146    0.38000000    2.48000002
   13.87277794  150.19400024    0.38000000    2.46000004
   13.87583351  147.15299988    0.38000000    2.46000004
   13.87833309  132.08299255    0.38000000    2.48000002
   13.87972260  130.73599243    0.38000000    2.48000002
   13.88277817  111.09799957    0.38000000    2.48000002
   13.88611126  110.10600281    0.38000000    2.48000002
   13.88944435  125.50299835    0.36000001    2.48000002
   13.89249992  134.35600281    0.36000001    2.46000004
   13.89583302  127.71700287    0.36000001    2.46000004
   13.89888859  119.14399719    0.36000001    2.48000002
   13.90222168  114.59300232    0.36000001    2.48000002
   13.90555477  108.79199982    0.36000001    2.48000002
   13.90861034  100.09500122    0.36000001    2.48000002
   13.91166592  104.24800110    0.36000001    2.48000002
   13.91249943  102.46399689    0.36000001    2.48000002
   13.91555500  109.68800354    0.36000001    2.46000004
   13.91888905  118.27899933    0.36000001    2.46000004
   13.92222214  105.22899628    0.36000001    2.48000002
   13.92527771  103.63500214    0.36000001    2.48000002
   13.92861176   99.57779694    0.38000000    2.46000004
   13.93166733  101.48899841    0.38000000    2.48000002
   13.93500042   96.38610077    0.38000000    2.48000002
   13.93833351   87.06259918    0.38000000    2.48000002
   13.94138908   87.91809845    0.38000000    2.48000002
   13.94472218   89.38020325    0.38000000    2.48000002
   13.94527817   97.07720184    0.38000000    2.48000002
   13.94861126   82.76770020    0.38000000    2.48000002
   13.95166683   91.69329834    0.38000000    2.48000002
   13.95499992   90.27420044    0.38000000    2.48000002
   13.95805550   91.38619995    0.38000000    2.48000002
   13.96138859   87.80030060    0.38000000    2.48000002
   13.96472168   86.95639801    0.38000000    2.50000000
   13.96805477   80.48509979    0.38000000    2.50000000
   13.97111034   93.20749664    0.38000000    2.50000000
   13.97444439   96.23970032    0.38000000    2.50000000
   13.97749996   93.09020233    0.38000000    2.50000000
   13.97861099   99.12960052    0.38000000    2.50000000
   13.98138809   96.42279816    0.38000000    2.50000000
   14.08333302   -1.00000000   -1.00000000   -1.00000000
   14.17861176   -1.00000000   -1.00000000   -1.00000000
   14.27722168   -1.00000000   -1.00000000   -1.00000000
   14.29722309   70.72820282    0.36000001    2.51999998
   14.30027771  109.56099701    0.36000001    2.53999996
   14.30361176   88.76450348    0.36000001    2.53999996
   14.30694485  110.60399628    0.36000001    2.53999996
   14.31000042  102.81300354    0.36000001    2.51999998
   14.31333351  104.48799896    0.36000001    2.53999996
   14.31750011  104.48799896    0.36000001    2.51999998
   14.32166672  102.16300201    0.36000001    2.51999998
   14.32472229  110.81700134    0.36000001    2.53999996
   14.32805538  107.81400299    0.36000001    2.51999998
   14.33027744   92.33190155    0.36000001    2.51999998
   14.33166695  114.57099915    0.36000001    2.51999998
   14.33472157  107.56199646    0.36000001    2.53999996
   14.33805561  104.96499634    0.36000001    2.53999996
   14.34138870   88.25569916    0.36000001    2.53999996
   14.34444427   91.10489655    0.34000000    2.53999996
   14.34777737   86.35739899    0.34000000    2.53999996
   14.35111141   90.95179749    0.34000000    2.53999996
   14.35416698  102.25499725    0.34000000    2.55999994
   14.36027813  102.25499725    0.34000000    2.51999998
   14.36444473   92.15399933    0.34000000    2.51999998
   14.36777782   82.50890350    0.34000000    2.53999996
   14.37083340   78.97170258    0.36000001    2.53999996
   14.37416649   85.90640259    0.36000001    2.53999996
   14.37722206   85.65760040    0.36000001    2.53999996
   14.38055611   92.26000214    0.36000001    2.53999996
   14.38388920   85.86299896    0.36000001    2.53999996
   14.38694477   92.54209900    0.36000001    2.53999996
   14.39027786   80.53350067    0.36000001    2.55999994
   14.39361095   94.00859833    0.34000000    2.53999996
   14.39666653   89.56449890    0.34000000    2.53999996
   14.39722252   84.80850220    0.34000000    2.53999996
   14.40305519   84.80850220    0.36000001    2.53999996
   14.40722179   91.01909637    0.36000001    2.51999998
   14.41055489   92.00350189    0.36000001    2.55999994
   14.41361046   88.77700043    0.36000001    2.53999996
   14.41694450   85.53389740    0.34000000    2.53999996
   14.42027855   93.82279968    0.34000000    2.53999996
   14.42333412   86.22879791    0.34000000    2.53999996
   14.42666721   89.83889771    0.34000000    2.53999996
   14.42972279   87.01149750    0.34000000    2.53999996
   14.43055630   85.79499817    0.34000000    2.53999996
   14.43361092   80.02929688    0.34000000    2.53999996
   14.44388866   72.96710205    0.00000000    0.00000000
   14.44861126   72.96710205    0.00000000    0.00000000
   14.45333290   79.80390167    0.00000000    0.00000000
   14.45722198   79.58609772    0.00000000    0.00000000
   14.46111107   92.68389893    0.00000000    0.00000000
   14.46472168   85.35079956    0.00000000    0.00000000
   14.46527767   91.08350372    0.00000000    0.00000000
   14.46861076   83.93949890    0.34000000    2.53999996
   14.47194386   80.96209717    0.34000000    2.53999996
   14.47527695   89.18289948    0.34000000    2.53999996
   14.47861099   79.79270172    0.34000000    2.53999996
   14.48166656   82.61979675    0.34000000    2.53999996
   14.48500061   88.50039673    0.34000000    2.53999996
   14.49083328   88.50039673    0.34000000    2.51999998
   14.49499989   89.44400024    0.31999999    2.55999994
   14.49750042   86.08650208    0.31999999    2.55999994
   14.49861145   82.68979645    0.31999999    2.53999996
   14.50194454   84.70780182    0.31999999    2.53999996
   14.50500011   85.15399933    0.34000000    2.53999996
   14.50833321   88.35119629    0.34000000    2.53999996
   14.51138878   90.16780090    0.31999999    2.53999996
   14.51472187   86.55809784    0.31999999    2.53999996
   14.51805496   86.10919952    0.31999999    2.53999996
   14.52111053   92.37529755    0.31999999    2.55999994
   14.52444458   83.25980377    0.31999999    2.55999994
   14.52777767   99.00589752    0.31999999    2.53999996
   14.53361130   99.00589752    0.31999999    2.55999994
   14.53777790   84.49079895    0.31999999    2.53999996
   14.54111195   89.53659821    0.31999999    2.53999996
   14.54416752  103.44899750    0.31999999    2.55999994
   14.54750061  111.55599976    0.31999999    2.53999996
   14.55083370   98.04100037    0.31999999    2.53999996
   14.55388927   86.33599854    0.31999999    2.55999994
   14.55722237  125.76599884    0.31999999    2.55999994
   14.56055546  137.24499512    0.31999999    2.55999994
   14.56361103  153.72099304    0.31999999    2.55999994
   14.56444454  154.38299561    0.31999999    2.55999994
   14.56722260   86.44429779    0.31999999    2.55999994
   14.57055569  127.56199646    0.34000000    2.55999994
   14.57638836  127.56199646    0.34000000    2.55999994
   14.58055592  129.86500549    0.34000000    2.55999994
   14.58388901  152.02200317    0.34000000    2.55999994
   14.58722210  149.52000427    0.34000000    2.55999994
   14.59027767  163.52099609    0.34000000    2.55999994
   14.59361076  169.69999695    0.34000000    2.55999994
   14.59666634  154.29200745    0.34000000    2.55999994
   14.59777737  182.80599976    0.34000000    2.55999994
   14.60027790  170.31100464    0.34000000    2.55999994
   14.60361195  237.75700378    0.34000000    2.55999994
   14.60666752  251.80799866    0.34000000    2.55999994
   14.61000061  241.05400085    0.34000000    2.55999994
   14.61333370  228.36999512    0.34000000    2.55999994
   14.61944485  228.36999512    0.36000001    2.55999994
   14.62361145  188.94000244    0.36000001    2.55999994
   14.62666702  199.88099670    0.36000001    2.55999994
   14.63000011  176.53900146    0.36000001    2.57999992
   14.63138866  162.77400208    0.36000001    2.55999994
   14.63361073  151.27600098    0.36000001    2.55999994
   14.63694477  157.06900024    0.36000001    2.55999994
   14.64000034  140.45300293    0.36000001    2.55999994
   14.64333344  153.47000122    0.36000001    2.55999994
   14.64638901  166.00999451    0.36000001    2.55999994
   14.64972210  105.34400177    0.36000001    2.53999996
   14.65305519  113.93599701    0.36000001    2.57999992
   14.65611076   91.43090057    0.36000001    2.55999994
   14.66222191   91.43090057    0.36000001    2.55999994
   14.66638851   81.96659851    0.36000001    2.53999996
   14.66944504   82.94680023    0.36000001    2.55999994
   14.67277813   87.26850128    0.36000001    2.55999994
   14.67611122   95.46219635    0.36000001    2.55999994
   14.67916679   94.37850189    0.36000001    2.55999994
   14.68249989   85.20169830    0.36000001    2.55999994
   14.68583298   85.62799835    0.36000001    2.55999994
   14.68888855   87.70980072    0.38000000    2.55999994
   14.69222260   83.00569916    0.38000000    2.55999994
   14.69527817   77.05770111    0.38000000    2.55999994
   14.69805527   85.03389740    0.38000000    2.55999994
   14.69916630   92.72550201    0.38000000    2.55999994
   14.70499992   92.72550201    0.38000000    2.57999992
   14.70916653   82.48130035    0.36000001    2.55999994
   14.71249962   96.51580048    0.36000001    2.55999994
   14.71555519  104.53800201    0.36000001    2.57999992
   14.71888828   86.12030029    2.94000006    2.59999990
   14.72222137   85.99669647    0.80000001    2.59999990
   14.72527695   80.34169769    0.34000000    2.57999992
   14.72861099   89.13120270    0.34000000    2.57999992
   14.73138809   84.59359741    0.34000000    2.57999992
   14.73222160   88.05750275    0.34000000    2.55999994
   14.73555565   88.60310364    0.34000000    2.55999994
   14.73861122   94.43229675    0.34000000    2.55999994
   14.74194431   99.38700104    0.34000000    2.55999994
   14.74777794   99.38700104    0.34000000    2.57999992
   14.75194454  121.62000275    0.34000000    2.55999994
   14.75527763  106.78399658    0.34000000    2.55999994
   14.75861073   96.42980194    0.34000000    2.55999994
   14.76166630   99.28649902    0.34000000    2.55999994
   14.76472187  121.74900055    0.34000000    2.55999994
   14.76527786  117.61399841    0.34000000    2.55999994
   14.76861095  134.57200623    0.34000000    2.55999994
   14.77166653  102.67600250    0.34000000    2.57999992
   14.77499962   80.04340363    0.34000000    2.55999994
   14.77805519  117.65899658    0.34000000    2.57999992
   14.78138828   76.42050171    0.34000000    2.57999992
   14.78472233  134.76499939    0.34000000    2.53999996
   14.79083347  134.76499939    0.34000000    2.55999994
   14.79472256  120.75700378    0.34000000    2.57999992
   14.79805565  119.62699890    0.34000000    2.57999992
   14.79861164  111.62100220    0.34000000    2.57999992
   14.80166721  109.88300323    0.34000000    2.57999992
   14.80500031  105.65799713    0.34000000    2.55999994
   14.80833340   87.74720001    0.34000000    2.57999992
   14.81138897   88.61519623    0.34000000    2.55999994
   14.81472206   79.11969757    0.36000001    2.55999994
   14.81805515   93.42970276    0.34000000    2.57999992
   14.82111073   95.98159790    0.36000001    2.55999994
   14.82444477  110.29499817    0.34000000    2.55999994
   14.82750034  125.71399689    0.34000000    2.55999994
   14.83361053  125.71399689    0.34000000    2.57999992
   14.83777714   83.92130280    0.36000001    2.57999992
   14.84083271   95.16639709    0.36000001    2.57999992
   14.84416676   75.09320068    0.34000000    2.57999992
   14.84749985  108.54000092    0.34000000    2.57999992
   14.85055637  109.63600159    0.34000000    2.57999992
   14.85388947   84.10230255    0.34000000    2.57999992
   14.85694504   88.43199921    0.34000000    2.57999992
   14.86027813  115.23200226    0.34000000    2.57999992
   14.86361122   96.58280182    0.34000000    2.55999994
   14.86472225   77.16149902    0.34000000    2.55999994
   14.86722279   89.60150146    0.34000000    2.57999992
   14.87055588  118.57900238    0.34000000    2.57999992
   14.87638855  118.57900238    0.31999999    2.57999992
   14.88055611  126.86399841    0.31999999    2.57999992
   14.88388920  117.92500305    0.31999999    2.57999992
   14.88694477  113.30999756    0.31999999    2.57999992
   14.89027786  116.85800171    0.31999999    2.57999992
   14.89361095  103.47599792    0.31999999    2.57999992
   14.89666653  102.83699799    0.31999999    2.57999992
   14.89805508  139.63900757    0.31999999    2.57999992
   14.90027714  123.07700348    0.31999999    2.57999992
   14.90361118  152.89700317    0.30000001    2.59999990
   14.90666676  101.58300018    0.31999999    2.55999994
   14.90999985  132.85699463    0.30000001    2.57999992
   14.91305542  118.42600250    0.30000001    2.57999992
   14.91916656  118.42600250    0.30000001    2.57999992
   14.92333412  147.63499451    0.31999999    2.55999994
   14.92666721  121.30799866    0.31999999    2.57999992
   14.92972279  139.36599731    0.30000001    2.59999990
   14.93166733  116.06099701    0.30000001    2.59999990
   14.93361092   97.75260162    0.30000001    2.59999990
   14.93666649  126.61499786    0.31999999    2.57999992
   14.94000053  105.13099670    0.31999999    2.57999992
   14.94333363   95.28839874    0.31999999    2.57999992
   14.94638920   74.42140198    0.31999999    2.57999992
   14.94972229   79.83219910    0.31999999    2.57999992
   14.95305538   95.14250183    0.31999999    2.57999992
   14.95611095   99.68099976    0.31999999    2.57999992
   14.96222210   99.68099976    0.31999999    2.59999990
   14.96638870   96.57520294    0.31999999    2.57999992
   14.96944427   92.22139740    0.31999999    2.57999992
   14.97277737  103.39900208    0.31999999    2.57999992
   14.97611046  120.56199646    0.31999999    2.59999990
   14.97916603  107.16100311    0.31999999    2.57999992
   14.98249912   95.26409912    0.31999999    2.57999992
   14.98555565  120.00199890    0.31999999    2.57999992
   14.98888874  107.90499878    0.31999999    2.57999992
   14.99222279  110.20600128    0.31999999    2.57999992
   14.99527836   87.39769745    0.31999999    2.57999992
   14.99861145   81.36579895    0.31999999    2.59999990
   14.99916649   78.71340179    0.31999999    2.59999990
   15.00500011   78.71340179    0.31999999    2.55999994
   15.00916672  111.52999878    0.31999999    2.57999992
   15.01222229   97.55239868    0.31999999    2.57999992
   15.01555538  105.96800232    0.31999999    2.57999992
   15.01888847   98.93859863    0.31999999    2.59999990
   15.02194405  120.89700317    0.31999999    2.57999992
   15.02527714   95.27239990    0.31999999    2.59999990
   15.02861118   98.97789764    0.31999999    2.59999990
   15.03166676   80.92320251    0.31999999    2.55999994
   15.03222179   88.83769989    0.31999999    2.55999994
   15.03527832   76.99559784    0.31999999    2.59999990
   15.03861141   90.42369843    0.30000001    2.59999990
   15.04194450   79.00319672    0.30000001    2.59999990
   15.04777813   79.00319672    0.31999999    2.57999992
   15.05194473   89.35119629    0.31999999    2.59999990
   15.05527782   88.39890289    0.31999999    2.59999990
   15.05833340   87.11889648    0.31999999    2.57999992
   15.06166649   82.09040070    0.31999999    2.57999992
   15.06500053  108.70200348    0.30000001    2.57999992
   15.06583309   95.27600098    0.30000001    2.57999992
   15.06888866   85.55110168    0.30000001    2.57999992
   15.07222176   91.52629852    0.31999999    2.57999992
   15.07555580   77.06719971    0.31999999    2.59999990
   15.07861137   86.51879883    0.31999999    2.59999990
   15.08194447   87.68370056    0.31999999    2.59999990
   15.08527756   82.36779785    0.31999999    2.59999990
   15.09055519   82.36779785    0.31999999    2.59999990
   15.09472179   87.61630249    0.31999999    2.61999989
   15.09805489   77.24700165    0.31999999    2.61999989
   15.09888840   77.13220215    0.31999999    2.61999989
   15.10166740   72.60780334    0.31999999    2.59999990
   15.10472298   72.17780304    0.31999999    2.59999990
   15.10805607   71.92230225    0.31999999    2.57999992
   15.11138916  110.20600128    0.31999999    2.57999992
   15.11472225   84.95480347    0.31999999    2.59999990
   15.11777782   76.54250336    0.31999999    2.59999990
   15.12111092   79.91470337    0.31999999    2.55999994
   15.12444496   96.13590240    0.31999999    2.55999994
   15.12750053  117.59799957    0.31999999    2.59999990
   15.13361073  117.59799957    0.31999999    2.61999989
   15.13749981   98.36070251    0.31999999    2.59999990
   15.14083290   95.46260071    0.31999999    2.57999992
   15.14416695   76.20500183    0.31999999    2.59999990
   15.14722252   97.00730133    0.31999999    2.59999990
   15.15055561   78.66709900    0.31999999    2.59999990
   15.15388870   75.51170349    0.31999999    2.55999994
   15.15694427   99.14659882    0.31999999    2.57999992
   15.16027737   76.72930145    0.31999999    2.57999992
   15.16333294   74.68370056    0.31999999    2.57999992
   15.16555500   73.83209991    0.31999999    2.57999992
   15.16722298   78.22190094    0.31999999    2.61999989
   15.17027855   81.30819702    0.31999999    2.61999989
   15.17638874   81.30819702    0.31999999    2.59999990
   15.18055630   75.42410278    0.31999999    2.59999990
   15.18361092   75.90799713    0.31999999    2.59999990
   15.18694496   75.86869812    0.31999999    2.59999990
   15.19027805   80.33429718    0.30000001    2.59999990
   15.19333363   73.46949768    0.31999999    2.59999990
   15.19666672   93.35269928    0.31999999    2.59999990
   15.19888878   79.19640350    0.31999999    2.59999990
   15.20027733   77.61360168    0.31999999    2.59999990
   15.20333290   78.66130066    0.31999999    2.59999990
   15.20666695   74.77089691    0.31999999    2.57999992
   15.21000004   77.19660187    0.31999999    2.59999990
   15.21305561   79.81890106    0.31999999    2.59999990
   15.21916580   79.81890106    0.31999999    2.57999992
   15.22333336   81.70320129    0.31999999    2.57999992
   15.22666645   81.84570313    0.31999999    2.61999989
   15.22972202   89.26750183    0.31999999    2.61999989
   15.23222160   74.84210205    0.31999999    2.61999989
   15.23333359   79.64969635    0.31999999    2.61999989
   15.23638916   76.46209717    0.31999999    2.59999990
   15.23972225   80.79010010    0.31999999    2.59999990
   15.24305534   81.02429962    0.31999999    2.59999990
   15.24611092   79.53209686    0.31999999    2.57999992
   15.24944496   85.69519806    0.31999999    2.61999989
   15.25277805   82.36319733    0.31999999    2.59999990
   15.25583363   90.54540253    0.30000001    2.64000010
   15.26194477   90.54540253    0.30000001    2.59999990
   15.26611137   76.82790375    0.31999999    2.61999989
   15.26944447   85.18170166    0.30000001    2.59999990
   15.27250004   75.51840210    0.30000001    2.59999990
   15.27583313   77.02179718    0.30000001    2.59999990
   15.27916622   81.62100220    0.30000001    2.61999989
   15.28222179   81.89630127    0.30000001    2.59999990
   15.28555584   74.79340363    0.30000001    2.57999992
   15.28888893   76.53309631    0.30000001    2.61999989
   15.29194450   84.47959900    0.30000001    2.61999989
   15.29527855   73.72090149    0.30000001    2.59999990
   15.29861164   83.03379822    0.30000001    2.61999989
   15.29916668   81.04570007    0.30000001    2.61999989
   15.31999969   81.04570007    0.30000001    2.59999990
   15.32388878   82.08100128    0.31999999    2.61999989
   15.32722187   83.27829742    0.31999999    2.61999989
   15.33055592   76.10260010    0.31999999    2.59999990
   15.33249950   84.84850311    0.31999999    2.61999989
   15.33416653   94.73259735    0.31999999    2.61999989
   15.33722210   78.82759857    0.31999999    2.61999989
   15.34055519   75.24759674    0.31999999    2.59999990
   15.34361076   78.34059906    0.31999999    2.61999989
   15.34694386   80.83809662    0.31999999    2.59999990
   15.35027790   88.69979858    0.31999999    2.59999990
   15.35333347   76.54630280    0.31999999    2.61999989
   15.35666752   91.04479980    0.31999999    2.61999989
   15.36250019   91.04479980    0.31999999    2.59999990
   15.36666679   74.40959930    0.31999999    2.59999990
   15.36999989   79.54830170    0.31999999    2.59999990
   15.37333393   76.66519928    0.34000000    2.61999989
   15.37638855   74.71700287    0.36000001    2.59999990
   15.37972260   76.38320160    0.36000001    2.59999990
   15.38305569   73.49939728    0.41999999    2.61999989
   15.38611126   81.52940369    0.46000001    2.61999989
   15.38944435   80.87030029    0.55000001    2.59999990
   15.39249992   81.00150299    0.56999999    2.59999990
   15.39583302   75.19139862    0.63000000    2.59999990
   15.39916611   76.44750214    0.63000000    2.59999990
   15.39972210   77.99150085    0.63000000    2.59999990
   15.40555477   77.99150085    0.79000002    2.61999989
   15.40972137   79.57679749    0.70999998    2.61999989
   15.41277695   73.87650299    0.70999998    2.61999989
   15.41611099   73.51560211    0.64999998    2.59999990
   15.41916656   75.59120178    0.55000001    2.59999990
   15.42250061   80.40329742    0.50000000    2.61999989
   15.42583370   78.35089874    0.46000001    2.61999989
   15.42888927   86.31490326    0.46000001    2.61999989
   15.43222237   72.30709839    0.38000000    2.61999989
   15.43305588   73.08309937    0.38000000    2.61999989
   15.43583298   81.14589691    0.38000000    2.59999990
   15.43916702   77.41490173    0.36000001    2.61999989
   15.44250011   78.09539795    0.36000001    2.59999990
   15.44833374   78.09539795    0.34000000    2.61999989
   15.45249939   73.05650330    0.34000000    2.61999989
   15.45555496   80.35479736    0.34000000    2.59999990
   15.45888901   71.82730103    0.34000000    2.59999990
   15.46222210   83.83200073    0.34000000    2.61999989
   15.46527767   85.81849670    0.34000000    2.59999990
   15.46638870   72.71600342    0.34000000    2.59999990
   15.46888828   74.86219788    0.34000000    2.61999989
   15.47222137   79.84369659    0.34000000    2.61999989
   15.47555542   74.89530182    0.34000000    2.61999989
   15.47861099   77.40959930    0.34000000    2.61999989
   15.48194408   76.56829834    0.31999999    2.64000010
   15.48527813   72.07630157    0.31999999    2.64000010
   15.49111176   72.07630157    0.31999999    2.61999989
   15.49527836   75.00109863    0.31999999    2.61999989
   15.49861145   83.43009949    0.34000000    2.61999989
   15.49972248   76.64160156    0.34000000    2.61999989
   15.50194454   73.87220001    0.34000000    2.61999989
   15.50527763   75.04850006    0.31999999    2.61999989
   15.50861073   79.21610260    0.31999999    2.61999989
   15.51166630   77.80670166    0.34000000    2.61999989
   15.51500034   81.53690338    0.34000000    2.61999989
   15.51805496   73.84420013    0.34000000    2.64000010
   15.52138901   74.90560150    0.34000000    2.61999989
   15.52472210   78.66269684    0.34000000    2.61999989
   15.52777767   74.91000366    0.34000000    2.61999989
   15.53388977   74.91000366    0.34000000    2.61999989
   15.53805637   74.65679932    0.34000000    2.61999989
   15.54138947   79.22949982    0.34000000    2.61999989
   15.54444504   76.53250122    0.34000000    2.61999989
   15.54805565   73.64209747    0.34000000    2.59999990
   15.55111122   75.23049927    0.34000000    2.61999989
   15.55472279   75.64099884    0.34000000    2.61999989
   15.55777836   76.59700012    0.34000000    2.61999989
   15.56111145   73.97550201    0.34000000    2.61999989
   15.56416702   75.17649841    0.34000000    2.61999989
   15.56638908   75.06590271    0.34000000    2.61999989
   15.56777763   78.99079895    0.34000000    2.61999989
   15.57111073   75.26429749    0.34000000    2.61999989
   15.57694435   75.26429749    0.34000000    2.61999989
   15.58111095   82.18250275    0.34000000    2.61999989
   15.58416653   73.72119904    0.34000000    2.61999989
   15.58749962   74.57319641    0.34000000    2.61999989
   15.59055519   76.61560059    0.34000000    2.61999989
   15.59388828   72.73010254    0.34000000    2.61999989
   15.59722233   73.06289673    0.34000000    2.61999989
   15.59972191   80.82369995    0.34000000    2.61999989
   15.60055637   76.79309845    0.34000000    2.61999989
   15.60388947   77.79239655    0.34000000    2.61999989
   15.60722256   75.82980347    0.36000001    2.61999989
   15.61027813   74.93579865    0.36000001    2.61999989
   15.61361122   77.55200195    0.34000000    2.61999989
   15.61972237   77.55200195    0.34000000    2.61999989
   15.62388897   77.93609619    0.34000000    2.61999989
   15.62694454   83.65789795    0.34000000    2.61999989
   15.63027763   79.57859802    0.34000000    2.61999989
   15.63305569   81.23709869    0.34000000    2.61999989
   15.63388920   77.51599884    0.34000000    2.61999989
   15.63722229   88.79969788    0.34000000    2.61999989
   15.64055538   77.79830170    0.34000000    2.61999989
   15.64361095   73.22779846    0.34000000    2.61999989
   15.64694405   71.86309814    0.34000000    2.61999989
   15.64999962   77.33879852    0.34000000    2.61999989
   15.65333271   76.40509796    0.34000000    2.61999989
   15.65666676   81.09130096    0.31999999    2.61999989
   15.66249943   81.09130096    0.34000000    2.61999989
   15.66666698   78.16639709    0.34000000    2.61999989
   15.67000008   75.54119873    0.31999999    2.64000010
   15.67305565   74.63739777    0.34000000    2.61999989
   15.67638874   73.61820221    0.34000000    2.61999989
   15.67944431   76.81710052    0.34000000    2.61999989
   15.68277836   74.44850159    0.34000000    2.66000009
   15.68611145   74.41970062    0.34000000    2.61999989
   15.68916702   72.95110321    0.34000000    2.61999989
   15.69250011   73.90879822    0.36000001    2.61999989
   15.69583321   73.16539764    0.36000001    2.61999989
   15.69888878   74.96109772    0.36000001    2.64000010
   15.69972229   76.80789948    0.36000001    2.64000010
   15.70527744   76.80789948    0.38000000    2.61999989
   15.70944405   79.36160278    0.38000000    2.61999989
   15.71277714   79.61920166    0.38000000    2.64000010
   15.71583271   76.21890259    0.38000000    2.64000010
   15.71916580   73.67910004    0.38000000    2.61999989
   15.72249985   79.07119751    0.38000000    2.64000010
   15.72555542   73.16600037    0.38000000    2.64000010
   15.72888851   75.88240051    0.38000000    2.64000010
   15.73222160   73.75920105    0.38000000    2.64000010
   15.73305511   74.87069702    0.38000000    2.64000010
   15.73583317   77.68479919    0.38000000    2.64000010
   15.73916721   77.80269623    0.80000001    2.61999989
   15.74222279   77.70099640    0.80000001    2.61999989
   15.74833393   77.70099640    0.81999999    2.59999990
   15.75222206   74.64839935    0.89999998    2.61999989
   15.75555515   82.03170013    0.61000001    2.61999989
   15.75888920   77.37989807    0.61000001    2.61999989
   15.76194477   72.85109711    0.61000001    2.61999989
   15.76527786   71.91639709    0.70999998    2.61999989
   15.76638889   79.74929810    0.70999998    2.61999989
   15.76888847   72.33889771    1.26999998    2.61999989
   15.77222157   76.60019684    3.61999989    2.61999989
   15.77555561   75.45410156    4.38999987    2.57999992
   15.77861118   72.51200104    4.90999985    2.59999990
   15.78194427   76.87799835    4.90999985    2.59999990
   15.78527832   75.28140259    4.90999985    2.59999990
   15.79111195   75.28140259    4.90999985    2.55999994
   15.79527855   80.55799866    4.90999985    2.55999994
   15.79833412   71.14160156    4.90999985    2.55999994
   15.79972267   82.19000244    4.90999985    2.55999994
   15.80194473   73.89499664    4.90999985    2.55999994
   15.80527782   74.78800201    4.90999985    2.55999994
   15.80861092   72.11859894    4.90999985    2.57999992
   15.81166649   75.35469818    4.90999985    2.53999996
   15.81500053   71.96260071    4.90999985    2.53999996
   15.81833363   86.20189667    4.90999985    2.57999992
   15.82138920   82.28990173    4.90999985    2.55999994
   15.82472229   81.61589813    4.90999985    2.55999994
   15.82777786   76.58300018    4.90999985    2.59999990
   15.83388901   76.58300018    4.90999985    2.61999989
   15.83805561   72.90760040    4.90999985    2.59999990
   15.84138870   73.64150238    4.90999985    2.59999990
   15.84444427   74.04989624    4.90999985    2.57999992
   15.84777737   78.29840088    4.90999985    2.59999990
   15.85083389   82.42430115    4.90999985    2.57999992
   15.85416698   83.52570343    4.90999985    2.57999992
   15.85750008   80.43049622    4.90999985    2.53999996
   15.86055565   83.16280365    4.90999985    2.57999992
   15.86388969   76.71029663    4.90999985    2.55999994
   15.86638927   78.26039886    4.90999985    2.55999994
   15.86750031   77.85269928    4.90999985    2.55999994
   15.87083340   75.84390259    4.90999985    2.59999990
   15.87666702   75.84390259    3.51999998    2.55999994
   15.88083363   74.89499664    2.82999992    2.57999992
   15.88416672   73.08499908    1.98000002    2.61999989
   15.88722229   77.46109772    1.91999996    2.61999989
   15.89055538   77.55030060    1.69000006    2.61999989
   15.89388847   75.40429688    1.60000002    2.61999989
   15.89694405   73.59940338    1.46000004    2.64000010
   15.89972210   75.43530273    1.36000001    2.61999989
   15.90055561   74.64980316    1.36000001    2.61999989
   15.90388870   86.96199799    1.30999994    2.64000010
   15.90722179   73.60600281    0.75000000    2.61999989
   15.91027737   76.04460144    0.75000000    2.64000010
   15.91361046   74.54959869    0.73000002    2.61999989
   15.91972256   74.54959869    0.70999998    2.64000010
   15.92361164   74.16249847    0.86000001    2.61999989
   15.92694473   73.64849854    0.86000001    2.61999989
   15.93027782   77.07460022    1.48000002    2.64000010
   15.93305588   76.85530090    2.03999996    2.61999989
   15.93361092   84.58309937    2.03999996    2.61999989
   15.93694496   79.23650360    3.26999998    2.61999989
   15.94027805   78.41919708    4.90999985    2.55999994
   15.94333363   74.33110046    4.90999985    2.59999990
   15.94666672   75.95929718    4.90999985    2.57999992
   15.94999981   82.78220367    4.90999985    2.59999990
   15.95305538   75.37010193    4.90999985    2.61999989
   15.95638847   74.98300171    4.26999998    2.64000010
   15.96249962   74.98300171    2.39000010    2.61999989
   15.96666622   73.83689880    1.66999996    2.61999989
   15.96972179   73.45159912    1.63000000    2.61999989
   15.97305489   75.82720184    1.60000002    2.61999989
   15.97638798   76.05690002    1.55999994    2.61999989
   15.97944355   71.00769806    1.36000001    2.61999989
   15.98277760   79.53780365    1.13000000    2.64000010
   15.98583317   80.32369995    0.94000000    2.64000010
   15.98916721   82.80039978    0.88000000    2.64000010
   15.99250031   76.77600098    0.88000000    2.64000010
   15.99555588   77.14779663    0.52999997    2.64000010
   15.99888897   75.27500153    0.52999997    2.64000010
   15.99972248   77.94960022    0.51999998    2.64000010
   16.00527763   77.94960022    0.40000001    2.64000010
   16.00944519   76.39080048    0.38000000    2.64000010
   16.01277733   79.40930176    0.36000001    2.64000010
   16.01583290   80.14689636    0.34000000    2.64000010
   16.01916695   77.79540253    0.34000000    2.64000010
   16.02222252   75.04699707    0.34000000    2.64000010
   16.02555466   82.17430115    0.34000000    2.64000010
   16.02888870   80.56400299    0.34000000    2.64000010
   16.03194427   79.98090363    0.41999999    2.64000010
   16.03305435   76.31700134    0.46000001    2.64000010
   16.03583336   78.35639954    0.46000001    2.64000010
   16.03888893   75.92340088    0.47999999    2.64000010
   16.04222107   77.79419708    0.55000001    2.61999989
   16.04805565   77.79419708    0.56999999    2.61999989
   16.05222130   76.60320282    0.56999999    2.64000010
   16.05555534   75.32189941    0.56999999    2.64000010
   16.05861092   80.24669647    0.56999999    2.64000010
   16.06194305   79.35759735    0.56999999    2.64000010
   16.06527710   76.88439941    0.56999999    2.61999989
   16.06638718   75.81780243    0.56999999    2.61999989
   16.06888962   75.96199799    0.63000000    2.64000010
   16.07194519   75.04399872    0.67000002    2.64000010
   16.07527924   76.08260345    0.56999999    2.64000010
   16.07861137   81.22570038    0.47999999    2.61999989
   16.08166695   73.86779785    0.44000000    2.64000010
   16.08500099   77.08719635    0.44000000    2.64000010
   16.09083366   77.08719635    0.56999999    2.64000010
   16.09500122   75.84639740    0.61000001    2.64000010
   16.09833336   72.08589935    0.61000001    2.64000010
   16.09972191   76.38289642    0.61000001    2.64000010
   16.10222244   77.41709900    0.41999999    2.66000009
   16.10527802   77.93139648    0.41999999    2.66000009
   16.10888863   74.53810120    0.41999999    2.61999989
   16.11222267   73.82420349    0.40000001    2.64000010
   16.11527824   74.15299988    0.38000000    2.64000010
   16.11861038   77.98390198    0.36000001    2.64000010
   16.12194443   77.59089661    0.36000001    2.66000009
   16.12500000   73.47930145    0.36000001    2.66000009
   16.12833405   75.03340149    0.36000001    2.64000010
   16.13388824   75.03340149    0.34000000    2.64000010
   16.13805580   77.17469788    0.36000001    2.61999989
   16.14111137   76.64800262    0.36000001    2.64000010
   16.14444351   77.91809845    0.36000001    2.64000010
   16.14749908   77.72920227    0.36000001    2.64000010
   16.15083313   76.98850250    0.36000001    2.64000010
   16.15416718   78.58460236    0.36000001    2.64000010
   16.15749931   76.20919800    0.36000001    2.64000010
   16.16055489   80.87729645    0.34000000    2.64000010
   16.16388893   76.12870026    0.34000000    2.64000010
   16.16638756   77.30860138    0.34000000    2.64000010
   16.16749954   82.09230042    0.34000000    2.64000010
   16.17055511   79.38150024    0.34000000    2.64000010
   16.17666626   79.38150024    0.31999999    2.64000010
   16.18083191   76.55439758    0.30000001    2.64000010
   16.18388748   77.00859833    0.30000001    2.64000010
   16.18722153   77.70570374    0.30000001    2.64000010
   16.19055557   76.89029694    0.30000001    2.64000010
   16.19361115   81.72270203    0.30000001    2.64000010
   16.19694328   83.61129761    0.28000000    2.64000010
   16.19972038   77.52729797    0.28000000    2.64000010
   16.20083427   76.26660156    0.28000000    2.64000010
   16.20388985   72.42279816    0.28000000    2.64000010
   16.20722389   81.55680084    0.28000000    2.64000010
   16.21027946   76.53330231    0.28000000    2.64000010
   16.21361160   73.09999847    0.28000000    2.64000010
   16.21944427   73.09999847    0.30000001    2.64000010
   16.22361183   78.79239655    0.30000001    2.64000010
   16.22694588   85.94029999    0.28000000    2.64000010
   16.23027802   80.75650024    0.28000000    2.64000010
   16.23305511   71.78399658    0.28000000    2.64000010
   16.23388863   81.83570099    0.28000000    2.64000010
   16.23694420   81.57730103    0.28000000    2.64000010
   16.24027824   78.77010345    0.28000000    2.64000010
   16.24361229   84.74749756    0.25999999    2.64000010
   16.24666786   84.74690247    0.25999999    2.64000010
   16.25000000   73.39689636    0.28000000    2.64000010
   16.25305557   74.39710236    0.28000000    2.64000010
   16.25638962   77.56860352    0.25999999    2.64000010
   16.26222229   77.56860352    0.28000000    2.64000010
   16.26638794   74.81800079    0.28000000    2.64000010
   16.26972198   77.01290131    0.25999999    2.64000010
   16.27305603   76.55930328    0.25999999    2.64000010
   16.27611160   72.05829620    0.25999999    2.64000010
   16.27944374   77.61789703    0.25999999    2.64000010
   16.28249931   72.65630341    0.28000000    2.64000010
   16.28583336   73.20909882    0.28000000    2.64000010
   16.28916550   77.01570129    0.28000000    2.64000010
   16.29222107   71.58930206    0.28000000    2.64000010
   16.29555511   74.32240295    0.28000000    2.64000010
   16.29888916   76.12069702    0.28000000    2.64000010
   16.29972076   76.20300293    0.25999999    2.64000010
   16.30527687   76.20300293    0.28000000    2.61999989
   16.30944443   74.03890228    0.28000000    2.64000010
   16.31250000   79.60220337    0.28000000    2.64000010
   16.31583214   76.79540253    0.28000000    2.64000010
   16.33333397   72.40679932    0.28000000    2.64000010
   16.33583450  126.38500214    0.28000000    2.64000010
   16.33889008   93.85350037    0.28000000    2.64000010
   16.34222221   99.29969788    0.28000000    2.64000010
   16.34833336   99.29969788    0.28000000    2.64000010
   16.35222244   78.27339935    0.28000000    2.64000010
   16.35555649   89.86869812    0.28000000    2.64000010
   16.35888863   87.86679840    0.28000000    2.64000010
   16.36194420  107.86100006    0.28000000    2.66000009
   16.36527824   83.00620270    0.28000000    2.64000010
   16.36666679  111.09200287    0.28000000    2.64000010
   16.36916733  104.34400177    0.25999999    2.64000010
   16.37222290  117.37899780    0.25999999    2.64000010
   16.37555504   89.17120361    0.25999999    2.64000010
   16.37861061   82.27500153    0.28000000    2.64000010
   16.38194466   99.03450012    0.28000000    2.64000010
   16.38527679   96.96019745    0.25999999    2.64000010
   16.39111137   96.96019745    0.25999999    2.64000010
   16.39527702   84.50700378    0.25999999    2.64000010
   16.39833260   84.10399628    0.25999999    2.66000009
   16.39999962   75.99240112    0.25999999    2.64000010
   16.40222168   80.12500000    0.25999999    2.64000010
   16.40555573   73.01439667    0.25999999    2.64000010
   16.40861130   73.18440247    0.25999999    2.64000010
   16.41194344   80.55149841    0.25999999    2.64000010
   16.41527748   74.54810333    0.25999999    2.64000010
   16.41860962   72.05719757    0.25999999    2.64000010
   16.42166519   79.43730164    0.25999999    2.64000010
   16.42499924   72.15010071    0.25999999    2.64000010
   16.42833328   74.83740234    0.25999999    2.64000010
   16.43388748   74.83740234    0.25000000    2.64000010
   16.43805504   72.01969910    0.25999999    2.64000010
   16.44138718   73.88800049    0.25000000    2.64000010
   16.44444275   75.65429688    0.25999999    2.64000010
   16.44777679   73.50610352    0.25999999    2.64000010
   16.45083427   71.71579742    0.25999999    2.64000010
   16.45416832   77.40470123    0.25999999    2.64000010
   16.45750046   73.59829712    0.25999999    2.64000010
   16.46055603   71.78549957    0.25999999    2.64000010
   16.46389008   75.03800201    0.25999999    2.64000010
   16.46666718   76.05970001    0.25999999    2.64000010
   16.46750069   78.61519623    0.25999999    2.64000010
   16.47055626   76.71829987    0.25999999    2.64000010
   16.47666740   76.71829987    0.25999999    2.64000010
   16.48083305   77.73999786    0.25999999    2.66000009
   16.48416710   73.30410004    0.25999999    2.66000009
   16.48722267   77.37609863    0.25999999    2.66000009
   16.49055672   74.23850250    0.25999999    2.64000010
   16.49388885   73.08309937    0.25999999    2.64000010
   16.49694443   71.17359924    0.25999999    2.66000009
   16.50000000   71.65679932    0.25999999    2.64000010
   16.50083351   74.14640045    0.25999999    2.64000010
   16.50388908   74.39070129    0.25999999    2.64000010
   16.50722313   72.79869843    0.25999999    2.64000010
   16.51055527   77.22260284    0.25999999    2.64000010
   16.51361084   72.12329865    0.25999999    2.64000010
   16.51972198   72.12329865    0.25000000    2.64000010
   16.52361107   74.77480316    0.25999999    2.64000010
   16.52694511   73.00710297    0.25999999    2.64000010
   16.53027725   72.07679749    0.25000000    2.64000010
   16.53333282   71.01789856    0.25999999    2.64000010
   16.53388786   75.01020050    0.25999999    2.64000010
   16.53722191   71.69760132    0.25000000    2.66000009
   16.54027748   71.37819672    0.25999999    2.66000009
   16.54361153   69.55729675    0.25999999    2.64000010
   16.54694366   70.56330109    0.25999999    2.64000010
   16.54999924   73.21779633    0.25999999    2.64000010
   16.55333328   72.79560089    0.25999999    2.64000010
   16.55638885   71.07569885    0.25999999    2.64000010
   16.56250000   71.07569885    0.25999999    2.61999989
   16.56666756   71.47640228    0.25000000    2.66000009
   16.56722260   75.78430176    0.25000000    2.66000009
   16.57027817   73.00260162    0.25999999    2.66000009
   16.57361221   76.52770233    0.25999999    2.64000010
   16.57666779   72.98570251    0.25999999    2.64000010
   16.58000183   74.26750183    0.25999999    2.64000010
   16.58333397   75.03739929    0.25999999    2.64000010
   16.58666801   73.25550079    0.25999999    2.66000009
   16.58972359   76.02140045    0.25999999    2.66000009
   16.59305573   73.88839722    0.25999999    2.64000010
   16.59611130   77.98130035    0.25999999    2.64000010
   16.59944534   71.82849884    0.25000000    2.64000010
   16.60000038   75.68910217    0.25000000    2.64000010
   16.60527802   75.68910217    0.25000000    2.64000010
   16.60944557   74.67449951    0.25000000    2.64000010
   16.61277771   72.17449951    0.25000000    2.64000010
   16.61583328   78.34929657    0.25000000    2.64000010
   16.61916733   76.21700287    0.25000000    2.64000010
   16.62222290   74.69259644    0.25000000    2.64000010
   16.62555504   75.91239929    0.25000000    2.66000009
   16.62888908   73.65270233    0.25000000    2.66000009
   16.63194466   78.31310272    0.25000000    2.66000009
   16.63333321   73.84700012    0.25000000    2.66000009
   16.63583374   75.88300323    0.25000000    2.66000009
   16.63888931   76.10780334    0.25000000    2.64000010
   16.64222145   76.08740234    0.25000000    2.64000010
   16.64805603   76.08740234    0.25000000    2.64000010
   16.65222168   75.00530243    0.25000000    2.64000010
   16.65555573   74.36759949    0.25000000    2.64000010
   16.65861130   76.32769775    0.25000000    2.66000009
   16.66194344   70.86399841    0.25000000    2.64000010
   16.66527748   74.67669678    0.25000000    2.64000010
   16.66666603   73.86299896    0.25000000    2.64000010
   16.66888809   71.29070282    0.25000000    2.64000010
   16.67194366   75.15409851    0.25000000    2.64000010
   16.67527771   75.48619843    0.25000000    2.64000010
   16.67860985   74.13909912    0.25000000    2.66000009
   16.68166542   75.47010040    0.25000000    2.64000010
   16.68499947   76.02989960    0.25000000    2.64000010
   16.69111061   76.02989960    0.25000000    2.64000010
   16.69499969   71.80210114    0.25000000    2.64000010
   16.69833183   75.32450104    0.25000000    2.64000010
   16.70000076   76.83209991    0.25000000    2.64000010
   16.70194435   74.91940308    0.25000000    2.64000010
   16.70499992   76.28320313    0.25000000    2.64000010
   16.70833397   75.12300110    0.25000000    2.66000009
   16.71166801   79.39669800    0.25000000    2.64000010
   16.71472359   79.18329620    0.25000000    2.64000010
   16.71805573   75.16290283    0.25000000    2.64000010
   16.72111130   72.41719818    0.25000000    2.64000010
   16.72444534   74.41880035    0.25000000    2.64000010
   16.72777748   76.28469849    0.25000000    2.64000010
   16.73388863   76.28469849    0.25000000    2.64000010
   16.73805618   74.64279938    0.25000000    2.66000009
   16.74138832   73.25930023    0.25000000    2.64000010
   16.74444389   73.00849915    0.25000000    2.64000010
   16.74777794   76.23220062    0.25000000    2.64000010
   16.75083351   77.18890381    0.25000000    2.66000009
   16.75416756   75.85780334    0.25000000    2.64000010
   16.75749969   73.11450195    0.25000000    2.64000010
   16.76055527   73.46869659    0.25000000    2.64000010
   16.76388931   74.78990173    0.25000000    2.64000010
   16.76666641   72.69329834    0.25000000    2.64000010
   16.76749992   74.50890350    0.25000000    2.64000010
   16.77055550   74.18009949    0.25000000    2.64000010
   16.77666664   74.18009949    0.25999999    2.64000010
   16.78083229   74.32050323    0.25999999    2.64000010
   16.78416634   72.03829956    0.25999999    2.64000010
   16.78722191   71.30690002    0.25999999    2.64000010
   16.79055595   71.95069885    0.25999999    2.64000010
   16.79361153   72.98750305    0.25000000    2.64000010
   16.79694366   74.59940338    0.25000000    2.64000010
   16.79999924   70.25969696    0.25999999    2.64000010
   16.80055428   73.61150360    0.25999999    2.64000010
   16.80360985   74.44290161    0.25999999    2.64000010
   16.80694389   78.52059937    0.25999999    2.66000009
   16.81027794   74.79309845    0.25999999    2.66000009
   16.81333351   76.47109985    0.25999999    2.64000010
   16.81972313   76.47109985    0.25999999    2.64000010
   16.82361221   73.52040100    0.25999999    2.64000010
   16.82694626   71.44560242    0.25999999    2.64000010
   16.83027840   73.36150360    0.25999999    2.64000010
   16.83333397   73.84310150    0.25999999    2.64000010
   16.83388901   78.10749817    0.25999999    2.64000010
   16.83694458   72.85420227    0.25999999    2.64000010
   16.84027863   72.33409882    0.25999999    2.66000009
   16.84361267   73.02359772    0.25999999    2.64000010
   16.84666824   73.63099670    0.25999999    2.66000009
   16.85000038   71.91239929    0.25999999    2.66000009
   16.85305595   72.76940155    0.25999999    2.64000010
   16.85639000   72.91529846    0.25999999    2.66000009
   16.86250114   72.91529846    0.25999999    2.64000010
   16.86638832   73.17140198    0.25999999    2.64000010
   16.86694527   73.03440094    0.25999999    2.64000010
   16.87027740   71.64900208    0.25999999    2.64000010
   16.87361145   71.10649872    0.25999999    2.66000009
   16.87666702   72.31719971    0.25999999    2.64000010
   16.88000107   73.91490173    0.25999999    2.64000010
   16.88333321   81.47669983    0.25999999    2.64000010
   16.88638878   75.99659729    0.25999999    2.64000010
   16.88972282   78.26770020    0.25999999    2.64000010
   16.89277840   76.18779755    0.28000000    2.64000010
   16.89611053   71.81929779    0.28000000    2.64000010
   16.89944458   73.73660278    0.28000000    2.64000010
   16.90027809   71.47280121    0.28000000    2.64000010
   16.90527725   71.47280121    0.28000000    2.64000010
   16.90944481   72.36100006    0.28000000    2.64000010
   16.91250038   74.65239716    0.28000000    2.64000010
   16.91583252   72.44779968    0.28000000    2.64000010
   16.91916656   73.82839966    0.28000000    2.64000010
   16.92222214   74.20909882    0.28000000    2.64000010
   16.92555428   73.80370331    0.28000000    2.64000010
   16.92888832   73.37979889    0.28000000    2.66000009
   16.93194389   74.15670013    0.25999999    2.64000010
   16.93361092   74.72080231    0.25999999    2.64000010
   16.93555450   74.38330078    0.25999999    2.64000010
   16.93888855   77.61470032    0.25999999    2.66000009
   16.94194412   72.39340210    0.25999999    2.66000009
   16.94805527   72.39340210    0.25999999    2.66000009
   16.95222282   72.94419861    0.25999999    2.64000010
   16.95555687   72.97650146    0.25999999    2.64000010
   16.95861244   76.99530029    0.25999999    2.66000009
   16.96194458   75.07420349    0.25999999    2.64000010
   16.96500015   74.29709625    0.25999999    2.64000010
   16.96694565   69.41909790    0.25999999    2.64000010
   16.96888924   73.79599762    0.25999999    2.66000009
   16.97222328   74.58940125    0.25999999    2.64000010
   16.97527885   74.42780304    0.25999999    2.64000010
   16.97861099   70.92829895    0.25999999    2.64000010
   16.98194504   71.47090149    0.25999999    2.64000010
   16.98500061   75.12570190    0.25999999    2.64000010
   16.99083328   75.12570190    0.25000000    2.64000010
   16.99500084   72.47229767    0.25000000    2.66000009
   16.99833298   72.16989899    0.25000000    2.66000009
   17.00027847   75.26419830    0.25000000    2.66000009
   17.00194359   70.91149902    0.25000000    2.64000010
   17.00527763   72.26049805    0.25000000    2.64000010
   17.00833321   73.76239777    0.25999999    2.64000010
   17.01166725   76.10859680    0.25000000    2.66000009
   17.01499939   70.87570190    0.25000000    2.66000009
   17.01805496   74.97419739    0.25999999    2.66000009
   17.02138901   71.79399872    0.25999999    2.61999989
   17.02444458   74.63710022    0.25999999    2.61999989
   17.02777672   73.80629730    0.25999999    2.66000009
   17.03388786   73.80629730    0.25999999    2.66000009
   17.03777695   70.04010010    0.25999999    2.66000009
   17.04111099   74.35019684    0.25999999    2.64000010
   17.04444313   74.25650024    0.25999999    2.66000009
   17.04749870   72.73719788    0.25999999    2.66000009
   17.05083275   74.65769958    0.25999999    2.64000010
   17.05416679   72.26699829    0.25999999    2.64000010
   17.05722237   73.58429718    0.25999999    2.66000009
   17.06055450   74.02140045    0.25999999    2.64000010
   17.06388855   71.50360107    0.25999999    2.64000010
   17.06694603   75.30239868    0.25999999    2.64000010
   17.06750107   72.87599945    0.25999999    2.64000010
   17.07083511   73.23619843    0.25999999    2.64000010
   17.07666779   73.23619843    0.25999999    2.64000010
   17.08083344   71.68250275    0.25999999    2.66000009
   17.08416748   72.16950226    0.25999999    2.64000010
   17.08722305   75.30180359    0.25999999    2.66000009
   17.09055710   72.04599762    0.25999999    2.64000010
   17.09388924   73.15599823    0.25999999    2.64000010
   17.09694481   70.48100281    0.25999999    2.64000010
   17.10027885   74.98860168    0.25999999    2.64000010
   17.10083389   75.62439728    0.25999999    2.64000010
   17.10388947   73.07929993    0.25999999    2.66000009
   17.10694504   71.80809784    0.25999999    2.64000010
   17.11027908   69.86309814    0.25999999    2.64000010
   17.11361122   73.93599701    0.25999999    2.64000010
   17.11944389   73.93599701    0.25999999    2.64000010
   17.12361145   74.40750122    0.25999999    2.64000010
   17.12694550   72.64859772    0.25999999    2.64000010
   17.13000107   77.88150024    0.25999999    2.64000010
   17.13333321   75.30249786    0.25999999    2.64000010
   17.13416672   75.05799866    0.25999999    2.64000010
   17.13694382   73.62439728    0.25999999    2.64000010
   17.13999939   71.81069946    0.25999999    2.66000009
   17.14333344   83.25779724    0.25999999    2.64000010
   17.14666748   73.49289703    0.25999999    2.66000009
   17.14972115   71.03330231    0.25999999    2.64000010
   17.15305519   72.40830231    0.25999999    2.64000010
   17.15638924   71.29280090    0.25999999    2.64000010
   17.16222191   71.29280090    0.25999999    2.66000009
   17.16638756   73.26429749    0.25999999    2.64000010
   17.16749954   70.85310364    0.25999999    2.64000010
   17.17000008   73.72609711    0.25000000    2.64000010
   17.17305565   73.73139954    0.25999999    2.64000010
   17.17638779   73.37850189    0.25999999    2.64000010
   17.17972183   73.77980042    0.25999999    2.64000010
   17.18277740   71.86879730    0.25000000    2.64000010
   17.18610954   72.29129791    0.25999999    2.64000010
   17.18944359   72.76309967    0.25999999    2.64000010
   17.19249916   75.72219849    0.25000000    2.64000010
   17.19583321   74.87310028    0.25000000    2.64000010
   17.19888878   74.42440033    0.25999999    2.64000010
   17.20083427   72.87850189    0.25999999    2.64000010
   17.20527840   72.87850189    0.25999999    2.66000009
   17.20944595   77.50099945    0.25999999    2.64000010
   17.21250153   84.29360199    0.25999999    2.64000010
   17.21583366   79.16020203    0.25999999    2.64000010
   17.21888924   75.58750153    0.25999999    2.64000010
   17.22222328   71.95480347    0.25999999    2.64000010
   17.22555542   70.30359650    0.25999999    2.64000010
   17.22861099   75.33170319    0.25999999    2.64000010
   17.23194504   73.76090240    0.25999999    2.64000010
   17.23416710   70.41870117    0.25999999    2.64000010
   17.23555565   75.26239777    0.25999999    2.64000010
   17.23861122   76.20539856    0.25999999    2.61999989
   17.24194527   70.15910339    0.25999999    2.61999989
   17.24805641   70.15910339    0.25999999    2.64000010
   17.25222206   71.63189697    0.25999999    2.64000010
   17.25527763   74.20880127    0.25999999    2.66000009
   17.25861168   74.07029724    0.25999999    2.64000010
   17.26194382   70.96540070    0.25999999    2.64000010
   17.26499939   72.91680145    0.25999999    2.64000010
   17.26749992   70.91449738    0.25999999    2.64000010
   17.26888847   74.13659668    0.25999999    2.64000010
   17.27222252   74.87059784    0.25999999    2.64000010
   17.27555466   72.00489807    0.25999999    2.66000009
   17.27861023   72.81130219    0.25999999    2.64000010
   17.28194427   72.41190338    0.25999999    2.64000010
   17.28527641   73.94680023    0.25999999    2.64000010
   17.29083252   73.94680023    0.25999999    2.64000010
   17.29500008   74.02200317    0.25999999    2.64000010
   17.29833221   75.24520111    0.25999999    2.64000010
   17.30083275   72.62709808    0.25999999    2.66000009
   17.30194283   73.92120361    0.25999999    2.66000009
   17.30499840   72.13289642    0.25999999    2.64000010
   17.30833244   71.37069702    0.25999999    2.64000010
   17.31166649   75.09359741    0.25999999    2.64000010
   17.31472206   75.41020203    0.25999999    2.64000010
   17.31805611   72.65160370    0.25999999    2.64000010
   17.32139015   69.68379974    0.25999999    2.64000010
   17.32444572   70.57129669    0.25999999    2.64000010
   17.32777786   71.93900299    0.25999999    2.66000009
   17.33361244   71.93900299    0.25999999    2.64000010
   17.35222244   71.83640289    0.25999999    2.64000010
   17.35527802   72.09210205    0.25999999    2.66000009
   17.35861206   74.50460052    0.25999999    2.64000010
   17.36194420   73.62370300    0.25999999    2.66000009
   17.36499977   71.41269684    0.25999999    2.66000009
   17.36833382   70.67849731    0.25999999    2.66000009
   17.37138939   73.53710175    0.25999999    2.64000010
   17.37694550   73.53710175    0.25999999    2.64000010
   17.38111115   71.90450287    0.25999999    2.64000010
   17.38416672   69.55879974    0.25999999    2.66000009
   17.38527679   74.24160004    0.25999999    2.66000009
   17.38777733   72.53759766    0.25999999    2.64000010
   17.39111137   75.61060333    0.25999999    2.64000010
   17.39444351   71.04129791    0.25999999    2.64000010
   17.39749908   70.82150269    0.25999999    2.64000010
   17.40083313   74.38980103    0.25999999    2.64000010
   17.40388870   75.47720337    0.25999999    2.66000009
   17.40722275   75.18260193    0.25999999    2.66000009
   17.41055489   74.52719879    0.25999999    2.64000010
   17.41361046   73.53620148    0.25999999    2.66000009
   17.41972160   73.53620148    0.25999999    2.67000008
   17.42388916   72.76129913    0.25999999    2.66000009
   17.42694473   74.93009949    0.25000000    2.64000010
   17.43027687   73.33439636    0.25000000    2.64000010
   17.43361092   71.57360077    0.25999999    2.64000010
   17.43666649   71.74629974    0.25000000    2.64000010
   17.44027710   70.47119904    0.25000000    2.64000010
   17.44333267   73.00180054    0.25000000    2.64000010
   17.44666672   71.81629944    0.25000000    2.64000010
   17.45000076   75.35469818    0.25000000    2.64000010
   17.45194435   73.66600037    0.25999999    2.64000010
   17.45333481   70.44869995    0.25999999    2.64000010
   17.45666695   75.03119659    0.25000000    2.64000010
   17.46250153   75.03119659    0.25999999    2.66000009
   17.46666718   70.86319733    0.25999999    2.64000010
   17.47000122   73.86740112    0.25999999    2.64000010
   17.47305679   73.90740204    0.25999999    2.64000010
   17.47638893   74.14260101    0.25999999    2.64000010
   17.47944450   72.07929993    0.25999999    2.64000010
   17.48277855   71.23480225    0.25999999    2.66000009
   17.48527718   72.49729919    0.25999999    2.64000010
   17.48638916   77.58719635    0.25999999    2.64000010
   17.48972321   71.13970184    0.25999999    2.64000010
   17.49305534   75.19580078    0.25999999    2.64000010
   17.49638939   89.34110260    0.25999999    2.66000009
   17.49944496  114.69899750    0.25999999    2.66000009
   17.50527763  114.69899750    0.25999999    2.64000010
   17.50944519   73.14050293    0.25999999    2.64000010
   17.51277733   73.75150299    0.25999999    2.64000010
   17.51611137   73.85160065    0.25999999    2.64000010
   17.51861000   71.08219910    0.25999999    2.64000010
   17.51972198   75.12930298    0.25999999    2.64000010
   17.52305603   74.75180054    0.25999999    2.64000010
   17.52638817   73.32929993    0.25999999    2.64000010
   17.52944374   74.01270294    0.25999999    2.64000010
   17.53277779   72.85359955    0.25999999    2.64000010
   17.53583336   74.60759735    0.25999999    2.64000010
   17.53916550   71.91329956    0.25999999    2.64000010
   17.54249954   73.22329712    0.25999999    2.64000010
   17.54805565   73.22329712    0.25999999    2.64000010
   17.55222130   72.12390137    0.25999999    2.64000010
   17.55555534   86.14510345    0.25999999    2.64000010
   17.55888748   95.40969849    0.25999999    2.64000010
   17.56194305  109.09300232    0.25999999    2.64000010
   17.56527710  145.62100220    0.25999999    2.64000010
   17.56833458  107.32399750    0.25000000    2.64000010
   17.57166672   76.30729675    0.25000000    2.66000009
   17.57500076   84.37220001    0.25000000    2.66000009
   17.57805634  115.60199738    0.25000000    2.64000010
   17.58139038  123.21700287    0.25000000    2.64000010
   17.58472252  121.23500061    0.25000000    2.64000010
   17.58527756  105.82800293    0.25000000    2.64000010
   17.59111214  105.82800293    0.25000000    2.64000010
   17.59527779  126.58799744    0.25000000    2.64000010
   17.59833336  114.63099670    0.25000000    2.66000009
   17.60166740  108.99199677    0.25000000    2.66000009
   17.60499954  132.42700195    0.25000000    2.64000010
   17.60833359  132.59100342    0.25000000    2.64000010
   17.61138916  125.07199860    0.25000000    2.64000010
   17.61472321  120.24700165    0.25000000    2.66000009
   17.61805534  119.74400330    0.25000000    2.64000010
   17.61861038  108.56999969    0.25000000    2.64000010
   17.62138939  118.24099731    0.25000000    2.66000009
   17.62472153  106.41699982    0.25000000    2.66000009
   17.62805557  110.70999908    0.25000000    2.64000010
   17.63388824  110.70999908    0.25000000    2.64000010
   17.63805580   89.78630066    0.25999999    2.64000010
   17.64111137   86.25420380    0.25999999    2.64000010
   17.64444351   93.76000214    0.25000000    2.61999989
   17.64777756   99.20420074    0.25999999    2.66000009
   17.65083313   99.18689728    0.25999999    2.66000009
   17.65194321   91.58519745    0.25999999    2.66000009
   17.65444374  113.39600372    0.25999999    2.66000009
   17.65777779   78.52510071    0.25999999    2.64000010
   17.66110992   71.51409912    0.25999999    2.64000010
   17.66416550   86.62940216    0.25999999    2.64000010
   17.66749954   95.98889923    0.25999999    2.64000010
   17.67055511   96.54109955    0.25999999    2.64000010
   17.67666626   96.54109955    0.25999999    2.64000010
   17.68083191   87.86150360    0.25999999    2.64000010
   17.68416595   97.03820038    0.25999999    2.64000010
   17.68527603   77.07330322    0.25999999    2.64000010
   17.68777657   86.19740295    0.25999999    2.64000010
   17.69083214   81.98519897    0.25999999    2.64000010
   17.69416618   79.66339874    0.25999999    2.64000010
   17.69749832   78.78929901    0.25999999    2.64000010
   17.70055580   72.50749969    0.25000000    2.64000010
   17.70388985   77.87220001    0.25000000    2.64000010
   17.70694542   77.19059753    0.25999999    2.64000010
   17.71027946   77.45030212    0.25999999    2.64000010
   17.71361160   82.21730042    0.25999999    2.64000010
   17.71972275   82.21730042    0.25999999    2.64000010
   17.72361183   86.86930084    0.25000000    2.64000010
   17.72694588   85.32849884    0.25000000    2.64000010
   17.73027802   87.04340363    0.25000000    2.64000010
   17.73333359   78.69680023    0.25000000    2.64000010
   17.73666763   80.83039856    0.25000000    2.64000010
   17.73999977   70.02549744    0.25000000    2.64000010
   17.74305534   76.10829926    0.25000000    2.64000010
   17.74638939   77.43699646    0.25000000    2.64000010
   17.74944496   81.27690125    0.25000000    2.64000010
   17.75194359   87.03160095    0.25000000    2.64000010
   17.75333405   78.65660095    0.25000000    2.64000010
   17.75638962   85.50150299    0.25000000    2.66000009
   17.76250076   85.50150299    0.25000000    2.61999989
   17.76666641   76.57270050    0.25000000    2.64000010
   17.76972198   87.87210083    0.25000000    2.64000010
   17.77305603   83.45980072    0.25000000    2.64000010
   17.77638817   88.00759888    0.25000000    2.64000010
   17.77944374   98.49780273    0.25000000    2.64000010
   17.78277779   85.15419769    0.25000000    2.64000010
   17.78527641  103.85500336    0.25000000    2.64000010
   17.78638840  101.76999664    0.25000000    2.64000010
   17.78944397   85.17019653    0.25000000    2.61999989
   17.79277802   99.68150330    0.25000000    2.64000010
   17.79583359  101.99400330    0.25000000    2.61999989
   17.79916573   97.45089722    0.25000000    2.64000010
   17.80527687   97.45089722    0.25000000    2.64000010
   17.80944443   82.48989868    0.25999999    2.64000010
   17.81277657   87.22429657    0.25000000    2.64000010
   17.81583214   90.31990051    0.25000000    2.64000010
   17.81861115  101.65399933    0.25000000    2.64000010
   17.81944466   93.08119965    0.25000000    2.64000010
   17.82277870   95.40630341    0.25000000    2.64000010
   17.82611275   82.14160156    0.25999999    2.61999989
   17.82916832   76.75160217    0.25000000    2.64000010
   17.83250046   73.71389771    0.25000000    2.64000010
   17.83583450   85.36540222    0.25000000    2.64000010
   17.83889008   81.77290344    0.25000000    2.64000010
   17.84222221   78.75270081    0.25000000    2.64000010
   17.84805679   78.75270081    0.25000000    2.64000010
   17.85222244   72.32689667    0.25000000    2.64000010
   17.85555649   72.46440125    0.25000000    2.64000010
   17.85861206   72.85369873    0.25000000    2.64000010
   17.86194420   74.26470184    0.25000000    2.64000010
   17.86527824   74.61049652    0.25000000    2.61999989
   17.86833382   76.48229980    0.25000000    2.61999989
   17.87166595   82.62059784    0.25000000    2.64000010
   17.87500000   82.07589722    0.25000000    2.64000010
   17.87805557   74.92340088    0.25000000    2.61999989
   17.88138962   79.26390076    0.25000000    2.66000009
   17.88472176   80.16670227    0.25000000    2.61999989
   17.88527679   78.15589905    0.25000000    2.61999989
   17.89083290   78.15589905    0.25000000    2.64000010
   17.89500046   83.51180267    0.25000000    2.64000010
   17.89833260   81.60430145    0.25000000    2.64000010
   17.90166664   76.38980103    0.25000000    2.64000010
   17.90472221   80.23509979    0.25000000    2.64000010
   17.90805435   81.86019897    0.25000000    2.64000010
   17.91110992   78.34410095    0.25000000    2.64000010
   17.91444397   78.66649628    0.25000000    2.64000010
   17.91777802   73.27649689    0.23000000    2.64000010
   17.91860962   75.42160034    0.23000000    2.64000010
   17.92111015   80.48549652    0.25000000    2.64000010
   17.92444420   82.32219696    0.23000000    2.64000010
   17.92777634   88.97260284    0.25000000    2.64000010
   17.93388748   88.97260284    0.23000000    2.64000010
   17.93805504   86.68640137    0.23000000    2.64000010
   17.94111061   99.99590302    0.25000000    2.64000010
   17.94444275   88.05760193    0.25000000    2.61999989
   17.94777679   76.65830231    0.25000000    2.64000010
   17.95083427   82.76779938    0.25000000    2.64000010
   17.95194435   80.40950012    0.25000000    2.64000010
   17.95472336   91.90110016    0.25000000    2.64000010
   17.95777893   93.87909698    0.25000000    2.64000010
   17.96111107   78.40650177    0.25000000    2.64000010
   17.96416664  103.33000183    0.25000000    2.64000010
   17.96750069   91.46540070    0.25000000    2.64000010
   17.97083473   88.39270020    0.25000000    2.64000010
   17.97666740   88.39270020    0.25000000    2.64000010
   17.98083305   95.79350281    0.25000000    2.61999989
   17.98416710   82.79409790    0.25000000    2.64000010
   17.98527718   76.52629852    0.25000000    2.64000010
   17.98777771   96.65370178    0.25000000    2.64000010
   17.99083328   85.87339783    0.25000000    2.64000010
   17.99416733   88.47299957    0.25000000    2.61999989
   17.99749947   77.75509644    0.25999999    2.64000010
   18.00055504   82.26419830    0.25999999    2.64000010
   18.00388908   81.57360077    0.25999999    2.64000010
   18.00694466   83.68409729    0.25999999    2.64000010
   18.01027870   78.53189850    0.25999999    2.64000010
   18.01361084   76.98770142    0.25000000    2.64000010
   18.01944351   76.98770142    0.25000000    2.64000010
   18.02361107   99.11509705    0.25000000    2.61999989
   18.02722168   74.85199738    0.25000000    2.61999989
   18.03055573   77.59380341    0.25000000    2.64000010
   18.03361130   74.21450043    0.25000000    2.64000010
   18.03694344   74.33350372    0.25999999    2.61999989
   18.04027748   72.41449738    0.25999999    2.64000010
   18.04333305   77.12930298    0.25999999    2.64000010
   18.04666710   95.14710236    0.28000000    2.64000010
   18.04972076   88.98970032    0.25999999    2.64000010
   18.05194283   80.10089874    0.25999999    2.64000010
   18.05360985   87.05359650    0.25999999    2.64000010
   18.05666542   77.88909912    0.25999999    2.61999989
   18.06250000   77.88909912    0.25999999    2.64000010
   18.06638718   85.98280334    0.25999999    2.64000010
   18.06972313   79.67790222    0.28000000    2.61999989
   18.07305717   80.65920258    0.28000000    2.64000010
   18.07611275   80.26850128    0.25999999    2.64000010
   18.07944489   78.48529816    0.25999999    2.61999989
   18.08277893   78.04399872    0.25999999    2.61999989
   18.08527756   85.11080170    0.25999999    2.64000010
   18.08638954   82.61419678    0.25999999    2.64000010
   18.08944511   85.90840149    0.25999999    2.61999989
   18.09277916   78.64420319    0.25999999    2.61999989
   18.09611130   83.82890320    0.25999999    2.61999989
   18.09916687   96.24279785    0.25999999    2.64000010
   18.10527802   96.24279785    0.25000000    2.61999989
   18.10916710   72.41560364    0.25000000    2.64000010
   18.11250114   81.33380127    0.25000000    2.61999989
   18.11583328   84.43509674    0.25000000    2.61999989
   18.11861038   79.18219757    0.25999999    2.64000010
   18.11916733   80.29740143    0.25999999    2.64000010
   18.12249947   77.61049652    0.25999999    2.64000010
   18.12583351   76.00749969    0.30000001    2.64000010
   18.12888908   81.42929840    0.31999999    2.64000010
   18.13222313   89.68109894    0.31999999    2.64000010
   18.13555527   96.06549835    0.34000000    2.61999989
   18.13861084   80.24449921    0.34000000    2.61999989
   18.14194489   77.94229889    0.34000000    2.61999989
   18.14805603   77.94229889    0.34000000    2.61999989
   18.15222168   72.51580048    0.34000000    2.61999989
   18.15527725   80.33409882    0.34000000    2.61999989
   18.15861130   79.17330170    0.31999999    2.61999989
   18.16194344   84.27989960    0.31999999    2.61999989
   18.16499901   79.43939972    0.31999999    2.61999989
   18.16833305   79.23690033    0.31999999    2.61999989
   18.17138863   82.50730133    0.31999999    2.61999989
   18.17472076   84.29270172    0.30000001    2.61999989
   18.17805481   77.48429871    0.31999999    2.61999989
   18.18111038   79.73190308    0.31999999    2.61999989
   18.18444443   81.02700043    0.30000001    2.61999989
   18.18527603   79.24050140    0.30000001    2.61999989
   18.19083214   79.24050140    0.30000001    2.61999989
   18.19499969   83.61779785    0.30000001    2.61999989
   18.19805527   81.95050049    0.30000001    2.61999989
   18.20138931   75.74680328    0.30000001    2.61999989
   18.20472336   83.93260193    0.28000000    2.61999989
   18.20777893   78.92620087    0.28000000    2.61999989
   18.21111107   82.98699951    0.25999999    2.61999989
   18.21444511   83.75650024    0.25999999    2.61999989
   18.21777916   85.49739838    0.25999999    2.61999989
   18.21861076   83.94339752    0.25999999    2.61999989
   18.22138977   82.13950348    0.25999999    2.61999989
   18.22444534   79.87830353    0.25999999    2.61999989
   18.22777748   79.65119934    0.28000000    2.61999989
   18.23361206   79.65119934    0.30000001    2.61999989
   18.23777771   80.19039917    0.30000001    2.61999989
   18.24111176   84.26560211    0.30000001    2.61999989
   18.24416733   82.47570038    0.30000001    2.61999989
   18.24749947   83.65139771    0.30000001    2.61999989
   18.25083351   80.28579712    0.30000001    2.61999989
   18.25194359   74.96350098    0.30000001    2.61999989
   18.25444412   79.04810333    0.30000001    2.61999989
   18.25749969   76.87920380    0.30000001    2.61999989
   18.26083374   78.97010040    0.30000001    2.61999989
   18.26388931   82.14389801    0.30000001    2.61999989
   18.26722145   76.34960175    0.30000001    2.61999989
   18.27055550   81.60160065    0.30000001    2.61999989
   18.27666664   81.60160065    0.30000001    2.64000010
   18.28055573   82.49839783    0.30000001    2.59999990
   18.28388786   78.54139709    0.30000001    2.61999989
   18.28527641   82.28350067    0.30000001    2.61999989
   18.28777695   77.32820129    0.30000001    2.61999989
   18.29083252   75.81210327    0.30000001    2.61999989
   18.29416656   82.44750214    0.30000001    2.61999989
   18.29722214   77.36090088    0.30000001    2.61999989
   18.30055428   76.29080200    0.30000001    2.61999989
   18.30388832   78.40170288    0.30000001    2.61999989
   18.30722237   76.26660156    0.30000001    2.61999989
   18.31055450   83.41699982    0.30000001    2.61999989
   18.31361008   82.03700256    0.30000001    2.61999989
   18.31944466   82.03700256    0.30000001    2.61999989
   18.32361221   77.74960327    0.28000000    2.61999989
   18.32666779  109.30200195    0.28000000    2.61999989
   18.33000183   94.66439819    0.28000000    2.61999989
   18.33305550   87.25319672    0.28000000    2.61999989
   18.33638954   86.43699646    0.28000000    2.61999989
   18.33972359   92.88349915    0.25999999    2.61999989
   18.34277916   97.69149780    0.25999999    2.61999989
   18.34611130   79.19889832    0.25999999    2.61999989
   18.34944534   76.20400238    0.25999999    2.61999989
   18.35194397   80.03009796    0.25999999    2.61999989
   18.37249947   80.03009796    0.25999999    2.61999989
   18.37666702   97.24539948    0.25999999    2.59999990
   18.38000107   90.74800110    0.25999999    2.61999989
   18.38305473   80.72679901    0.25999999    2.59999990
   18.38527679   89.12779999    0.25999999    2.61999989
   18.38694382  102.57199860    0.25999999    2.61999989
   18.38999939  105.58300018    0.25999999    2.61999989
   18.39333344   78.99870300    0.25999999    2.61999989
   18.39666748   84.24440002    0.25999999    2.61999989
   18.39972115   81.12129974    0.25999999    2.61999989
   18.40305519   93.19979858    0.25999999    2.61999989
   18.40638924   77.83119965    0.25999999    2.61999989
   18.40944481   91.29119873    0.25999999    2.61999989
   18.41527748   91.29119873    0.25999999    2.61999989
   18.41944313   90.21130371    0.28000000    2.61999989
   18.42277718   76.88629913    0.28000000    2.61999989
   18.42583275   89.37999725    0.25999999    2.59999990
   18.42916679   78.64450073    0.25999999    2.59999990
   18.43222237   86.27610016    0.25999999    2.61999989
   18.43555450   81.55650330    0.25999999    2.61999989
   18.43888855   78.83350372    0.25999999    2.61999989
   18.44194412   84.60820007    0.25999999    2.61999989
   18.44527626   78.36640167    0.28000000    2.61999989
   18.44861031   81.47339630    0.25999999    2.59999990
   18.45166779   83.13580322    0.25999999    2.59999990
   18.45222282   80.34690094    0.25999999    2.59999990
   18.45805550   80.34690094    0.25999999    2.59999990
   18.46222305   82.91729736    0.25999999    2.59999990
   18.46555710   80.80690002    0.25999999    2.59999990
   18.46888924   86.18229675    0.25999999    2.59999990
   18.47194481   81.15049744    0.25999999    2.61999989
   18.47527885   76.47329712    0.25999999    2.61999989
   18.47833443   77.31089783    0.25999999    2.59999990
   18.48194504   74.17649841    0.25999999    2.59999990
   18.48500061   80.27480316    0.25999999    2.59999990
   18.48555565   82.23069763    0.25999999    2.59999990
   18.48861122   75.67590332    0.25999999    2.61999989
   18.49194527   78.00550079    0.25999999    2.61999989
   18.49500084   74.87619781    0.25999999    2.59999990
   18.50111198   74.87619781    0.25999999    2.59999990
   18.50527763   83.58789825    0.25999999    2.59999990
   18.50833321   79.71469879    0.25999999    2.59999990
   18.51166725   81.92549896    0.25999999    2.59999990
   18.51472282   81.02850342    0.25999999    2.61999989
   18.51805496   77.08650208    0.25999999    2.59999990
   18.51888847   80.82440186    0.25999999    2.59999990
   18.52166557   77.52559662    0.25999999    2.59999990
   18.52472115   80.98500061    0.25999999    2.59999990
   18.52805519   82.04090118    0.25999999    2.59999990
   18.53138924   77.18949890    0.25999999    2.59999990
   18.53444481   80.24810028    0.28000000    2.61999989
   18.53777695   77.15299988    0.25999999    2.61999989
   18.54388809   77.15299988    0.28000000    2.61999989
   18.54805565   76.85070038    0.28000000    2.59999990
   18.55111122   75.46790314    0.28000000    2.59999990
   18.55222130   78.88719940    0.28000000    2.59999990
   18.55499840   77.08580017    0.28000000    2.59999990
   18.55833244   82.49669647    0.28000000    2.59999990
   18.56138802   79.54810333    0.28000000    2.59999990
   18.56472206   82.32109833    0.30000001    2.59999990
   18.56777954   76.39530182    0.28000000    2.59999990
   18.57111168   81.44059753    0.30000001    2.59999990
   18.57444572   80.18820190    0.30000001    2.59999990
   18.57750130   79.12689972    0.30000001    2.59999990
   18.58083344   80.35019684    0.28000000    2.59999990
   18.58666801   80.35019684    0.28000000    2.59999990
   18.59083366   76.48179626    0.28000000    2.59999990
   18.59416771   78.10820007    0.28000000    2.59999990
   18.59722328   78.42209625    0.28000000    2.59999990
   18.60055542   79.43070221    0.28000000    2.59999990
   18.60388947   82.42089844    0.28000000    2.59999990
   18.60694504   80.89520264    0.28000000    2.59999990
   18.61027908   83.54019928    0.28000000    2.59999990
   18.61361122   83.07399750    0.30000001    2.59999990
   18.61666679   83.84380341    0.28000000    2.59999990
   18.61916733   77.49520111    0.28000000    2.59999990
   18.62027740   79.24500275    0.30000001    2.59999990
   18.62361145   85.19210052    0.30000001    2.59999990
   18.62972260   85.19210052    0.30000001    2.59999990
   18.63361168   94.41190338    0.30000001    2.59999990
   18.63694382   85.29509735    0.30000001    2.59999990
   18.64027786   80.25409698    0.30000001    2.59999990
   18.64333344   87.57479858    0.30000001    2.59999990
   18.64666748   87.13140106    0.30000001    2.59999990
   18.64972115   85.37529755    0.31999999    2.59999990
   18.65250015   80.26679993    0.31999999    2.59999990
   18.65333366   80.71810150    0.31999999    2.59999990
   18.65666580   82.89099884    0.31999999    2.59999990
   18.65999985   78.95770264    0.34000000    2.57999992
   18.66333389   80.77580261    0.34000000    2.57999992
   18.66638756   97.24639893    0.34000000    2.59999990
   18.67249870   97.24639893    0.34000000    2.57999992
   18.67666626   96.92369843    0.34000000    2.59999990
   18.67972183   85.06990051    0.34000000    2.59999990
   18.68305397   77.75250244    0.34000000    2.59999990
   18.68583298   85.13520050    0.34000000    2.59999990
   18.68666649   76.14019775    0.34000000    2.59999990
   18.68999863  107.45300293    0.34000000    2.57999992
   18.69333267   90.72229767    0.34000000    2.57999992
   18.69638824   85.36730194    0.34000000    2.59999990
   18.69972038  104.55500031    0.34000000    2.57999992
   18.70277786   99.20809937    0.34000000    2.59999990
   18.70611191   99.12129974    0.34000000    2.59999990
   18.70944595   88.78810120    0.34000000    2.59999990
   18.71527863   88.78810120    0.36000001    2.59999990
   18.71944427   94.41619873    0.36000001    2.59999990
   18.72277832   97.16680145    0.36000001    2.59999990
   18.72583389   99.69219971    0.38000000    2.57999992
   18.72916794   77.18560028    0.38000000    2.57999992
   18.73222351  102.96099854    0.41999999    2.59999990
   18.73555565   80.47350311    0.44000000    2.57999992
   18.73888969   81.48709869    0.44000000    2.57999992
   18.74194527   81.02700043    0.44000000    2.57999992
   18.74527740   78.57689667    0.40000001    2.57999992
   18.74861145   95.19860077    0.38000000    2.57999992
   18.75166702   97.84839630    0.34000000    2.57999992
   18.75250053   87.41629791    0.34000000    2.57999992
   18.75805473   87.41629791    0.34000000    2.57999992
   18.76222229   87.85600281    0.34000000    2.59999990
   18.76555634   87.97280121    0.34000000    2.57999992
   18.76861000   84.94090271    0.31999999    2.59999990
   18.77194405   95.12139893    0.34000000    2.57999992
   18.77499962  100.46199799    0.34000000    2.59999990
   18.77833366   77.24690247    0.34000000    2.57999992
   18.78166580   82.10449982    0.31999999    2.57999992
   18.78472137   79.51180267    0.31999999    2.57999992
   18.78583336   88.50990295    0.31999999    2.57999992
   18.78861046   90.08640289    0.31999999    2.57999992
   18.79166603   84.12819672    0.31999999    2.57999992
   18.79500008   80.12500000    0.31999999    2.57999992
   18.80083275   80.12500000    0.31999999    2.57999992
   18.80499840   93.04319763    0.31999999    2.57999992
   18.80833244   79.82070160    0.31999999    2.57999992
   18.81138802   92.35340118    0.30000001    2.57999992
   18.81472206   80.67819977    0.30000001    2.57999992
   18.81805611   86.42199707    0.30000001    2.57999992
   18.81888962   81.39070129    0.30000001    2.57999992
   18.82166672   98.24790192    0.30000001    2.57999992
   18.82500076   99.11660004    0.30000001    2.57999992
   18.82805634   82.73400116    0.30000001    2.57999992
   18.83139038   79.10389709    0.31999999    2.57999992
   18.83444595   85.17620087    0.31999999    2.57999992
   18.83777809   89.61859894    0.31999999    2.57999992
   18.84361267   89.61859894    0.34000000    2.57999992
   18.84777832   79.19920349    0.34000000    2.59999990
   18.85111237   99.35739899    0.34000000    2.59999990
   18.85250092   81.74710083    0.34000000    2.57999992
   18.85499954   81.01490021    0.34000000    2.57999992
   18.85805511   82.23249817    0.38000000    2.57999992
   18.86138916   84.51049805    0.38000000    2.57999992
   18.86444473   87.29979706    0.38000000    2.57999992
   18.86777878   82.80829620    0.38000000    2.57999992
   18.87111092   82.33560181    0.40000001    2.57999992
   18.87416649   83.81590271    0.41999999    2.57999992
   18.87750053   82.99790192    0.41999999    2.57999992
   18.88083267   89.17150116    0.41999999    2.55999994
   18.88666725   89.17150116    0.40000001    2.57999992
   18.89083290   82.99230194    0.40000001    2.57999992
   18.89388847   89.33010101    0.40000001    2.57999992
   18.89722252   83.58390045    0.40000001    2.55999994
   18.90055466   82.10729980    0.40000001    2.55999994
   18.90361023   80.51370239    0.40000001    2.55999994
   18.90694427   81.26429749    0.38000000    2.57999992
   18.90999985   80.25669861    0.38000000    2.57999992
   18.91333389   78.18009949    0.38000000    2.55999994
   18.91666603   78.70099640    0.38000000    2.57999992
   18.91888809   83.72499847    0.38000000    2.57999992
   18.92027664   80.83139801    0.38000000    2.55999994
   18.92361069   82.94259644    0.38000000    2.55999994
   18.92944336   82.94259644    0.38000000    2.57999992
   18.93361092   83.89409637    0.36000001    2.55999994
   18.93666649   79.80429840    0.36000001    2.55999994
   18.93999863   79.01490021    0.36000001    2.55999994
   18.94333267   93.30480194    0.36000001    2.57999992
   18.94638824   79.25869751    0.36000001    2.55999994
   18.94972038   77.16850281    0.36000001    2.55999994
   18.95222282   76.54759979    0.36000001    2.55999994
   18.95333481   86.38490295    0.36000001    2.55999994
   18.95666695   83.07510376    0.36000001    2.55999994
   18.95972252   79.25440216    0.36000001    2.55999994
   18.96305656   82.28589630    0.38000000    2.55999994
   18.96638870   75.66490173    0.36000001    2.55999994
   18.97222328   75.66490173    0.36000001    2.55999994
   18.97638893   82.67960358    0.36000001    2.55999994
   18.97972298   85.71890259    0.36000001    2.57999992
   18.98277855   82.99220276    0.36000001    2.55999994
   18.98555565   81.14630127    0.36000001    2.55999994
   18.98638916   88.58350372    0.36000001    2.55999994
   18.98972321   82.45130157    0.38000000    2.55999994
   18.99305534   79.25140381    0.38000000    2.55999994
   18.99611092   87.01730347    0.38000000    2.55999994
   18.99944496   82.17269897    0.38000000    2.55999994
   19.00250053   82.73320007    0.38000000    2.55999994
   19.00583267   87.48650360    0.38000000    2.55999994
   19.00916672   97.39089966    0.38000000    2.55999994
   19.01499939   97.39089966    0.38000000    2.55999994
   19.01916695   88.97260284    0.38000000    2.55999994
   19.02249908   84.01719666    0.38000000    2.55999994
   19.02583313   78.69329834    0.38000000    2.55999994
   19.02888870   81.98500061    0.38000000    2.55999994
   19.03222275   81.57790375    0.38000000    2.55999994
   19.03527641   81.27259827    0.38000000    2.55999994
   19.03861046   79.85630035    0.38000000    2.55999994
   19.04194450   83.50099945    0.38000000    2.55999994
   19.04500008   79.67140198    0.38000000    2.55999994
   19.04833221   83.76719666    0.38000000    2.55999994
   19.05166626   81.47139740    0.38000000    2.55999994
   19.05222130   81.04190063    0.38000000    2.55999994
   19.05805397   81.04190063    0.38000000    2.55999994
   19.06222153   81.27780151    0.38000000    2.55999994
   19.06527710   81.63150024    0.38000000    2.53999996
   19.06861115   80.39369965    0.38000000    2.53999996
   19.07194519   83.59629822    0.40000001    2.55999994
   19.07500076   82.68779755    0.40000001    2.55999994
   19.07833481   78.98239899    0.40000001    2.55999994
   19.08166695   79.72869873    0.38000000    2.55999994
   19.08472252   81.92829895    0.38000000    2.55999994
   19.08555603   77.87449646    0.38000000    2.55999994
   19.08833313   74.86409760    0.40000001    2.55999994
   19.09166718   75.06189728    0.40000001    2.55999994
   19.09472275   77.51010132    0.40000001    2.55999994
   19.10083389   77.51010132    0.38000000    2.55999994
   19.10499954   85.34400177    0.38000000    2.55999994
   19.10805511   79.28649902    0.38000000    2.55999994
   19.11138916   80.42199707    0.38000000    2.53999996
   19.11472321   79.63520050    0.38000000    2.53999996
   19.11777878   82.94110107    0.38000000    2.55999994
   19.11888885   81.20390320    0.38000000    2.55999994
   19.12138939   84.31960297    0.38000000    2.55999994
   19.12472153   79.49800110    0.38000000    2.55999994
   19.12777710   77.56269836    0.38000000    2.55999994
   19.13111115   83.86009979    0.38000000    2.53999996
   19.13444519   84.16049957    0.38000000    2.53999996
   19.13750076   82.92310333    0.36000001    2.55999994
   19.14361191   82.92310333    0.36000001    2.53999996
   19.14777756   78.27210236    0.36000001    2.53999996
   19.15111160   80.24379730    0.36000001    2.53999996
   19.15222168   82.26029968    0.36000001    2.53999996
   19.15472221   80.18979645    0.36000001    2.53999996
   19.15805435   83.20580292    0.36000001    2.55999994
   19.16110992   89.36779785    0.36000001    2.55999994
   19.16444397   81.03690338    0.36000001    2.55999994
   19.16777802   86.23529816    0.38000000    2.53999996
   19.17083359   84.14920044    0.36000001    2.53999996
   19.17416573   85.41380310    0.36000001    2.53999996
   19.17749977   84.19329834    0.36000001    2.53999996
   19.18055534   83.40039825    0.36000001    2.53999996
   19.18666649   83.40039825    0.38000000    2.55999994
   19.19083214   83.75610352    0.38000000    2.55999994
   19.19388771   83.22480011    0.38000000    2.53999996
   19.19722176   78.36019897    0.38000000    2.53999996
   19.20027924   89.13020325    0.38000000    2.53999996
   19.20361137   84.25409698    0.38000000    2.53999996
   19.20694542   86.93949890    0.38000000    2.53999996
   19.21000099   85.72889709    0.40000001    2.53999996
   19.21333504   81.93170166    0.40000001    2.53999996
   19.21666718   82.80100250    0.40000001    2.53999996
   19.21916771   79.64820099    0.38000000    2.53999996
   19.22000122   83.35520172    0.38000000    2.53999996
   19.22333336   84.10749817    0.38000000    2.53999996
   19.22944450   84.10749817    0.38000000    2.53999996
   19.23361206   85.43139648    0.36000001    2.53999996
   19.23666763   84.83010101    0.36000001    2.53999996
   19.23999977   81.33660126    0.36000001    2.53999996
   19.24333382   78.30740356    0.36000001    2.53999996
   19.24638939   81.51450348    0.36000001    2.53999996
   19.24972153   84.13320160    0.36000001    2.51999998
   19.25250053   81.44380188    0.36000001    2.51999998
   19.25333405   79.44999695    0.36000001    2.51999998
   19.25666618   85.37999725    0.34000000    2.53999996
   19.26000023   83.76049805    0.36000001    2.53999996
   19.26305580   81.35050201    0.34000000    2.53999996
   19.26638794   84.35510254    0.36000001    2.53999996
   19.27222252   84.35510254    0.36000001    2.51999998
   19.27638817   85.56559753    0.36000001    2.53999996
   19.27944374   86.72019958    0.36000001    2.53999996
   19.28277779   84.73390198    0.36000001    2.53999996
   19.28583336   81.22000122    0.34000000    2.53999996
   19.28638840   82.34980011    0.34000000    2.53999996
   19.28972244   82.66970062    0.34000000    2.53999996
   19.29305458   87.48139954    0.34000000    2.53999996
   19.29611015   83.77269745    0.34000000    2.53999996
   19.29944420   87.16020203    0.34000000    2.53999996
   19.30249977   80.55169678    0.34000000    2.53999996
   19.30583191   84.36309814    0.36000001    2.53999996
   19.30916595   82.99800110    0.36000001    2.53999996
   19.31499863   82.99800110    0.36000001    2.53999996
   19.31916809   85.66819763    0.38000000    2.53999996
   19.32250023   82.80970001    0.38000000    2.51999998
   19.32555580   82.54540253    0.40000001    2.51999998
   19.32888985   80.73120117    0.40000001    2.51999998
   19.33222389   84.59929657    0.40000001    2.51999998
   19.33527756   77.39640045    0.40000001    2.51999998
   19.33861160   82.35289764    0.38000000    2.51999998
   19.34166718   82.08519745    0.38000000    2.51999998
   19.34500122   74.54470062    0.38000000    2.51999998
   19.34833336   79.49759674    0.38000000    2.51999998
   19.35138893   85.75620270    0.38000000    2.53999996
   19.35250092   80.02700043    0.38000000    2.53999996
   19.35777855   80.02700043    0.36000001    2.51999998
   19.36194420   79.91380310    0.36000001    2.53999996
   19.36527824   84.00720215    0.36000001    2.51999998
   19.36861038   83.27220154    0.36000001    2.51999998
   19.38611031   83.20510101    0.36000001    2.51999998
   19.38833237   86.96130371    0.36000001    2.51999998
   19.39166641   86.42030334    0.34000000    2.53999996
   19.39500046   84.73049927    0.36000001    2.51999998
   19.40083313   84.73049927    0.36000001    2.51999998
   19.40499878   81.19460297    0.36000001    2.51999998
   19.40833282   87.63700104    0.36000001    2.51999998
   19.41166687   83.60510254    0.36000001    2.51999998
   19.41472244   84.66179657    0.34000000    2.51999998
   19.41805458   89.47389984    0.36000001    2.51999998
   19.41916656   84.93170166    0.36000001    2.51999998
   19.42166519   84.16919708    0.34000000    2.50000000
   19.42499924   82.99400330    0.36000001    2.51999998
   19.42833328   80.39869690    0.36000001    2.51999998
   19.43138885   82.34439850    0.36000001    2.51999998
   19.43472099   83.06580353    0.36000001    2.51999998
   19.43777657   82.02629852    0.36000001    2.50000000
   19.44388771   82.02629852    0.36000001    2.51999998
