    HOUR (UT)   FLARE FACTOR    SKY TESTER    SUN TESTER
   11.89611053   -1.00000000   -1.00000000   -1.00000000
   11.91777802  118.56800079    0.89999998    2.39000010
   11.92500019  128.11099243    0.88000000    2.39000010
   11.92805576  123.87500000    0.88000000    2.39000010
   11.93138885  121.87200165    0.88000000    2.39000010
   11.93472195  120.52200317    0.88000000    2.39000010
   11.93777752  107.78900146    0.88000000    2.39000010
   11.94111156  127.41600037    0.86000001    2.39000010
   11.94527817  127.41600037    0.86000001    2.39000010
   11.94944477  117.22200012    0.86000001    2.40000010
   11.95249939  120.18900299    0.83999997    2.40000010
   11.95583344  112.23200226    0.83999997    2.40000010
   11.95833302  124.40299988    0.83999997    2.39000010
   11.95944405  121.89700317    0.83999997    2.40000010
   11.96277714  119.40100098    0.83999997    2.40000010
   11.96611118  122.38800049    0.83999997    2.40000010
   11.96916580  114.49400330    0.83999997    2.40000010
   11.97249985  116.42500305    0.83999997    2.40000010
   11.97583294  122.35500336    0.81999999    2.40000010
   11.97888851  115.61100006    0.83999997    2.40000010
   11.98222160  116.12300110    0.83999997    2.40000010
   11.98805618  116.12300110    0.83999997    2.42000008
   11.99222279  124.26699829    0.81999999    2.42000008
   11.99527836  114.12799835    0.83999997    2.42000008
   11.99861145  115.17400360    0.81999999    2.42000008
   12.00194454  125.22599792    0.81999999    2.42000008
   12.00500011  107.70500183    0.81999999    2.42000008
   12.00833321  109.42099762    0.81999999    2.42000008
   12.01166630  114.79499817    0.81999999    2.42000008
   12.01472187  116.70700073    0.80000001    2.42000008
   12.01805496  111.22399902    0.81999999    2.42000008
   12.02138901  111.88999939    0.81999999    2.42000008
   12.02444458  107.99700165    0.80000001    2.42000008
   12.02499962  113.70899963    0.80000001    2.42000008
   12.03083324  113.70899963    0.80000001    2.42000008
   12.03500080  121.60099792    0.80000001    2.44000006
   12.03833389  117.62300110    0.80000001    2.44000006
   12.04138947  115.04499817    0.80000001    2.44000006
   12.04472256  117.86199951    0.80000001    2.44000006
   12.04805565  121.33499908    0.80000001    2.42000008
   12.05111122  113.81800079    0.80000001    2.44000006
   12.05444431  110.60399628    0.80000001    2.44000006
   12.05749989  120.89199829    0.80000001    2.42000008
   12.05833340  107.88099670    0.79000002    2.44000006
   12.06138897   98.68599701    0.80000001    2.44000006
   12.06444454  105.81800079    0.80000001    2.44000006
   12.06777763  113.50099945    0.79000002    2.44000006
   12.07388878  113.50099945    0.79000002    2.46000004
   12.07777786  113.52600098    0.79000002    2.46000004
   12.08111095  105.69499969    0.79000002    2.46000004
   12.08444405   99.30370331    0.79000002    2.46000004
   12.08777714  111.19000244    0.79000002    2.46000004
   12.09083271  118.13800049    0.79000002    2.46000004
   12.09166622  113.81800079    0.79000002    2.46000004
   12.09444427  112.26399994    0.79000002    2.44000006
   12.09749985  116.39700317    0.76999998    2.46000004
   12.10083389  104.62500000    0.76999998    2.46000004
   12.10416698  122.22799683    0.76999998    2.46000004
   12.10722256  114.76100159    0.76999998    2.46000004
   12.11055565  111.46499634    0.76999998    2.46000004
   12.11666679  111.46499634    0.76999998    2.46000004
   12.12083340  122.00900269    0.75000000    2.46000004
   12.12388897  112.69400024    0.75000000    2.46000004
   12.12500000  110.59300232    0.75000000    2.46000004
   12.12750053  120.80400085    0.75000000    2.46000004
   12.13083363  108.99700165    0.75000000    2.46000004
   12.13388920  106.61100006    0.75000000    2.46000004
   12.13722229  112.86399841    0.75000000    2.46000004
   12.14027786  113.18599701    0.75000000    2.46000004
   12.14361095  109.42099762    0.75000000    2.48000002
   12.14694405  109.84600067    0.75000000    2.48000002
   12.14999962  109.38999939    0.75000000    2.48000002
   12.15333271  111.37000275    0.73000002    2.48000002
   12.15944386  111.37000275    0.73000002    2.48000002
   12.16361046  112.65200043    0.70999998    2.48000002
   12.16694450  120.37100220    0.73000002    2.48000002
   12.17000008  111.75399780    0.70999998    2.48000002
   12.17333412  113.68399811    0.73000002    2.48000002
   12.17638874  118.21099854    0.70999998    2.48000002
   12.17972279  123.19400024    0.70999998    2.48000002
   12.18305588  111.68199921    0.70999998    2.48000002
   12.18611145  114.84300232    0.70999998    2.48000002
   12.18944454  111.22599792    0.70999998    2.50000000
   12.19166660  120.82800293    0.70999998    2.48000002
   12.19305515  108.93099976    0.70999998    2.48000002
   12.19638920  112.34999847    0.70999998    2.50000000
   12.20222187  112.34999847    0.70999998    2.50000000
   12.20638847  101.18399811    0.70999998    2.50000000
   12.20972157  117.94899750    0.70999998    2.50000000
   12.21277714  109.04100037    0.70999998    2.50000000
   12.21611118  105.90399933    0.70999998    2.50000000
   12.21944427  109.19400024    0.70999998    2.50000000
   12.22249985  114.63400269    0.69000000    2.50000000
   12.22499943  109.13800049    0.69000000    2.50000000
   12.22611046  101.50599670    0.69000000    2.50000000
   12.22944355  102.23899841    0.70999998    2.50000000
   12.23249912   97.47669983    0.69000000    2.51999998
   12.23583317  115.04299927    0.69000000    2.51999998
   12.23916721  113.55300140    0.69000000    2.50000000
   12.24527836  113.55300140    0.69000000    2.50000000
   12.24916649  116.46700287    0.69000000    2.51999998
   12.25249958  105.12999725    0.69000000    2.51999998
   12.25583363  106.01000214    0.69000000    2.50000000
   12.25833321  105.19899750    0.69000000    2.51999998
   12.25944424  104.97200012    0.69000000    2.51999998
   12.26277733  116.42199707    0.69000000    2.50000000
   12.26583290   95.01560211    0.69000000    2.51999998
   12.26916599  100.37699890    0.69000000    2.51999998
   12.27222157  109.77899933    0.69000000    2.51999998
   12.27555561   97.20760345    0.69000000    2.50000000
   12.27888870   95.14550018    0.69000000    2.51999998
   12.28194427  100.49299622    0.69000000    2.51999998
   12.28805637  100.49299622    0.70999998    2.51999998
   12.29222298   97.99420166    0.69000000    2.51999998
   12.29527855   96.98549652    0.70999998    2.51999998
   12.29861164  102.84300232    0.69000000    2.51999998
   12.30166721  101.38999939    0.69000000    2.51999998
   12.30500031  102.71299744    0.69000000    2.51999998
   12.30833340  117.13899994    0.69000000    2.51999998
   12.31138897  115.49700165    0.69000000    2.53999996
   12.31472206  101.01499939    0.69000000    2.51999998
   12.31805515  104.92500305    0.69000000    2.53999996
   12.32111073   95.90959930    0.69000000    2.53999996
   12.32444477   96.85949707    0.69000000    2.53999996
   12.32499981   99.84400177    0.67000002    2.53999996
   12.33083344   99.84400177    0.69000000    2.53999996
   12.33500004   78.99330139    0.67000002    2.53999996
   12.33805561   99.44539642    0.67000002    2.53999996
   12.34138870  102.83599854    0.67000002    2.53999996
   12.34472179   92.83589935    0.67000002    2.53999996
   12.34777737  106.25900269    0.64999998    2.53999996
   12.35111141  103.68000031    0.64999998    2.55999994
   12.35444450  103.32399750    0.64999998    2.53999996
   12.35750008  110.58999634    0.67000002    2.53999996
   12.35833359  102.63800049    0.67000002    2.53999996
   12.36111164  100.66500092    0.67000002    2.53999996
   12.36444473  100.24900055    0.67000002    2.53999996
   12.36750031  111.13899994    0.67000002    2.53999996
   12.37361145  111.13899994    0.67000002    2.53999996
   12.37777805  104.38500214    0.64999998    2.53999996
   12.38111115  106.98999786    0.67000002    2.53999996
   12.38416672  106.31600189    0.67000002    2.53999996
   12.38749981   97.34429932    0.67000002    2.53999996
   12.39083290   99.43260193    0.64999998    2.53999996
   12.39166641   96.07540131    0.64999998    2.55999994
   12.39444447   99.61419678    0.64999998    2.55999994
   12.39777756  106.24299622    0.64999998    2.55999994
   12.40083313  103.53600311    0.64999998    2.55999994
   12.40416622  100.72499847    0.64999998    2.55999994
   12.40749931  103.76300049    0.64999998    2.55999994
   12.41055489   97.90419769    0.64999998    2.55999994
   12.41666698   97.90419769    0.64999998    2.55999994
   12.42055607   96.11940002    0.64999998    2.55999994
   12.42388916  102.07399750    0.64999998    2.55999994
   12.42500019  100.28700256    0.64999998    2.55999994
   12.42750072   99.15339661    0.64999998    2.55999994
   12.43083382  106.44200134    0.64999998    2.55999994
   12.43388939  103.62300110    0.64999998    2.55999994
   12.43722248   97.53309631    0.64999998    2.55999994
   12.44055557   95.08470154    0.64999998    2.55999994
   12.44361115   93.18099976    0.64999998    2.55999994
   12.44694424   94.27950287    0.64999998    2.55999994
   12.45027733   96.20649719    0.64999998    2.55999994
   12.45333290   93.47019958    0.64999998    2.57999992
   12.45944405   93.47019958    0.64999998    2.55999994
   12.46361065   99.51020050    0.64999998    2.57999992
   12.46666622  102.03700256    0.64999998    2.57999992
   12.46999931  104.85600281    0.64999998    2.55999994
   12.47333336  101.90699768    0.64999998    2.55999994
   12.47638798   96.58809662    0.64999998    2.55999994
   12.47972202  100.87999725    0.64999998    2.55999994
   12.48305511   93.75279999    0.64999998    2.55999994
   12.48611164   94.61309814    0.64999998    2.57999992
   12.48944473   99.49939728    0.63000000    2.57999992
   12.49194431   99.72450256    0.63000000    2.57999992
   12.49305534  104.27200317    0.63000000    2.57999992
   12.49638939   95.43199921    0.63000000    2.57999992
   12.50222206   95.43199921    0.63000000    2.57999992
   12.50638866  103.01300049    0.63000000    2.57999992
   12.50944424   92.20549774    0.63000000    2.57999992
   12.51277733   91.05840302    0.63000000    2.57999992
   12.51611137   98.72090149    0.63000000    2.57999992
   12.51944447  103.85199738    0.63000000    2.59999990
   12.52250004  101.40200043    0.61000001    2.57999992
   12.52499962   93.59619904    0.61000001    2.59999990
   12.52611065   98.05149841    0.61000001    2.57999992
   12.52944374   93.96630096    0.61000001    2.59999990
   12.53249931   94.70600128    0.61000001    2.59999990
   12.53583336  101.33100128    0.61000001    2.57999992
   12.53916740   96.54450226    0.61000001    2.57999992
   12.54500008   96.54450226    0.61000001    2.57999992
   12.54916668  103.46600342    0.61000001    2.57999992
   12.55249977   94.78040314    0.61000001    2.59999990
   12.55555534  100.18599701    0.61000001    2.57999992
   12.55833340   94.32180023    0.61000001    2.59999990
   12.55916691  100.12300110    0.61000001    2.59999990
   12.56250000   96.03669739    0.61000001    2.59999990
   12.56555557   96.14759827    0.61000001    2.57999992
   12.56888866   98.88300323    0.61000001    2.59999990
   12.57222176  102.33200073    0.61000001    2.59999990
   12.57527733   97.10269928    0.61000001    2.59999990
   12.57861137   95.86620331    0.58999997    2.59999990
   12.58166695   95.41970062    0.58999997    2.59999990
   12.58777714   95.41970062    0.61000001    2.59999990
   12.59194374  102.22899628    0.61000001    2.59999990
   12.59527779   99.63559723    0.58999997    2.59999990
   12.59861088  104.10900116    0.61000001    2.59999990
   12.60166740   92.83940125    0.61000001    2.59999990
   12.60500050   95.54409790    0.58999997    2.59999990
   12.60805607  101.64700317    0.58999997    2.59999990
   12.61138916   89.32160187    0.58999997    2.61999989
   12.61472225   97.33180237    0.58999997    2.59999990
   12.61777782  104.81800079    0.58999997    2.59999990
   12.62111092   99.99299622    0.58999997    2.59999990
   12.62444496  105.47699738    0.58999997    2.61999989
   12.62527752   95.73699951    0.58999997    2.61999989
   12.63083363   95.73699951    0.61000001    2.61999989
   12.63500023  101.97899628    0.58999997    2.59999990
   12.63805580   94.79129791    0.58999997    2.61999989
   12.64138889   92.34339905    0.58999997    2.61999989
   12.64444447  138.88299561    0.58999997    2.61999989
   12.64777756  100.56500244    0.58999997    2.61999989
   12.65111065   95.82089996    0.58999997    2.61999989
   12.65416622   87.12760162    0.58999997    2.61999989
   12.65749931  102.82800293    0.58999997    2.61999989
   12.65861034  101.00399780    0.58999997    2.61999989
   12.66111088  101.22200012    0.58999997    2.61999989
   12.66444397  100.19200134    0.58999997    2.61999989
   12.66750050   98.58270264    0.58999997    2.61999989
   12.67361164   98.58270264    0.58999997    2.61999989
   12.67777824   99.89800262    0.58999997    2.64000010
   12.68083382   95.84120178    0.58999997    2.64000010
   12.68416691  106.03199768    0.58999997    2.61999989
   12.68750000  102.57700348    0.56999999    2.64000010
   12.69055557  107.24700165    0.58999997    2.61999989
   12.69194412  102.62799835    0.58999997    2.61999989
   12.69416714  110.10299683    0.58999997    2.61999989
   12.69750023   98.76409912    0.58999997    2.64000010
   12.70055580  109.19499969    0.56999999    2.61999989
   12.70388889  106.70600128    0.58999997    2.61999989
   12.70722198  108.91799927    0.58999997    2.61999989
   12.71027756  110.17299652    0.58999997    2.61999989
   12.71638870  110.17299652    0.58999997    2.64000010
   12.72055531  105.03700256    0.56999999    2.64000010
   12.72388840  110.11799622    0.56999999    2.64000010
   12.72527695  116.40200043    0.58999997    2.64000010
   12.72749996  107.88400269    0.58999997    2.64000010
   12.73083305  106.58000183    0.56999999    2.64000010
   12.73388958  112.09700012    0.56999999    2.64000010
   12.73722267  109.02200317    0.56999999    2.64000010
   12.74055576  126.43399811    0.56999999    2.64000010
   12.74361134  117.90200043    0.56999999    2.64000010
   12.74694443  114.24099731    0.56999999    2.64000010
   12.75027752  136.35499573    0.56999999    2.64000010
   12.75333309  107.27899933    0.56999999    2.64000010
   12.75944424  107.27899933    0.56999999    2.64000010
   12.76333332  103.70400238    0.56999999    2.64000010
   12.76666641  113.27999878    0.56999999    2.64000010
   12.76999950  104.84700012    0.55000001    2.64000010
   12.77305508  108.87599945    0.56999999    2.64000010
   12.77638817  105.00399780    0.56999999    2.64000010
   12.77972221  101.27700043    0.55000001    2.64000010
   12.78277779  102.03399658    0.55000001    2.64000010
   12.78611183  100.43099976    0.55000001    2.64000010
   12.78916740  105.46600342    0.55000001    2.66000009
   12.79194450   96.12590027    0.55000001    2.66000009
   12.79277802  103.32800293    0.55000001    2.66000009
   12.79611111   95.60359955    0.55000001    2.66000009
   12.80222225   95.60359955    0.55000001    2.66000009
   12.80638885  111.82099915    0.55000001    2.66000009
   12.80944443  104.16999817    0.55000001    2.66000009
   12.81277752  116.25700378    0.55000001    2.66000009
   12.81583309  106.72399902    0.55000001    2.66000009
   12.81916618  109.29599762    0.55000001    2.66000009
   12.82250023  103.10900116    0.55000001    2.66000009
   12.82527733  103.91500092    0.55000001    2.66000009
   12.82611084  120.63800049    0.55000001    2.66000009
   12.82944393  110.91100311    0.55000001    2.66000009
   12.83277798  118.85700226    0.55000001    2.66000009
   12.83583260  122.81500244    0.55000001    2.66000009
   12.83916664  126.12500000    0.55000001    2.66000009
   12.84499931  126.12500000    0.55000001    2.66000009
   12.84916592  106.50499725    0.55000001    2.66000009
   12.85249996  102.01100159    0.55000001    2.66000009
   12.85555553  112.50399780    0.55000001    2.66000009
   12.85861111  109.93599701    0.55000001    2.66000009
   12.85916710  111.92199707    0.55000001    2.66000009
   12.86250019  116.23100281    0.55000001    2.66000009
   12.86583328  107.48899841    0.55000001    2.66000009
   12.86888885   95.78269958    0.55000001    2.66000009
   12.87222195  112.67800140    0.55000001    2.66000009
   12.87527752  128.83599854    0.55000001    2.66000009
   12.87861156  102.95300293    0.55000001    2.66000009
   12.88194466  115.66899872    0.55000001    2.66000009
   12.88777733  115.66899872    0.55000001    2.66000009
   12.89194393  103.21299744    0.55000001    2.66000009
   12.89527798  104.97799683    0.52999997    2.66000009
   12.89833355  112.63300323    0.55000001    2.66000009
   12.90166664  101.35399628    0.55000001    2.66000009
   12.90499973  109.98300171    0.55000001    2.66000009
   12.90805531  113.97399902    0.52999997    2.66000009
   12.91138840  104.57499695    0.55000001    2.66000009
   12.91472149  130.97700500    0.52999997    2.66000009
   12.91777802  121.18599701    0.52999997    2.67000008
   12.92111111  104.52300262    0.52999997    2.67000008
   12.92416668  102.12799835    0.52999997    2.66000009
   12.92527771  105.44699860    0.52999997    2.67000008
   12.94583321  105.44699860    0.51999998    2.67000008
   12.94999981  111.58399963    0.51999998    2.67000008
   12.95333290  127.20600128    0.52999997    2.67000008
   12.95638847  113.65899658    0.51999998    2.67000008
   12.95861053  115.05599976    0.52999997    2.67000008
   12.96000004  109.90699768    0.52999997    2.67000008
   12.96333313  104.96700287    0.52999997    2.67000008
   12.96666622  105.70999908    0.51999998    2.66000009
   12.96972179  101.08100128    0.52999997    2.67000008
   12.97305489  102.43800354    0.52999997    2.67000008
   12.97638798   99.16560364    0.51999998    2.67000008
   12.97944355   94.07939911    0.51999998    2.67000008
   12.98277760  121.90200043    0.51999998    2.67000008
   12.98861122  121.90200043    0.51999998    2.67000008
   12.99277782  117.57199860    0.51999998    2.67000008
   12.99611092  113.70200348    0.51999998    2.67000008
   12.99916649  106.46399689    0.52999997    2.67000008
   13.00249958  101.49500275    0.52999997    2.67000008
   13.00555515   90.89170074    0.51999998    2.67000008
   13.00888920  112.13400269    0.50000000    2.69000006
   13.01222229   94.40290070    0.50000000    2.67000008
   13.01527786   88.78869629    0.50000000    2.69000006
   13.01861095   95.17919922    0.50000000    2.67000008
   13.02194405  105.00900269    0.50000000    2.67000008
   13.02499962   86.57379913    0.50000000    2.69000006
   13.02555561  106.53800201    0.50000000    2.69000006
   13.03138828  106.53800201    0.50000000    2.67000008
   13.03555584  108.63999939    0.51999998    2.67000008
   13.03888893  110.44799805    0.50000000    2.69000006
   13.04194450  113.85199738    0.50000000    2.69000006
   13.04527855  113.36900330    0.50000000    2.67000008
   13.04861164  118.30699921    0.50000000    2.67000008
   13.05166721  102.42600250    0.50000000    2.69000006
   13.05500031   95.91690063    0.50000000    2.69000006
   13.05805588  106.94999695    0.50000000    2.69000006
   13.05888939  105.13800049    0.50000000    2.69000006
   13.06194496   98.44969940    0.50000000    2.69000006
   13.06500053  106.53500366    0.51999998    2.69000006
   13.06833363  102.82299805    0.51999998    2.69000006
   13.07444477  102.82299805    0.51999998    2.71000004
   13.07833290   97.40100098    0.51999998    2.69000006
   13.08166695  102.29900360    0.50000000    2.69000006
   13.08500004  105.88600159    0.50000000    2.69000006
   13.08805561   95.59179688    0.50000000    2.69000006
   13.09138870  100.28800201    0.50000000    2.67000008
   13.09222221  103.68699646    0.50000000    2.67000008
   13.09499931   99.85700226    0.51999998    2.69000006
   13.09833336  113.46499634    0.50000000    2.69000006
   13.10138893  106.48899841    0.50000000    2.69000006
   13.10472298   88.47429657    0.50000000    2.69000006
   13.10777855  106.22000122    0.50000000    2.69000006
   13.11111164  101.63400269    0.50000000    2.69000006
   13.11722279  101.63400269    0.50000000    2.69000006
   13.12138939   96.98020172    0.50000000    2.69000006
   13.12444496  111.64299774    0.50000000    2.69000006
   13.12555599  106.90000153    0.50000000    2.69000006
   13.12805557  100.09100342    0.50000000    2.69000006
   13.13111115  106.69300079    0.50000000    2.69000006
   13.13444424   95.44460297    0.50000000    2.69000006
   13.13777733  101.40499878    0.50000000    2.69000006
   13.14083290  107.25199890    0.50000000    2.69000006
   13.14416695  101.97499847    0.50000000    2.71000004
   13.14750004  114.28199768    0.50000000    2.71000004
   13.15055561  101.92900085    0.47999999    2.69000006
   13.15388870  103.55300140    0.47999999    2.71000004
   13.15999985  103.55300140    0.47999999    2.71000004
   13.16416645   81.30570221    0.47999999    2.71000004
   13.16722298  105.79199982    0.47999999    2.69000006
   13.17055607  103.26000214    0.47999999    2.69000006
   13.17388916  106.08999634    0.47999999    2.71000004
   13.17694473  102.48699951    0.47999999    2.71000004
   13.18027782  103.55200195    0.47999999    2.69000006
   13.18361092  112.44599915    0.50000000    2.71000004
   13.18666649   97.74729919    0.47999999    2.71000004
   13.19000053   94.81269836    0.47999999    2.71000004
   13.19222260   93.28820038    0.50000000    2.71000004
   13.19361115  104.20700073    0.50000000    2.71000004
   13.19694424  108.16600037    0.47999999    2.71000004
   13.20277786  108.16600037    0.47999999    2.71000004
   13.20694447  100.41899872    0.50000000    2.71000004
   13.21027756   99.77010345    0.47999999    2.71000004
   13.21333313  108.57499695    0.47999999    2.71000004
   13.21666622  105.84799957    0.47999999    2.71000004
   13.21999931   97.82099915    0.47999999    2.71000004
   13.22305489  102.66500092    0.47999999    2.71000004
   13.22555542   92.17089844    0.47999999    2.71000004
   13.22666645  101.36199951    0.47999999    2.71000004
   13.22999954  108.24800110    0.47999999    2.71000004
   13.23305511   93.72090149    0.47999999    2.71000004
   13.23638916  109.22599792    0.47999999    2.71000004
   13.23972225   97.78929901    0.47999999    2.71000004
   13.24583340   97.78929901    0.47999999    2.71000004
   13.24972248  107.65000153    0.47999999    2.71000004
   13.25305557  105.15899658    0.47999999    2.71000004
   13.25638866  100.53099823    0.47999999    2.71000004
   13.25888920  109.63200378    0.47999999    2.71000004
   13.26000023  104.90399933    0.47999999    2.71000004
   13.26333332   99.51920319    0.47999999    2.71000004
   13.26638889  107.26599884    0.47999999    2.73000002
   13.26972198  106.86599731    0.47999999    2.71000004
   13.27277756  107.55400085    0.47999999    2.71000004
   13.27611065  105.59400177    0.46000001    2.73000002
   13.27944374   93.93460083    0.46000001    2.73000002
   13.28277779  105.97100067    0.46000001    2.71000004
   13.29000092  105.97100067    0.46000001    2.73000002
   13.29388905   99.31520081    0.46000001    2.73000002
   13.29722309   96.23560333    0.46000001    2.73000002
   13.30055618  107.65699768    0.46000001    2.71000004
   13.30361176  108.79799652    0.46000001    2.73000002
   13.30694485   92.02189636    0.46000001    2.73000002
   13.31027794  110.42400360    0.46000001    2.73000002
   13.31333351  106.15299988    0.46000001    2.73000002
   13.31666660   96.71640015    0.46000001    2.73000002
   13.31972218  102.27899933    0.46000001    2.71000004
   13.32305527   98.16320038    0.46000001    2.73000002
   13.32555580  108.28900146    0.46000001    2.75000000
   13.32666683   97.95189667    0.46000001    2.73000002
   13.33138847   97.95189667    0.46000001    2.71000004
   13.33555508   95.12609863    0.46000001    2.73000002
   13.33861065   91.03440094    0.46000001    2.73000002
   13.34194374   96.92649841    0.46000001    2.73000002
   13.34527779   94.57189941    0.44000000    2.73000002
   13.34833336   91.54579926    0.44000000    2.73000002
   13.35166740   97.47840118    0.44000000    2.73000002
   13.35500050   96.12609863    0.44000000    2.73000002
   13.35805607   99.76190186    0.44000000    2.73000002
   13.35888958   95.66480255    0.44000000    2.73000002
   13.36166668   97.15959930    0.46000001    2.73000002
   13.36500072   93.28369904    0.44000000    2.73000002
   13.36833382   95.64810181    0.44000000    2.73000002
   13.37416649   95.64810181    0.44000000    2.73000002
   13.37833309  107.06999969    0.46000001    2.73000002
   13.38166714  123.47100067    0.46000001    2.71000004
   13.38472176  126.56900024    0.46000001    2.75000000
   13.38805580  134.62500000    0.46000001    2.73000002
   13.39138889  140.17700195    0.46000001    2.71000004
   13.39222240  126.39299774    0.46000001    2.73000002
   13.39499950  125.74299622    0.46000001    2.75000000
   13.39833355  138.53900146    0.44000000    2.73000002
   13.40138817  128.92700195    0.46000001    2.73000002
   13.40472221  149.65600586    0.44000000    2.75000000
   13.40777779  144.61999512    0.46000001    2.75000000
   13.41111088  162.34899902    0.44000000    2.75000000
   13.41694450  162.34899902    0.44000000    2.73000002
   13.42111111  145.19400024    0.44000000    2.73000002
   13.42444515  125.49299622    0.46000001    2.73000002
   13.42555618  135.93600464    0.46000001    2.73000002
   13.42805576  127.41200256    0.44000000    2.73000002
   13.43138885  143.16700745    0.44000000    2.73000002
   13.43444443  121.78299713    0.44000000    2.75000000
   13.43777752  130.66000366    0.44000000    2.75000000
   13.44083309  136.37399292    0.44000000    2.73000002
   13.44416714  150.54299927    0.44000000    2.73000002
   13.44750023  144.78500366    0.41999999    2.73000002
   13.45055580  143.51800537    0.44000000    2.73000002
   13.45388889  151.08399963    0.44000000    2.73000002
   13.46000004  151.08399963    0.44000000    2.73000002
   13.46416664  155.82400513    0.41999999    2.75000000
   13.46722221  146.30700684    0.41999999    2.75000000
   13.47055531  153.79699707    0.41999999    2.73000002
   13.47361088  145.07200623    0.44000000    2.73000002
   13.47694397  149.78199768    0.44000000    2.75000000
   13.48027706  155.43400574    0.41999999    2.73000002
   13.48333359  155.04699707    0.41999999    2.75000000
   13.48666668  144.45500183    0.41999999    2.73000002
   13.49000072  139.30900574    0.41999999    2.73000002
   13.49222279  140.83299255    0.41999999    2.75000000
   13.49361134  129.33399963    0.41999999    2.75000000
   13.49694443  138.57299805    0.41999999    2.73000002
   13.50277805  138.57299805    0.41999999    2.75000000
   13.50694466  137.95399475    0.41999999    2.75000000
   13.51027775  137.71800232    0.41999999    2.75000000
   13.51333332  152.85000610    0.41999999    2.75000000
   13.51666641  134.58900452    0.41999999    2.75000000
   13.51972198  148.67399597    0.41999999    2.75000000
   13.52305508  155.29200745    0.41999999    2.75000000
   13.52555561  138.46299744    0.41999999    2.75000000
   13.52666664  133.86000061    0.41999999    2.75000000
   13.52999973  137.32800293    0.41999999    2.75000000
   13.53333378  158.07600403    0.41999999    2.75000000
   13.53638935  139.91400146    0.41999999    2.75000000
   13.53972244  135.31500244    0.41999999    2.75000000
   13.54555607  135.31500244    0.41999999    2.75000000
   13.54972267  158.21499634    0.41999999    2.75000000
   13.55305576  136.23500061    0.41999999    2.75000000
   13.55611134  142.26899719    0.41999999    2.75000000
   13.55888939  134.57299805    0.41999999    2.75000000
   13.55972195  140.43299866    0.41999999    2.75000000
   13.56305599  148.15199280    0.40000001    2.75000000
   13.56611156  145.17700195    0.40000001    2.75000000
   13.56944466  139.74400330    0.40000001    2.75000000
   13.57277775  145.23800659    0.40000001    2.75000000
   13.57583332  118.22799683    0.40000001    2.75000000
   13.57916641  149.92700195    0.41999999    2.76999998
   13.58222198  135.59700012    0.41999999    2.75000000
   13.58833313  135.59700012    0.41999999    2.75000000
   13.59249973  129.17599487    0.40000001    2.75000000
   13.59583282  134.93800354    0.41999999    2.75000000
   13.59916592  114.00299835    0.40000001    2.75000000
   13.60222244  115.29199982    0.41999999    2.75000000
   13.60555553  135.62100220    0.40000001    2.75000000
   13.60888958  122.00399780    0.40000001    2.75000000
   13.61194515  130.90600586    0.40000001    2.76999998
   13.61527824  123.70200348    0.40000001    2.76999998
   13.61833382  142.48399353    0.40000001    2.75000000
   13.62166691  121.64299774    0.41999999    2.76999998
   13.62500000  124.06800079    0.41999999    2.75000000
   13.62555599  132.55099487    0.41999999    2.75000000
   13.63138866  132.55099487    0.41999999    2.75000000
   13.63555527  127.15899658    0.41999999    2.75000000
   13.63861084  130.91700745    0.41999999    2.75000000
   13.64194393  121.56099701    0.41999999    2.75000000
   13.64499950  122.01899719    0.40000001    2.76999998
   13.64833355  113.91100311    0.41999999    2.76999998
   13.65166664  122.17500305    0.40000001    2.75000000
   13.65472221  139.42100525    0.41999999    2.76999998
   13.65805531  141.26699829    0.40000001    2.75000000
   13.65888882  121.02100372    0.40000001    2.75000000
   13.66166592  131.86999512    0.40000001    2.76999998
   13.66499996  121.67199707    0.40000001    2.76999998
   13.66833401  136.42700195    0.41999999    2.76999998
   13.67416668  136.42700195    0.40000001    2.76999998
   13.67833328  149.49899292    0.40000001    2.76999998
   13.68138885  133.72500610    0.40000001    2.75000000
   13.68472195  133.14900208    0.40000001    2.75000000
   13.68805599  122.59700012    0.40000001    2.76999998
   13.69111156  132.00599670    0.40000001    2.76999998
   13.69222260  137.11599731    0.40000001    2.76999998
   13.69472218  124.78800201    0.40000001    2.76999998
   13.69805527  129.27699280    0.40000001    2.76999998
   13.70111084  123.79900360    0.40000001    2.76999998
   13.70444393  123.99500275    0.40000001    2.76999998
   13.70777798  124.90899658    0.40000001    2.76999998
   13.71083355   99.98650360    0.40000001    2.76999998
   13.71694374   99.98650360    0.40000001    2.75000000
   13.72111034  112.51999664    0.40000001    2.76999998
   13.72444439  143.24099731    0.40000001    2.76999998
   13.72555542  121.91899872    0.40000001    2.76999998
   13.72805500  153.76699829    0.40000001    2.76999998
   13.73138809  123.21099854    0.40000001    2.76999998
   13.73444462  125.28099823    0.40000001    2.76999998
   13.73777771  134.71699524    0.40000001    2.76999998
   13.74111176  135.26699829    0.40000001    2.76999998
   13.74416733  142.09899902    0.40000001    2.75000000
   13.74750042  114.80500031    0.40000001    2.76999998
   13.75055599  123.31900024    0.40000001    2.78999996
   13.75388908  123.23400116    0.38000000    2.76999998
   13.75972176  123.23400116    0.40000001    2.78999996
   13.76388931  129.63499451    0.38000000    2.78999996
   13.76722240  132.95300293    0.38000000    2.78999996
   13.77027798  121.57199860    0.38000000    2.76999998
   13.77361107  129.17300415    0.40000001    2.78999996
   13.77694416  121.34200287    0.38000000    2.76999998
   13.78027725  126.79100037    0.38000000    2.76999998
   13.78333378  119.75599670    0.38000000    2.76999998
   13.78666687  154.83799744    0.38000000    2.76999998
   13.78972244  124.19000244    0.38000000    2.76999998
   13.79250050  126.80799866    0.38000000    2.76999998
   13.79333401  139.16700745    0.38000000    2.76999998
   13.79666710  121.79699707    0.38000000    2.76999998
   13.80277824  121.79699707    0.38000000    2.78999996
   13.80694485  162.87800598    0.40000001    2.76999998
   13.81000042  132.50399780    0.40000001    2.75000000
   13.81333351  145.39900208    0.38000000    2.76999998
   13.81638908  160.97099304    0.38000000    2.76999998
   13.81972218  153.79299927    0.38000000    2.76999998
   13.82305527  156.67300415    0.38000000    2.76999998
   13.82583332  140.11399841    0.38000000    2.76999998
   13.82666683  132.50700378    0.38000000    2.76999998
   13.82999992  123.19200134    0.38000000    2.78999996
   13.83305550  147.35699463    0.38000000    2.78999996
   13.83638859  146.79200745    0.38000000    2.78999996
   13.83972168  138.58299255    0.38000000    2.78999996
   13.84555531  138.58299255    0.38000000    2.78999996
   13.84972191  149.66999817    0.38000000    2.76999998
   13.85277843  156.66700745    0.38000000    2.76999998
   13.85611153  122.36100006    0.38000000    2.78999996
   13.85916710  148.96400452    0.38000000    2.78999996
   13.85972214  131.82899475    0.38000000    2.78999996
   13.86305618  146.68299866    0.38000000    2.78999996
   13.86638927  126.80300140    0.38000000    2.78999996
   13.86944485  148.80799866    0.38000000    2.78999996
   13.87277794  169.63900757    0.38000000    2.76999998
   13.87583351  165.26300049    0.36000001    2.78999996
   13.87916660  169.30599976    0.38000000    2.78999996
   13.88249969  168.56500244    0.36000001    2.76999998
   13.88833332  168.56500244    0.36000001    2.78999996
   13.89249992  149.28799438    0.36000001    2.78999996
   13.89583302  152.14999390    0.38000000    2.78999996
   13.89888859  138.84300232    0.38000000    2.78999996
   13.90222168  169.81300354    0.36000001    2.78999996
   13.90527725  148.76699829    0.38000000    2.78999996
   13.90861034  155.75500488    0.38000000    2.78999996
   13.91194439  149.52699280    0.38000000    2.78999996
   13.91499996  154.75100708    0.36000001    2.78999996
   13.91833401  145.08099365    0.38000000    2.78999996
   13.92166710  142.83500671    0.38000000    2.78999996
   13.92472267  137.30900574    0.38000000    2.78999996
   13.92583370  141.38800049    0.38000000    2.78999996
   13.93111134  141.38800049    0.38000000    2.78999996
   13.93527794  158.87500000    0.38000000    2.76999998
   13.93861103  152.32200623    0.38000000    2.78999996
   13.94166660  150.21000671    0.38000000    2.78999996
   13.95944405  136.33000183    0.38000000    2.78999996
   13.96194458  179.03500366    0.38000000    2.78999996
   13.96500015  162.50399780    0.38000000    2.78999996
   13.96833324  134.86999512    0.38000000    2.78999996
   13.97416592  134.86999512    0.38000000    2.78999996
   13.97833252  151.51199341    0.38000000    2.78999996
   13.98166656  161.07600403    0.38000000    2.78999996
   13.98472214  159.27099609    0.38000000    2.78999996
   13.98805618  137.25799561    0.38000000    2.78999996
   13.99138927  138.85299683    0.38000000    2.78999996
   13.99277782  156.66799927    0.38000000    2.78999996
   13.99472237  146.21600342    0.38000000    2.78999996
   13.99805546  158.45100403    0.38000000    2.78999996
   14.00111103  168.53199768    0.38000000    2.78999996
   14.00444412  143.74299622    0.38000000    2.78999996
   14.00777817  154.26300049    0.38000000    2.78999996
   14.01083374  144.73199463    0.36000001    2.78999996
   14.01694393  144.73199463    0.36000001    2.78999996
   14.02111053  132.53199768    0.36000001    2.78999996
   14.02444458  148.79100037    0.38000000    2.78999996
   14.02611065  145.30299377    0.36000001    2.78999996
   14.02805519  129.56599426    0.36000001    2.78999996
   14.03138828  127.85500336    0.38000000    2.78999996
   14.03444481  112.40899658    0.36000001    2.78999996
   14.03777790  131.97799683    0.36000001    2.78999996
   14.04111195  131.45599365    0.36000001    2.80999994
   14.04416752  146.03500366    0.36000001    2.80999994
   14.04750061  133.94500732    0.36000001    2.78999996
   14.05083370  142.17900085    0.36000001    2.78999996
   14.05388927  143.61300659    0.36000001    2.78999996
   14.06000042  143.61300659    0.38000000    2.78999996
   14.06416702  143.39199829    0.36000001    2.78999996
   14.06722260  126.45600128    0.36000001    2.78999996
   14.07055569  116.78800201    0.36000001    2.78999996
   14.07361126  135.57499695    0.36000001    2.78999996
   14.07694435  104.09100342    0.36000001    2.78999996
   14.08027744  101.48899841    0.36000001    2.78999996
   14.08333302  116.22499847    0.36000001    2.78999996
   14.08666611  104.69300079    0.36000001    2.78999996
   14.09000015  106.43599701    0.36000001    2.78999996
   14.09277725   88.22219849    0.36000001    2.78999996
   14.09333324  108.82800293    0.36000001    2.78999996
   14.09666634  119.09799957    0.36000001    2.80999994
   14.10277843  119.09799957    0.36000001    2.78999996
   14.10694504  110.56500244    0.36000001    2.78999996
   14.11027813  133.10099792    0.36000001    2.80999994
   14.11333370  130.73399353    0.38000000    2.78999996
   14.11666679  133.42399597    0.36000001    2.80999994
   14.11972237  112.88400269    0.36000001    2.80999994
   14.12305546  132.64900208    0.38000000    2.80999994
   14.12611103  129.06900024    0.36000001    2.80999994
   14.12666702  128.49699402    0.36000001    2.78999996
   14.13000011  133.31599426    0.38000000    2.80999994
   14.13305569  126.94300079    0.38000000    2.80999994
   14.13638878  122.42500305    0.38000000    2.80999994
   14.13972187  133.84899902    0.36000001    2.80999994
   14.14555550  133.84899902    0.36000001    2.80999994
   14.14972210  127.99099731    0.36000001    2.80999994
   14.15305519  133.63000488    0.36000001    2.80999994
   14.15611076  135.03500366    0.38000000    2.80999994
   14.15944386  121.37000275    0.36000001    2.80999994
   14.15972137  124.36599731    0.36000001    2.80999994
   14.16305542  122.28299713    0.36000001    2.80999994
   14.16611099  132.32299805    0.36000001    2.80999994
   14.16944504  137.88699341    0.36000001    2.80999994
   14.17277813  143.95899963    0.36000001    2.80999994
   14.17583370  134.95100403    0.36000001    2.80999994
   14.17916679  128.37699890    0.38000000    2.80999994
   14.18249989  133.33200073    0.36000001    2.80999994
   14.18861103  133.33200073    0.36000001    2.80999994
   14.19277763  141.36500549    0.36000001    2.78999996
   14.19305515  133.46000671    0.36000001    2.80999994
   14.19638920  137.09599304    0.36000001    2.80999994
   14.19944477  135.10099792    0.36000001    2.80999994
   14.20277786  136.95199585    0.38000000    2.80999994
   14.20611095  130.71600342    0.36000001    2.80999994
   14.20916653  144.53999329    0.38000000    2.80999994
   14.21249962  145.69599915    0.36000001    2.80999994
   14.21583271  150.16400146    0.36000001    2.80999994
   14.21888828  147.55799866    0.36000001    2.80999994
   14.22222137  164.11500549    0.36000001    2.80999994
   14.22555542  135.82800293    0.38000000    2.78999996
   14.22611046  134.39900208    0.38000000    2.78999996
   14.23138809  134.39900208    0.36000001    2.80999994
   14.23555565  134.75999451    0.38000000    2.82999992
   14.23861122  134.82699585    0.36000001    2.80999994
   14.24194431  111.96299744    0.36000001    2.80999994
   14.24527836  136.00599670    0.38000000    2.80999994
   14.24833393  119.13400269    0.36000001    2.80999994
   14.25166702  114.34899902    0.38000000    2.80999994
   14.25500011  107.92700195    0.38000000    2.80999994
   14.25805569  131.03900146    0.36000001    2.80999994
   14.25944424  115.19400024    0.38000000    2.80999994
   14.26166630  127.52200317    0.38000000    2.80999994
   14.26500034  125.97100067    0.36000001    2.80999994
   14.26833344  125.58000183    0.36000001    2.82999992
   14.27416611  125.58000183    0.38000000    2.80999994
   14.27833271  108.65000153    0.36000001    2.80999994
   14.28166676  100.02200317    0.38000000    2.80999994
   14.28500080  116.63800049    0.38000000    2.80999994
   14.28805637  103.46800232    0.36000001    2.82999992
   14.29138947  110.53399658    0.36000001    2.82999992
   14.29277802  109.28800201    0.36000001    2.82999992
   14.29500008  110.87699890    0.36000001    2.82999992
   14.29833412   93.95709991    0.36000001    2.80999994
   14.30166721  112.20500183    0.36000001    2.80999994
   14.30472279   94.97260284    0.36000001    2.80999994
   14.30805588   96.24749756    0.36000001    2.82999992
   14.31138897  103.55500031    0.36000001    2.82999992
   14.31694412  103.55500031    0.36000001    2.82999992
   14.32111073  100.81400299    0.36000001    2.80999994
   14.32444477   96.44699860    0.36000001    2.82999992
   14.32611084  100.76399994    0.36000001    2.82999992
   14.32805538   97.77140045    0.36000001    2.80999994
   14.33138847  100.45500183    0.36000001    2.82999992
   14.33472157  105.49199677    0.36000001    2.82999992
   14.33777714  100.04900360    0.36000001    2.80999994
   14.34111118   97.88020325    0.36000001    2.80999994
   14.34416676  103.25299835    0.34000000    2.82999992
   14.34749985  122.95999908    0.36000001    2.82999992
   14.35083389  100.79000092    0.36000001    2.82999992
   14.35388947  101.81199646    0.36000001    2.82999992
   14.36000061  101.81199646    0.36000001    2.80999994
   14.36388969  100.79699707    0.34000000    2.82999992
   14.36722279  106.01699829    0.34000000    2.82999992
   14.37055588  165.70199585    0.34000000    2.80999994
   14.37361145  105.26899719    0.34000000    2.80999994
   14.37694454   90.42420197    0.34000000    2.82999992
   14.38027763  101.49700165    0.34000000    2.82999992
   14.38333321  101.13500214    0.34000000    2.82999992
   14.38666630  103.69200134    0.34000000    2.82999992
   14.39000034  105.27100372    0.34000000    2.82999992
   14.39277744   93.84680176    0.34000000    2.80999994
   14.39333344   99.92590332    0.34000000    2.80999994
   14.39666653   93.50869751    0.34000000    2.80999994
   14.40277767   93.50869751    0.34000000    2.84999990
   14.40694427  106.37100220    0.34000000    2.82999992
   14.40999985  103.78800201    0.34000000    2.82999992
   14.41333294  105.89900208    0.31999999    2.82999992
   14.41666698  108.81600189    0.31999999    2.82999992
   14.41972256  103.08300018    0.31999999    2.82999992
   14.42305565  103.26300049    0.31999999    2.82999992
   14.42611122   96.72119904    0.31999999    2.82999992
   14.42666721   97.61350250    0.31999999    2.82999992
   14.43000031   98.31390381    0.31999999    2.80999994
   14.43333340   97.86859894    0.34000000    2.82999992
   14.43638897   98.07479858    0.34000000    2.80999994
   14.43972206   99.43000031    0.34000000    2.82999992
   14.44555569   99.43000031    0.34000000    2.82999992
   14.44972229  100.61299896    0.34000000    2.82999992
   14.45305538   98.55780029    0.34000000    2.82999992
   14.45611095   95.63649750    0.34000000    2.82999992
   14.45944405   92.74759674    0.34000000    2.82999992
   14.45972157   99.99440002    0.34000000    2.80999994
   14.46305561  100.28800201    0.34000000    2.80999994
   14.46638870  110.41500092    0.34000000    2.82999992
   14.46944427   99.18370056    0.34000000    2.82999992
   14.47277737   98.32409668    0.34000000    2.82999992
   14.47583294  101.28500366    0.34000000    2.80999994
   14.47916603  102.32800293    0.34000000    2.82999992
   14.48249912   88.24729919    0.34000000    2.82999992
   14.48833370   88.24729919    0.34000000    2.82999992
   14.49250031  102.40399933    0.34000000    2.82999992
   14.49305534  101.37100220    0.34000000    2.82999992
   14.49638939   98.45590210    0.34000000    2.82999992
   14.49944496  103.24099731    0.34000000    2.82999992
   14.50277805  103.22299957    0.34000000    2.82999992
   14.50611115   88.80770111    0.34000000    2.82999992
   14.50916672  108.43199921    0.34000000    2.82999992
   14.51249981  108.39499664    0.34000000    2.82999992
   14.51583290  104.76200104    0.34000000    2.82999992
   14.51888847  100.14499664    0.31999999    2.82999992
   14.52222157  102.20700073    0.34000000    2.82999992
   14.52527714   93.73390198    0.31999999    2.82999992
   14.52638817  107.22399902    0.31999999    2.82999992
   14.53138828  107.22399902    0.31999999    2.82999992
   14.53527832  102.87000275    0.34000000    2.82999992
   14.53861141  104.03600311    0.31999999    2.82999992
   14.54194450   89.09110260    0.34000000    2.82999992
   14.54500008  101.59500122    0.31999999    2.84999990
   14.54833412  102.02600098    0.31999999    2.82999992
   14.55166721  100.12100220    0.31999999    2.82999992
   14.55472279   97.49240112    0.34000000    2.82999992
   14.55805588   99.46060181    0.31999999    2.84999990
   14.55972195  102.59200287    0.34000000    2.82999992
   14.56166649  105.41000366    0.34000000    2.82999992
   14.56472206  103.85099792    0.34000000    2.82999992
   14.56805515  102.68399811    0.34000000    2.84999990
   14.57416630  102.68399811    0.34000000    2.82999992
   14.57833290   99.31030273    0.34000000    2.82999992
   14.58138847   92.90260315    0.34000000    2.82999992
   14.58472157  102.52700043    0.34000000    2.82999992
   14.58805561   99.61650085    0.34000000    2.82999992
   14.59111118  103.01000214    0.34000000    2.82999992
   14.59305477  105.66500092    0.34000000    2.82999992
   14.59472179  101.50199890    0.34000000    2.82999992
   14.59777737  106.21099854    0.34000000    2.82999992
   14.60111141  100.33999634    0.34000000    2.82999992
   14.60444450   96.76339722    0.34000000    2.82999992
   14.60750008   99.86789703    0.34000000    2.82999992
   14.61083412  100.31300354    0.36000001    2.82999992
   14.61694431  100.31300354    0.34000000    2.82999992
   14.62111092  105.74199677    0.34000000    2.82999992
   14.62444496  107.21399689    0.34000000    2.82999992
   14.62638855  101.08899689    0.34000000    2.82999992
   14.62805557  103.08000183    0.34000000    2.82999992
   14.63138866   97.73269653    0.34000000    2.82999992
   14.63444424   97.85890198    0.34000000    2.82999992
   14.63777733   93.48780060    0.34000000    2.82999992
   14.64083290   92.69110107    0.34000000    2.84999990
   14.64416695   95.61959839    0.34000000    2.84999990
   14.64750004   90.93139648    0.36000001    2.82999992
   14.65055561   94.20020294    0.36000001    2.82999992
   14.65388870  107.16000366    0.36000001    2.82999992
   14.65972137  107.16000366    0.36000001    2.84999990
   14.66388893   98.78510284    0.34000000    2.82999992
   14.66722298  101.13400269    0.36000001    2.84999990
   14.67027855  104.54599762    0.36000001    2.82999992
   14.67361164  100.88400269    0.36000001    2.82999992
   14.67694473  104.80300140    0.36000001    2.82999992
   14.68000031  109.46399689    0.36000001    2.82999992
   14.68333340  101.71600342    0.36000001    2.82999992
   14.68666649   97.55149841    0.36000001    2.84999990
   14.68972206  109.14399719    0.34000000    2.84999990
   14.69305515   99.79820251    0.34000000    2.84999990
   14.69472218  102.98699951    0.34000000    2.84999990
   14.69666672   99.48760223    0.34000000    2.84999990
   14.70277786   99.48760223    0.34000000    2.84999990
   14.70666695  104.70899963    0.36000001    2.84999990
   14.71000004  104.09799957    0.36000001    2.84999990
   14.71333313  104.93399811    0.36000001    2.82999992
   14.71638870  106.53299713    0.36000001    2.82999992
   14.71972179  102.70500183    0.34000000    2.82999992
   14.72305489  104.40399933    0.34000000    2.84999990
   14.72611046  102.66799927    0.34000000    2.82999992
   14.72805500  104.26200104    0.34000000    2.82999992
   14.72972202   95.91899872    0.34000000    2.82999992
   14.73305511   94.64109802    0.34000000    2.82999992
   14.73611164  106.49600220    0.36000001    2.82999992
   14.73944473  104.02899933    0.36000001    2.82999992
   14.74555588  104.02899933    0.36000001    2.82999992
   14.74972248  103.88099670    0.36000001    2.84999990
   14.75277805   99.26039886    0.36000001    2.82999992
   14.75611115   99.55319977    0.36000001    2.84999990
   14.75916672   89.57759857    0.36000001    2.84999990
   14.76166630   92.77050018    0.36000001    2.84999990
   14.76305580  104.95800018    0.36000001    2.84999990
   14.76611137  100.32199860    0.36000001    2.82999992
   14.76944447  107.13600159    0.36000001    2.84999990
   14.77277756  107.12300110    0.36000001    2.84999990
   14.77583313   99.88529968    0.36000001    2.82999992
   14.77916622   99.28399658    0.36000001    2.84999990
   14.78249931  106.23400116    0.36000001    2.84999990
   14.78833389  106.23400116    0.36000001    2.84999990
   14.79250050   99.25879669    0.36000001    2.84999990
   14.79500008  103.57299805    0.36000001    2.84999990
   14.79611111  101.28900146    0.36000001    2.84999990
   14.79944515  101.70600128    0.38000000    2.84999990
   14.80249977   99.93869781    0.38000000    2.84999990
   14.80583382   95.16349792    0.36000001    2.84999990
   14.80888939   97.33229828    0.36000001    2.84999990
   14.81222248  100.72599792    0.36000001    2.84999990
   14.81555557   98.10359955    0.36000001    2.84999990
   14.81861115  105.15299988    0.36000001    2.84999990
   14.82194424  102.86000061    0.38000000    2.84999990
   14.82527733   95.53639984    0.38000000    2.84999990
   14.83111095   95.53639984    0.36000001    2.82999992
   14.83527756   96.28869629    0.36000001    2.84999990
   14.83861065   90.71800232    0.38000000    2.82999992
   14.84166622  100.21900177    0.38000000    2.84999990
   14.84499931  107.55100250    0.36000001    2.82999992
   14.84833336   98.32420349    0.36000001    2.84999990
   14.85138893  104.31700134    0.36000001    2.82999992
   14.85472298  109.56500244    0.36000001    2.84999990
   14.85777855  105.27500153    0.36000001    2.84999990
   14.86111164   96.24859619    0.36000001    2.86999989
   14.86194515  105.51699829    0.36000001    2.86999989
   14.86472225  104.06600189    0.38000000    2.84999990
   14.86805534  102.72000122    0.36000001    2.84999990
   14.87388897  102.72000122    0.36000001    2.84999990
   14.87805557   96.41699982    0.36000001    2.84999990
   14.88138866   98.49030304    0.36000001    2.84999990
   14.88472176   91.67919922    0.36000001    2.84999990
   14.88777733  102.75099945    0.36000001    2.84999990
   14.89111137   91.07029724    0.38000000    2.84999990
   14.89444447   99.44529724    0.38000000    2.84999990
   14.89527798  102.25399780    0.38000000    2.84999990
   14.89805508   96.61430359    0.36000001    2.84999990
   14.90138817   95.86199951    0.36000001    2.84999990
   14.90444374   95.48139954    0.36000001    2.84999990
   14.90777779   95.97989655    0.36000001    2.84999990
   14.91111088   95.14520264    0.36000001    2.84999990
   14.91694450   95.14520264    0.36000001    2.84999990
   14.92111111   98.80100250    0.36000001    2.84999990
   14.92444515   93.96360016    0.36000001    2.84999990
   14.92750072   94.85630035    0.36000001    2.84999990
   14.92888927  102.70400238    0.36000001    2.84999990
   14.93111134   97.42749786    0.36000001    2.84999990
   14.93444443   95.59519958    0.38000000    2.84999990
   14.93750000   96.61019897    0.36000001    2.84999990
   14.94083309   88.50479889    0.38000000    2.84999990
   14.94388866   91.64949799    0.38000000    2.84999990
   14.94722271   89.95780182    0.36000001    2.84999990
   14.95055580   92.29640198    0.36000001    2.84999990
   14.95361137   93.09439850    0.36000001    2.84999990
   14.97611046   89.66729736    0.38000000    2.84999990
   14.97666645   93.38529968    0.38000000    2.84999990
   14.97722149   89.54100037    0.40000001    2.84999990
   14.98055553   95.65309906    0.38000000    2.84999990
   14.98361111   98.54389954    0.38000000    2.84999990
   14.98694515   96.48410034    0.38000000    2.84999990
   14.99027824  100.54100037    0.38000000    2.84999990
   14.99333382   92.40339661    0.38000000    2.84999990
   14.99666691   96.67919922    0.38000000    2.84999990
   15.00249958   96.67919922    0.40000001    2.86999989
   15.00666714   91.90139771    0.38000000    2.84999990
   15.01000023   89.12329865    0.38000000    2.84999990
   15.01055527   90.66040039    0.38000000    2.84999990
   15.01361084   99.68530273    0.38000000    2.84999990
   15.01666641   93.92040253    0.38000000    2.84999990
   15.01999950   94.09079742    0.38000000    2.84999990
   15.02333355   93.06089783    0.36000001    2.86999989
   15.02638817   94.86679840    0.38000000    2.84999990
   15.02972221   93.41120148    0.38000000    2.84999990
   15.03277779   93.28170013    0.38000000    2.84999990
   15.03611183  102.43199921    0.38000000    2.86999989
   15.03944492   90.30780029    0.38000000    2.84999990
   15.04555607   90.30780029    0.38000000    2.84999990
   15.04972267   93.75610352    0.38000000    2.84999990
   15.05277824   97.12290192    0.38000000    2.84999990
   15.05611134   92.20230103    0.38000000    2.84999990
   15.05916691   96.49189758    0.36000001    2.86999989
   15.06250000   89.30130005    0.36000001    2.84999990
   15.06583309   93.50189972    0.36000001    2.84999990
   15.06916618   92.42430115    0.36000001    2.84999990
   15.07222176   85.73169708    0.36000001    2.86999989
   15.07555580   90.57649994    0.36000001    2.86999989
   15.07722187   95.74530029    0.36000001    2.86999989
   15.07916641   90.33049774    0.36000001    2.86999989
   15.08249950   95.70059967    0.36000001    2.86999989
   15.17777824   -1.00000000   -1.00000000   -1.00000000
   15.27805519   -1.00000000   -1.00000000   -1.00000000
   15.38416672   -1.00000000   -1.00000000   -1.00000000
   15.44972229   70.86609650    0.47999999    2.86999989
   15.45277786   97.62090302    0.47999999    2.86999989
   15.45611095   98.47270203    0.47999999    2.86999989
   15.45944405   84.74089813    0.47999999    2.86999989
   15.46249962  100.50700378    0.46000001    2.84999990
   15.46583271  107.08399963    0.46000001    2.84999990
   15.46999931  107.08399963    0.52999997    2.86999989
   15.47416592   96.35030365    0.52999997    2.84999990
   15.47722149  101.53299713    0.52999997    2.84999990
   15.48055553   91.20520020    0.52999997    2.86999989
   15.48277760   97.01039886    0.52999997    2.86999989
   15.48416710   93.87100220    0.51999998    2.86999989
   15.48750019   93.26969910    0.50000000    2.86999989
   15.49055576   95.31330109    0.46000001    2.86999989
   15.49388885   97.99790192    0.50000000    2.86999989
   15.49694443   96.89409637    0.50000000    2.86999989
   15.50027752  103.78600311    0.51999998    2.86999989
   15.50361156   99.68049622    0.52999997    2.89000010
   15.50666714  101.46600342    0.55000001    2.86999989
   15.51277733  101.46600342    0.50000000    2.86999989
   15.51694393   99.53440094    0.44000000    2.86999989
   15.52027798   95.95870209    0.41999999    2.84999990
   15.52333355   93.55049896    0.41999999    2.84999990
   15.52666664   91.94640350    0.41999999    2.84999990
   15.52972221  100.43399811    0.41999999    2.86999989
   15.53305531   92.83350372    0.41999999    2.86999989
   15.53638935   97.83709717    0.41999999    2.86999989
   15.53944492   93.35230255    0.44000000    2.86999989
   15.54277802   96.82019806    0.41999999    2.86999989
   15.54611111   95.68979645    0.40000001    2.86999989
   15.54916668   91.95359802    0.40000001    2.84999990
   15.54972267   95.32800293    0.40000001    2.84999990
   15.55555534   95.32800293    0.40000001    2.86999989
   15.55972195  102.97799683    0.40000001    2.86999989
   15.56305599   99.11730194    0.40000001    2.84999990
   15.56611156   94.08860016    0.40000001    2.84999990
   15.56944466   90.52549744    0.40000001    2.86999989
   15.57277775   88.75299835    0.40000001    2.84999990
   15.57583332   91.82350159    0.40000001    2.84999990
   15.57916641   96.32550049    0.40000001    2.86999989
   15.58249950   99.55480194    0.40000001    2.86999989
   15.58305550   96.83599854    0.40000001    2.86999989
   15.58611107   97.04949951    0.38000000    2.86999989
   15.58944416  101.50499725    0.38000000    2.84999990
   15.59249973   94.84619904    0.38000000    2.84999990
   15.59861088   94.84619904    0.40000001    2.84999990
   15.60249996   97.97119904    0.40000001    2.84999990
   15.60583401  100.79100037    0.40000001    2.86999989
   15.60916710  101.72799683    0.38000000    2.86999989
   15.61222267   93.49980164    0.38000000    2.84999990
   15.61555576   96.12819672    0.38000000    2.84999990
   15.61638927   95.83350372    0.38000000    2.84999990
   15.61916637  105.02500153    0.38000000    2.84999990
   15.62250042   98.52269745    0.40000001    2.86999989
   15.62555599  105.56900024    0.38000000    2.86999989
   15.62888908  107.32900238    0.38000000    2.84999990
   15.63222218   95.71240234    0.40000001    2.84999990
   15.63527775   95.30400085    0.40000001    2.84999990
   15.64138889   95.30400085    0.41999999    2.86999989
   15.64555550   94.53910065    0.41999999    2.84999990
   15.64861107   93.64479828    0.41999999    2.84999990
   15.64972210   91.00789642    0.41999999    2.86999989
   15.65222168   90.35410309    0.41999999    2.86999989
   15.65555477   98.91310120    0.41999999    2.86999989
   15.65861034   92.52680206    0.40000001    2.86999989
   15.66194439   99.99770355    0.38000000    2.86999989
   15.66499996   98.68270111    0.40000001    2.86999989
   15.66833401   95.02269745    0.40000001    2.86999989
   15.67166710   96.89589691    0.36000001    2.86999989
   15.67472267   99.27940369    0.36000001    2.86999989
   15.67805576   96.84680176    0.34000000    2.86999989
   15.68416691   96.84680176    0.36000001    2.89000010
   15.68833351   97.60849762    0.34000000    2.86999989
   15.69166660  102.68900299    0.34000000    2.86999989
   15.69472218  100.45700073    0.36000001    2.86999989
   15.69805527   92.91390228    0.36000001    2.86999989
   15.70138836   96.47260284    0.36000001    2.84999990
   15.70444393   97.28209686    0.36000001    2.86999989
   15.70777798  101.34200287    0.36000001    2.86999989
   15.71111107   97.82270050    0.36000001    2.86999989
   15.71416664   95.50969696    0.38000000    2.86999989
   15.71638870   96.88790131    0.38000000    2.86999989
   15.71805477  106.06600189    0.38000000    2.86999989
   15.74000072   91.56649780    0.40000001    2.84999990
   15.74416733   91.56649780    0.41999999    2.84999990
   15.74833393  102.57900238    0.44000000    2.84999990
   15.75138855  100.06199646    0.41999999    2.86999989
   15.75472260  102.79799652    0.44000000    2.84999990
   15.75555515  102.76100159    0.44000000    2.86999989
   15.75833321   90.75340271    0.41999999    2.84999990
   15.76138878   96.90660095    0.40000001    2.86999989
   15.76472187  103.08799744    0.38000000    2.84999990
   15.76805496   93.55370331    0.38000000    2.86999989
   15.77111053   99.09919739    0.38000000    2.84999990
   15.77444458   97.14710236    0.41999999    2.86999989
   15.77777767  100.95200348    0.41999999    2.86999989
   15.78083324  101.48500061    0.41999999    2.84999990
   15.78694534  101.48500061    0.41999999    2.84999990
   15.79111195   99.47579956    0.41999999    2.84999990
   15.79444504   96.64630127    0.41999999    2.86999989
   15.79750061   98.03919983    0.41999999    2.86999989
   15.80083370  100.18399811    0.41999999    2.86999989
   15.80416679  102.91600037    0.41999999    2.86999989
   15.80749989  101.45899963    0.40000001    2.86999989
   15.81055546  102.43299866    0.41999999    2.84999990
   15.81388950   93.77349854    0.40000001    2.86999989
   15.81694412   99.65859985    0.40000001    2.86999989
   15.82027817   93.31790161    0.41999999    2.84999990
   15.82222176   94.28970337    0.41999999    2.84999990
   15.82388878   99.54180145    0.41999999    2.86999989
   15.82972240   99.54180145    0.41999999    2.84999990
   15.83388901   98.76329803    0.44000000    2.86999989
   15.83722210  101.75499725    0.44000000    2.86999989
   15.84027767   94.69779968    0.44000000    2.86999989
   15.84361076   97.89530182    0.44000000    2.86999989
   15.84694386   97.97429657    0.44000000    2.84999990
   15.85000038  102.92400360    0.44000000    2.84999990
   15.85333347   94.01280212    0.44000000    2.84999990
   15.85555553   97.55059814    0.44000000    2.84999990
   15.85694504   90.19850159    0.44000000    2.84999990
   15.86027813   98.53099823    0.41999999    2.84999990
   15.86333370   91.96189880    0.40000001    2.86999989
   15.86666679   88.25389862    0.38000000    2.86999989
   15.87250042   88.25389862    0.36000001    2.86999989
   15.87666702   99.72070313    0.36000001    2.86999989
   15.88000011   90.11949921    0.36000001    2.86999989
   15.88333321   96.71459961    0.34000000    2.86999989
   15.88638878   92.57659912    0.38000000    2.86999989
   15.88916683  100.82499695    0.38000000    2.86999989
   15.89027786   95.03790283    0.38000000    2.86999989
   15.89361095   95.44270325    0.38000000    2.86999989
   15.89666653  105.06700134    0.38000000    2.86999989
   15.89999962   92.40850067    0.44000000    2.86999989
   15.90305519   96.56379700    0.44000000    2.86999989
   15.90638828   93.44339752    0.44000000    2.86999989
   15.90972137   92.42579651    0.44000000    2.86999989
   15.91555500   92.42579651    0.41999999    2.86999989
   15.91972256   92.76619720    0.41999999    2.86999989
   15.92250061   98.48120117    0.44000000    2.86999989
   15.92333412   93.53160095    0.41999999    2.86999989
   15.92638874   93.27290344    0.41999999    2.84999990
   15.92972279   98.71219635    0.41999999    2.86999989
   15.93305588   93.27069855    0.40000001    2.86999989
   15.93611145   91.27899933    0.41999999    2.86999989
   15.93944454   99.61769867    0.41999999    2.86999989
   15.94250011   91.98259735    0.41999999    2.86999989
   15.94583321   87.54650116    0.44000000    2.86999989
   15.94916630   95.02770233    0.44000000    2.84999990
   15.95222187   97.65740204    0.44000000    2.86999989
   15.95833302   97.65740204    0.44000000    2.84999990
   15.96249962   97.95760345    0.47999999    2.86999989
   15.96555519   97.29489899    0.51999998    2.84999990
   15.96888828   90.12999725    0.50000000    2.86999989
   15.97222137   98.92240143    0.50000000    2.86999989
   15.97527695   94.02899933    0.47999999    2.86999989
   15.97861099  101.19400024    0.46000001    2.84999990
   15.98194408   93.50000000    0.44000000    2.86999989
   15.98500061  100.71700287    0.44000000    2.84999990
   15.98833370   99.73490143    0.40000001    2.86999989
   15.98916721   99.36859894    0.40000001    2.86999989
   15.99194431   98.79090118    0.40000001    2.86999989
   15.99499989   97.81759644    0.40000001    2.86999989
   16.00111198   97.81759644    0.38000000    2.86999989
   16.00527763   97.86009979    0.38000000    2.86999989
   16.00861168   92.52529907    0.40000001    2.86999989
   16.01166725   95.75070190    0.40000001    2.86999989
   16.01499939   99.65789795    0.40000001    2.86999989
   16.01805496   95.59860229    0.40000001    2.86999989
   16.02138901   95.88289642    0.44000000    2.86999989
   16.02249908   93.59770203    0.44000000    2.86999989
   16.02499962   98.89869690    0.44000000    2.86999989
   16.02805519   95.20449829    0.44000000    2.86999989
   16.03138924   97.73979950    0.46000001    2.84999990
   16.03472137   97.57559967    0.47999999    2.86999989
   16.03777695   90.72959900    0.50000000    2.84999990
   16.04388809   90.72959900    0.51999998    2.84999990
   16.04805565   99.21520233    0.55000001    2.86999989
   16.05138779   88.09110260    0.56999999    2.86999989
   16.05444336   94.00250244    0.56999999    2.84999990
   16.05611038   89.45610046    0.56999999    2.84999990
   16.05833244  100.51399994    0.56999999    2.84999990
   16.06138802   87.88189697    0.58999997    2.86999989
   16.06472206   97.01139832    0.58999997    2.86999989
   16.06777954   95.68260193    0.56999999    2.84999990
   16.07111168  127.21399689    0.56999999    2.84999990
   16.07444572   93.19280243    0.56999999    2.84999990
   16.07750130   93.26959991    0.56999999    2.84999990
   16.08083344   95.24320221    0.55000001    2.84999990
   16.08694458   95.24320221    0.52999997    2.84999990
   16.09083366  106.75299835    0.51999998    2.86999989
   16.09416771   97.84970093    0.51999998    2.84999990
   16.09749985   94.72440338    0.51999998    2.84999990
   16.10055542   98.64389801    0.47999999    2.84999990
   16.10388947   98.66770172    0.47999999    2.86999989
   16.10694504   94.94120026    0.51999998    2.84999990
   16.11027908   97.89510345    0.51999998    2.84999990
   16.11361122   95.87989807    0.51999998    2.84999990
   16.11666679   92.02500153    0.51999998    2.84999990
   16.12000084   94.30220032    0.51999998    2.86999989
   16.12277794   94.18769836    0.51999998    2.86999989
   16.12361145   94.07620239    0.52999997    2.84999990
   16.12972260   94.07620239    0.51999998    2.86999989
   16.13388824   97.58460236    0.51999998    2.86999989
   16.13694382  100.44599915    0.51999998    2.84999990
   16.14027786   99.32039642    0.51999998    2.84999990
   16.14361191  100.48600006    0.50000000    2.86999989
   16.14666748  102.90499878    0.50000000    2.86999989
   16.14999962  102.08300018    0.50000000    2.84999990
   16.15333366   98.23760223    0.47999999    2.84999990
   16.15611076  102.61100006    0.46000001    2.86999989
   16.15694427  103.95500183    0.46000001    2.86999989
   16.15999985   98.49759674    0.47999999    2.84999990
   16.16333389   97.72389984    0.50000000    2.86999989
   16.16666603   96.08809662    0.51999998    2.86999989
   16.17249870   96.08809662    0.51999998    2.86999989
   16.17666626  104.31800079    0.51999998    2.84999990
   16.17972183   98.35440063    0.51999998    2.86999989
   16.18305397  100.89399719    0.52999997    2.84999990
   16.18638802   95.62129974    0.51999998    2.84999990
   16.18944359   94.86090088    0.52999997    2.86999989
   16.18999863  102.12000275    0.52999997    2.86999989
   16.19305420   93.04260254    0.52999997    2.86999989
   16.19638824   93.28340149    0.50000000    2.86999989
   16.19944382   92.73650360    0.50000000    2.84999990
   16.20277786   92.74490356    0.50000000    2.84999990
   16.20611191   95.67849731    0.50000000    2.84999990
   16.20916748   87.55850220    0.50000000    2.84999990
   16.21527863   87.55850220    0.46000001    2.84999990
   16.21944427   94.99810028    0.46000001    2.86999989
   16.22277832   95.13439941    0.44000000    2.86999989
   16.22333336   91.05139923    0.44000000    2.86999989
   16.22638893   97.47480011    0.41999999    2.86999989
   16.22972298   92.30809784    0.41999999    2.86999989
   16.23305511   91.10549927    0.41999999    2.86999989
   16.23611069   94.52780151    0.44000000    2.86999989
   16.23944473   96.07849884    0.44000000    2.86999989
   16.24250031   97.16960144    0.44000000    2.86999989
   16.24583435  100.34899902    0.41999999    2.86999989
   16.24916649   95.81580353    0.41999999    2.86999989
   16.25222206   92.64769745    0.44000000    2.86999989
   16.25833321   92.64769745    0.46000001    2.84999990
   16.26222229   89.59420013    0.47999999    2.86999989
   16.26555634   95.64170074    0.50000000    2.84999990
   16.26888847   98.09860229    0.52999997    2.86999989
   16.27194405   95.40409851    0.51999998    2.84999990
   16.27527809   89.91560364    0.51999998    2.84999990
   16.27861023   93.20169830    0.51999998    2.84999990
   16.28166580   93.80269623    0.52999997    2.84999990
   16.28499985   93.22840118    0.52999997    2.84999990
   16.28805542   93.30560303    0.50000000    2.86999989
   16.28944397   96.14720154    0.44000000    2.84999990
   16.29194450   86.52359772    0.44000000    2.84999990
   16.29500008   98.02040100    0.41999999    2.86999989
   16.30111122   98.02040100    0.41999999    2.86999989
   16.30527687   91.77390289    0.41999999    2.86999989
   16.30833244   93.78060150    0.40000001    2.86999989
   16.31166649   88.87729645    0.40000001    2.86999989
   16.31472206   89.38639832    0.40000001    2.86999989
   16.31805611   88.53700256    0.46000001    2.84999990
   16.32139015   92.63469696    0.46000001    2.86999989
   16.32277870   93.29889679    0.46000001    2.86999989
   16.32500076   89.14019775    0.47999999    2.86999989
   16.32805634   91.62750244    0.50000000    2.86999989
   16.33139038   90.24169922    0.47999999    2.84999990
   16.33472252   93.84850311    0.47999999    2.86999989
   16.33777809   91.02269745    0.50000000    2.86999989
   16.34388924   91.02269745    0.50000000    2.86999989
   16.34805679   96.55400085    0.52999997    2.84999990
   16.35111237   88.50330353    0.51999998    2.84999990
   16.35444450  101.61699677    0.51999998    2.84999990
   16.35639000   90.59590149    0.51999998    2.84999990
   16.35805511   94.91850281    0.55000001    2.86999989
   16.36138916   94.33740234    0.56999999    2.84999990
   16.36472321   92.53800201    0.56999999    2.84999990
   16.36777878   96.07720184    0.55000001    2.84999990
   16.37111092   90.93579865    0.55000001    2.84999990
   16.37444496   96.80580139    0.51999998    2.84999990
   16.37750053   94.37960052    0.47999999    2.86999989
   16.38083267   89.22229767    0.47999999    2.86999989
   16.38666725   89.22229767    0.47999999    2.86999989
   16.39083290   92.97319794    0.50000000    2.84999990
   16.39416695   90.62650299    0.51999998    2.84999990
   16.39749908   93.91880035    0.51999998    2.84999990
   16.40055466   99.01080322    0.51999998    2.84999990
   16.40388870   94.48190308    0.51999998    2.84999990
   16.40694427   93.33229828    0.50000000    2.84999990
   16.41027832   86.90139771    0.50000000    2.84999990
   16.41361046   92.59480286    0.47999999    2.86999989
   16.41666603   95.05970001    0.50000000    2.86999989
   16.42000008   90.46330261    0.50000000    2.86999989
   16.42305565   87.12439728    0.50000000    2.84999990
   16.42361069   93.09609985    0.50000000    2.84999990
   16.42972183   93.09609985    0.50000000    2.86999989
   16.43361092   87.83670044    0.46000001    2.86999989
   16.43694305   91.11409760    0.41999999    2.86999989
   16.44027710   88.27929688    0.41999999    2.84999990
   16.44333267   85.06510162    0.41999999    2.86999989
   16.44666672   91.52120209    0.40000001    2.86999989
   16.45000076   91.95089722    0.41999999    2.86999989
   16.45305634   86.58000183    0.40000001    2.86999989
   16.45639038   81.92790222    0.40000001    2.86999989
   16.45666695   88.83910370    0.40000001    2.86999989
   16.46000099   96.89109802    0.40000001    2.86999989
   16.46333504   90.52200317    0.40000001    2.86999989
   16.46638870   91.77330017    0.40000001    2.86999989
   16.48777771   91.77330017    0.44000000    2.86999989
   16.49194527   89.78220367    0.41999999    2.86999989
   16.49527740   90.32180023    0.41999999    2.84999990
   16.49861145   83.82009888    0.44000000    2.84999990
   16.50166702   89.55829620    0.44000000    2.86999989
   16.50499916   85.40450287    0.44000000    2.86999989
   16.50833321   86.65260315    0.44000000    2.84999990
   16.51138878   89.34950256    0.44000000    2.86999989
   16.51472282   90.53980255    0.44000000    2.86999989
   16.51777840  140.72000122    0.44000000    2.84999990
   16.52111053   90.54139709    0.44000000    2.86999989
   16.52305603   89.49109650    0.44000000    2.86999989
   16.52499962   90.78489685    0.44000000    2.86999989
   16.53055573   90.78489685    0.44000000    2.86999989
   16.53472137   87.53399658    0.44000000    2.86999989
   16.53805542   91.13150024    0.40000001    2.86999989
   16.54138756   91.41149902    0.40000001    2.86999989
   16.54444313   89.48040009    0.38000000    2.86999989
   16.54777718   87.11499786    0.38000000    2.86999989
   16.55083275   84.74839783    0.38000000    2.86999989
   16.55416679   91.24549866    0.38000000    2.86999989
   16.55638885   86.08080292    0.38000000    2.86999989
   16.55805397   90.56939697    0.38000000    2.86999989
   16.56110954   91.58339691    0.38000000    2.86999989
   16.56444359   96.71630096    0.38000000    2.86999989
   16.56750107   87.73229980    0.38000000    2.86999989
   16.57361221   87.73229980    0.38000000    2.84999990
   16.57750130   91.84200287    0.38000000    2.86999989
   16.58083344   94.27400208    0.40000001    2.86999989
   16.58416748   88.05670166    0.40000001    2.86999989
   16.58722305   93.43080139    0.38000000    2.84999990
   16.58972359   87.69840240    0.38000000    2.84999990
   16.59111214   87.88469696    0.36000001    2.86999989
   16.59416771   84.35890198    0.38000000    2.86999989
   16.59749985   91.49620056    0.38000000    2.86999989
   16.60055542   90.35890198    0.38000000    2.86999989
   16.60388947   85.62580109    0.36000001    2.86999989
   16.60722351   87.07009888    0.36000001    2.86999989
   16.61027908   90.92960358    0.38000000    2.86999989
   16.61638832   90.92960358    0.41999999    2.86999989
   16.62055588   89.92330170    0.41999999    2.86999989
   16.62305641   88.54170227    0.41999999    2.86999989
   16.62416649   90.68620300    0.44000000    2.86999989
   16.62722206   91.07460022    0.46000001    2.86999989
   16.63055611   94.90029907    0.44000000    2.86999989
   16.63361168   88.57689667    0.46000001    2.84999990
   16.63694382   84.22160339    0.46000001    2.86999989
   16.64027786   92.06150055    0.46000001    2.84999990
   16.64333344   90.83249664    0.47999999    2.84999990
   16.64666748   93.55930328    0.47999999    2.84999990
   16.64999962   88.46219635    0.47999999    2.84999990
   16.65305519   93.78160095    0.47999999    2.86999989
   16.65916634   93.78160095    0.46000001    2.86999989
   16.66333389   89.07209778    0.44000000    2.86999989
   16.66666603   97.38009644    0.41999999    2.86999989
   16.66972160   90.86170197    0.40000001    2.86999989
   16.67305565   90.04129791    0.40000001    2.86999989
   16.67611122   88.67970276    0.40000001    2.86999989
   16.67944336   94.61009979    0.40000001    2.86999989
   16.68277740   98.67549896    0.40000001    2.86999989
   16.68583298   86.62860107    0.40000001    2.86999989
   16.68916512   93.16919708    0.40000001    2.86999989
   16.68999863   93.26740265    0.40000001    2.86999989
   16.69277763   95.07589722    0.40000001    2.86999989
   16.69610977   94.84140015    0.40000001    2.86999989
   16.70194435   94.84140015    0.40000001    2.86999989
   16.70611191   86.90699768    0.40000001    2.86999989
   16.70944595   87.77230072    0.40000001    2.86999989
   16.71250153   92.41770172    0.40000001    2.86999989
   16.71583366   88.29509735    0.40000001    2.86999989
   16.71916771   93.06620026    0.40000001    2.86999989
   16.72222328   88.12670135    0.38000000    2.86999989
   16.72333336   87.26419830    0.38000000    2.86999989
   16.72583389   88.97709656    0.38000000    2.86999989
   16.72916794   89.71260071    0.40000001    2.86999989
   16.73250008   89.13870239    0.40000001    2.86999989
   16.73555565   95.85260010    0.40000001    2.86999989
   16.73888969   93.33809662    0.40000001    2.86999989
   16.74500084   93.33809662    0.44000000    2.86999989
   16.74888992   92.53990173    0.46000001    2.84999990
   16.75222206   90.81109619    0.46000001    2.84999990
   16.75555611   86.59600067    0.46000001    2.86999989
   16.75694466   91.44270325    0.46000001    2.86999989
   16.75916672   90.21479797    0.44000000    2.84999990
   16.76222229   88.55249786    0.44000000    2.86999989
   16.76555634   83.64219666    0.44000000    2.86999989
   16.76888847   88.83350372    0.44000000    2.86999989
   16.77194405   86.08750153    0.41999999    2.86999989
   16.77527809   85.74099731    0.40000001    2.86999989
   16.77833366   87.07749939    0.40000001    2.86999989
   16.78166580   91.28919983    0.40000001    2.86999989
   16.78777695   91.28919983    0.40000001    2.86999989
   16.79194450   93.29460144    0.36000001    2.86999989
   16.79500008   92.13059998    0.36000001    2.86999989
   16.79833221   89.50340271    0.38000000    2.86999989
   16.80166626   92.76020050    0.38000000    2.86999989
   16.80472183   93.17489624    0.38000000    2.86999989
   16.80805397   93.48269653    0.38000000    2.86999989
   16.81110954   93.13549805    0.36000001    2.86999989
   16.81444359   95.68019867    0.36000001    2.86999989
   16.81777954   94.12629700    0.38000000    2.86999989
   16.82083511   96.92500305    0.38000000    2.86999989
   16.82361221   92.36579895    0.36000001    2.86999989
   16.82472229   93.56159973    0.36000001    2.86999989
   16.83055687   93.56159973    0.36000001    2.86999989
   16.83472252   94.23690033    0.34000000    2.86999989
   16.83805656   98.27110291    0.34000000    2.86999989
   16.84111214   92.33319855    0.34000000    2.86999989
   16.84444427   94.51419830    0.34000000    2.86999989
   16.84749985   93.44999695    0.31999999    2.86999989
   16.85083389   95.44090271    0.31999999    2.86999989
   16.85416794   88.81079865    0.31999999    2.89000010
   16.85694504   92.39109802    0.31999999    2.86999989
   16.85777855   93.67870331    0.31999999    2.86999989
   16.86083412   96.35399628    0.34000000    2.86999989
   16.86416626   91.02079773    0.34000000    2.86999989
   16.86750031   92.01650238    0.31999999    2.86999989
   16.87333298   92.01650238    0.31999999    2.86999989
   16.87750053   90.80120087    0.31999999    2.86999989
   16.88083267   92.20719910    0.31999999    2.86999989
   16.88388824   95.73979950    0.31999999    2.86999989
   16.88722229   97.25050354    0.31999999    2.86999989
   16.89027786   91.24279785    0.31999999    2.86999989
   16.89083290   97.52220154    0.31999999    2.86999989
   16.89388847   91.75800323    0.34000000    2.86999989
   16.89722252  100.64199829    0.36000001    2.86999989
   16.90055466   94.72119904    0.36000001    2.86999989
   16.90361023   94.63590240    0.34000000    2.86999989
   16.90694427   91.18659973    0.34000000    2.86999989
   16.91027832   88.60520172    0.34000000    2.86999989
   16.91638756   88.60520172    0.34000000    2.86999989
   16.92027664   85.28089905    0.34000000    2.86999989
   16.92361069   86.93129730    0.34000000    2.86999989
   16.92416573   88.27249908    0.34000000    2.86999989
   16.92722130   87.84690094    0.34000000    2.86999989
   16.93055534   86.20939636    0.34000000    2.86999989
   16.93388748   90.05680084    0.34000000    2.86999989
   16.93694305   87.00479889    0.34000000    2.86999989
   16.94027710   91.47219849    0.34000000    2.86999989
   16.94361115   89.87220001    0.34000000    2.86999989
   16.94666672   82.74210358    0.34000000    2.86999989
   16.95000076   94.97209930    0.34000000    2.89000010
   16.95305634   91.11959839    0.34000000    2.86999989
   16.95916748   91.11959839    0.34000000    2.86999989
   16.96333504   85.25469971    0.34000000    2.86999989
   16.96638870   85.06610107    0.31999999    2.86999989
   16.96972275   87.89430237    0.31999999    2.86999989
   16.97305679   90.68360138    0.31999999    2.89000010
   16.97611237   85.99700165    0.31999999    2.89000010
   16.97944450   89.62619781    0.31999999    2.86999989
   16.98250008   86.91490173    0.31999999    2.86999989
   16.98583412   89.71800232    0.31999999    2.86999989
   16.98916626   87.07589722    0.31999999    2.86999989
   16.99027824   87.09619904    0.31999999    2.86999989
   16.99277878   92.47550201    0.31999999    2.86999989
   16.99583435   84.86569977    0.31999999    2.86999989
   17.00194359   84.86569977    0.31999999    2.86999989
   17.00611115   84.67009735    0.31999999    2.89000010
   17.00916672   85.22319794    0.31999999    2.86999989
   17.01250076   91.93699646    0.34000000    2.89000010
   17.01583290   88.39469910    0.34000000    2.86999989
   17.01888847   95.16400146    0.36000001    2.86999989
   17.02222252   83.31159973    0.36000001    2.86999989
   17.02361107   88.91069794    0.36000001    2.86999989
   17.02583313   90.29789734    0.38000000    2.86999989
   17.02888870   89.93090057    0.38000000    2.86999989
   17.03222275   92.66539764    0.36000001    2.86999989
   17.03555489   89.58010101    0.38000000    2.86999989
   17.03861046   90.97260284    0.40000001    2.86999989
   17.04472160   90.97260284    0.40000001    2.86999989
   17.04888916   92.48210144    0.40000001    2.86999989
   17.05222130   89.18779755    0.40000001    2.86999989
   17.05527687   95.63410187    0.38000000    2.86999989
   17.05722237   96.31819916    0.38000000    2.86999989
   17.05916595   95.06459808    0.38000000    2.86999989
   17.06222153   92.80079651    0.38000000    2.86999989
   17.06555557   91.53649902    0.38000000    2.86999989
   17.06888962   96.44599915    0.36000001    2.86999989
   17.07194519   92.16739655    0.36000001    2.86999989
   17.07527924   87.47899628    0.36000001    2.86999989
   17.07833481   91.41609955    0.36000001    2.86999989
   17.08166695   87.89669800    0.38000000    2.86999989
   17.08777809   87.89669800    0.36000001    2.86999989
   17.09166718   95.06069946    0.36000001    2.86999989
   17.09500122   90.74459839    0.36000001    2.86999989
   17.09833336   94.04910278    0.36000001    2.86999989
   17.10138893   87.97360229    0.34000000    2.86999989
   17.10472298   88.63259888    0.36000001    2.89000010
   17.10805511   97.65000153    0.36000001    2.89000010
   17.11111069   90.78970337    0.38000000    2.86999989
   17.11444473   95.18589783    0.38000000    2.86999989
   17.11750031  101.54000092    0.40000001    2.86999989
   17.12083435  100.64499664    0.40000001    2.86999989
   17.12388992   98.15529633    0.40000001    2.86999989
   17.12472153   92.19159698    0.40000001    2.86999989
   17.13055611   92.19159698    0.38000000    2.86999989
   17.13472176   95.68689728    0.38000000    2.86999989
   17.13777733   98.89099884    0.38000000    2.86999989
   17.14111137   97.87139893    0.38000000    2.86999989
   17.14416695   94.82990265    0.40000001    2.86999989
   17.14749908   90.93869781    0.40000001    2.86999989
   17.15083313   93.19380188    0.40000001    2.86999989
   17.15388870   94.34750366    0.40000001    2.86999989
   17.15722275   98.96690369    0.40000001    2.86999989
   17.15777779   96.73470306    0.40000001    2.86999989
   17.16083336   93.51709747    0.40000001    2.86999989
   17.16416550  145.47200012    0.40000001    2.86999989
   17.16722107   89.64759827    0.40000001    2.86999989
   17.17333221   89.64759827    0.38000000    2.86999989
   17.17749977   86.18959808    0.38000000    2.86999989
   17.18055534   83.78910065    0.40000001    2.86999989
   17.18388748   86.95490265    0.40000001    2.86999989
   17.18722153   90.94899750    0.40000001    2.86999989
   17.19027710   83.03730011    0.40000001    2.86999989
   17.19083214   85.06459808    0.40000001    2.86999989
   17.19416618   87.97979736    0.38000000    2.86999989
   17.19749832   91.14530182    0.38000000    2.86999989
   17.20055580   80.02549744    0.40000001    2.86999989
   17.20388985   83.25330353    0.38000000    2.86999989
   17.20722389   94.95459747    0.40000001    2.86999989
   17.21027946   92.51640320    0.40000001    2.86999989
   17.21611214   92.51640320    0.41999999    2.86999989
   17.22027779   89.14119720    0.44000000    2.86999989
   17.22361183   87.52809906    0.41999999    2.86999989
   17.22416687   87.18160248    0.41999999    2.86999989
   17.22722244   90.38559723    0.44000000    2.86999989
   17.23055649   87.68229675    0.44000000    2.86999989
   17.23361206   89.74600220    0.44000000    2.86999989
   17.23694420   89.80460358    0.44000000    2.86999989
   17.23999977   88.58979797    0.44000000    2.84999990
   17.24333382   89.03739929    0.46000001    2.86999989
   17.24666786   85.41200256    0.46000001    2.86999989
   17.24972153   87.52279663    0.46000001    2.86999989
   17.25305557   88.45330048    0.46000001    2.86999989
   17.25888824   88.45330048    0.46000001    2.86999989
   17.26305580   85.26419830    0.44000000    2.86999989
   17.26638794   90.34860229    0.44000000    2.86999989
   17.26972198   88.88800049    0.46000001    2.86999989
   17.27277756   88.46060181    0.44000000    2.86999989
   17.27611160   90.45770264    0.44000000    2.86999989
   17.27916718   87.91690063    0.41999999    2.86999989
   17.28249931   87.83470154    0.41999999    2.86999989
   17.28583336   87.12370300    0.41999999    2.86999989
   17.28888893   87.49929810    0.41999999    2.86999989
   17.29083252   87.15840149    0.41999999    2.86999989
   17.29249954   88.74880219    0.41999999    2.86999989
   17.29583359   86.27359772    0.44000000    2.86999989
   17.30194283   86.27359772    0.44000000    2.86999989
   17.30611038   88.38089752    0.44000000    2.86999989
   17.30916595   86.89800262    0.44000000    2.84999990
   17.31250000   88.79170227    0.44000000    2.86999989
   17.31555557   87.65760040    0.44000000    2.86999989
   17.31888962   88.16049957    0.44000000    2.86999989
   17.32222366   85.51860046    0.44000000    2.86999989
   17.32416725   87.40679932    0.44000000    2.86999989
   17.32583427   84.47080231    0.44000000    2.86999989
   17.32916832   88.34649658    0.44000000    2.86999989
   17.33222389   86.30729675    0.44000000    2.86999989
   17.33555603   87.38569641    0.44000000    2.86999989
   17.33861160   86.95719910    0.44000000    2.86999989
   17.34472275   86.95719910    0.46000001    2.86999989
   17.34889030   87.44280243    0.47999999    2.86999989
   17.35222244   88.86830139    0.47999999    2.86999989
   17.35527802   87.76069641    0.47999999    2.86999989
   17.35750008   90.06099701    0.47999999    2.86999989
   17.35888863   89.53669739    0.47999999    2.86999989
   17.36222267   97.86699677    0.47999999    2.86999989
   17.36527824   95.59300232    0.47999999    2.86999989
   17.36861038   88.15339661    0.47999999    2.86999989
   17.37194443   90.71890259    0.47999999    2.86999989
   17.37500000   88.44599915    0.46000001    2.84999990
   17.37833405   91.03780365    0.46000001    2.86999989
   17.38138962   92.02169800    0.46000001    2.86999989
   17.38750076   92.02169800    0.44000000    2.86999989
   17.39166641   88.00309753    0.46000001    2.86999989
   17.39500046   91.21949768    0.46000001    2.86999989
   17.39805603   87.56980133    0.44000000    2.86999989
   17.40138817   89.49210358    0.44000000    2.84999990
   17.40472221   90.35430145    0.44000000    2.84999990
   17.40777779   93.70729828    0.44000000    2.84999990
   17.41110992   91.03459930    0.44000000    2.84999990
   17.41444397   89.86560059    0.41999999    2.86999989
   17.41749954   88.48179626    0.44000000    2.86999989
   17.42083359   91.64520264    0.44000000    2.86999989
   17.42388916   86.07450104    0.41999999    2.86999989
   17.42444420   90.62020111    0.41999999    2.86999989
   17.43027687   90.62020111    0.41999999    2.84999990
   17.43444443   88.01999664    0.41999999    2.86999989
   17.43777657   90.84300232    0.41999999    2.86999989
   17.44111061   90.52310181    0.41999999    2.86999989
   17.44416618   89.62419891    0.41999999    2.86999989
   17.44749832   90.83129883    0.44000000    2.86999989
   17.45055580   88.99299622    0.44000000    2.84999990
   17.45388985   89.35759735    0.44000000    2.84999990
   17.45722389   85.91580200    0.41999999    2.86999989
   17.45777893   89.00769806    0.41999999    2.86999989
   17.46083450   87.39320374    0.41999999    2.86999989
   17.46416664   91.24510193    0.41999999    2.86999989
   17.46722221   91.60289764    0.41999999    2.84999990
   17.47333336   91.60289764    0.41999999    2.84999990
   17.47722244   85.97619629    0.41999999    2.84999990
   17.48055649   92.42600250    0.44000000    2.86999989
   17.48388863   94.29340363    0.44000000    2.86999989
   17.50138855   88.05180359    0.46000001    2.86999989
   17.50361061   87.03910065    0.46000001    2.86999989
   17.50694466   86.99530029    0.46000001    2.86999989
   17.51000023   87.17330170    0.46000001    2.86999989
   17.51638794   87.17330170    0.46000001    2.84999990
   17.52027702   90.93350220    0.47999999    2.86999989
   17.52361107   94.79989624    0.46000001    2.86999989
   17.52694511   89.11250305    0.46000001    2.84999990
   17.53000069   95.50460052    0.46000001    2.86999989
   17.53333282   89.84120178    0.46000001    2.86999989
   17.53472137   94.66490173    0.46000001    2.86999989
   17.53722191   95.83190155    0.46000001    2.86999989
   17.54027748   95.64270020    0.46000001    2.86999989
   17.54361153   91.11730194    0.46000001    2.84999990
   17.54666710   95.96829987    0.46000001    2.84999990
   17.54999924  101.14600372    0.46000001    2.86999989
   17.55333328   97.45960236    0.46000001    2.86999989
   17.55916595   97.45960236    0.46000001    2.84999990
   17.56333351   90.64430237    0.46000001    2.86999989
   17.56638718   91.08750153    0.46000001    2.86999989
   17.56805611   86.67659760    0.46000001    2.84999990
   17.57027817   89.29920197    0.46000001    2.84999990
   17.57333374   84.71440125    0.46000001    2.86999989
   17.57666779   85.95339966    0.46000001    2.86999989
   17.57972336   86.54380035    0.44000000    2.86999989
   17.58305550   89.49909973    0.44000000    2.86999989
   17.58638954   87.56670380    0.44000000    2.86999989
   17.58944511   89.90950012    0.44000000    2.86999989
   17.59277916   92.13600159    0.46000001    2.84999990
   17.59611130   87.06349945    0.46000001    2.86999989
   17.60194397   87.06349945    0.46000001    2.84999990
   17.60611153   89.04380035    0.47999999    2.86999989
   17.60944557   88.53970337    0.47999999    2.86999989
   17.61250114   89.67359924    0.47999999    2.84999990
   17.61583328   87.64399719    0.50000000    2.86999989
   17.61888885   85.74990082    0.50000000    2.86999989
   17.62222290   87.61460114    0.50000000    2.86999989
   17.62555504   85.43750000    0.50000000    2.84999990
   17.62861061   86.25569916    0.50000000    2.84999990
   17.63194466   87.00969696    0.50000000    2.84999990
   17.63472176   86.63970184    0.50000000    2.84999990
   17.63583374   87.32019806    0.50000000    2.84999990
   17.63888931   89.63529968    0.50000000    2.84999990
   17.64472198   89.63529968    0.50000000    2.84999990
   17.64888954   90.05400085    0.50000000    2.86999989
   17.65222168   85.90329742    0.50000000    2.84999990
   17.65555573   88.63120270    0.47999999    2.84999990
   17.65861130   85.74590302    0.47999999    2.84999990
   17.66194344   89.98760223    0.50000000    2.86999989
   17.66499901   86.88150024    0.50000000    2.86999989
   17.66805458   89.57260132    0.50000000    2.86999989
   17.66888809   85.45570374    0.50000000    2.86999989
   17.67194366   86.78959656    0.50000000    2.86999989
   17.67527771   93.78790283    0.50000000    2.84999990
   17.67833328   85.61669922    0.50000000    2.84999990
   17.68166542   87.28679657    0.50000000    2.84999990
   17.68777657   87.28679657    0.50000000    2.84999990
   17.69194412   90.82050323    0.50000000    2.86999989
   17.69499969   90.09819794    0.50000000    2.86999989
   17.69833183   86.01190186    0.50000000    2.86999989
   17.70138931   89.99430084    0.51999998    2.84999990
   17.70194435   83.98519897    0.51999998    2.84999990
   17.70499992   90.61820221    0.51999998    2.84999990
   17.70833397   84.68959808    0.51999998    2.86999989
   17.71138954   81.73329926    0.50000000    2.84999990
   17.71472359   86.59590149    0.51999998    2.84999990
   17.71805573   86.51039886    0.51999998    2.84999990
   17.72111130   87.21330261    0.51999998    2.84999990
   17.72444534   84.35949707    0.52999997    2.86999989
   17.73055649   84.35949707    0.52999997    2.86999989
   17.73472214   91.75170135    0.55000001    2.84999990
   17.73527718   92.50830078    0.55000001    2.84999990
   17.73833275   88.83689880    0.55000001    2.84999990
   17.74166679   87.64450073    0.55000001    2.84999990
   17.74500084   87.96389771    0.52999997    2.84999990
   17.74805641   84.21859741    0.52999997    2.84999990
   17.75138855   85.70709991    0.55000001    2.84999990
   17.75444412   87.16889954    0.52999997    2.84999990
   17.75777817   87.76100159    0.52999997    2.84999990
   17.76111031   86.90319824    0.52999997    2.84999990
   17.76416588   89.21700287    0.52999997    2.86999989
   17.76749992   89.73200226    0.52999997    2.84999990
   17.76805496   88.07319641    0.52999997    2.84999990
   17.77333260   88.07319641    0.52999997    2.84999990
   17.77750015   83.67230225    0.52999997    2.84999990
   17.78083229   85.25920105    0.52999997    2.84999990
   17.78388786   85.41079712    0.52999997    2.84999990
   17.78722191   89.13150024    0.52999997    2.84999990
   17.79027748   93.26409912    0.52999997    2.84999990
   17.79361153   91.54540253    0.52999997    2.86999989
   17.79694366   88.23090363    0.52999997    2.86999989
   17.79999924   86.67430115    0.52999997    2.86999989
   17.80138779   90.12799835    0.52999997    2.86999989
   17.80388832   88.34130096    0.52999997    2.84999990
   17.80694389   90.16249847    0.52999997    2.84999990
   17.81027794   85.00630188    0.52999997    2.84999990
   17.81611061   85.00630188    0.52999997    2.84999990
   17.82027817   86.46209717    0.52999997    2.84999990
   17.82361221   92.96779633    0.52999997    2.84999990
   17.82666779   89.44069672    0.55000001    2.84999990
   17.83000183   90.08309937    0.55000001    2.84999990
   17.83333397   88.56919861    0.55000001    2.86999989
   17.83472252   89.05359650    0.52999997    2.84999990
   17.83694458   86.35890198    0.52999997    2.84999990
   17.84000015   89.26640320    0.52999997    2.84999990
   17.84333420   86.65499878    0.52999997    2.86999989
   17.84666824   90.50599670    0.55000001    2.86999989
   17.84972191   93.07939911    0.52999997    2.84999990
   17.85305595   83.91989899    0.52999997    2.84999990
   17.85916710   83.91989899    0.52999997    2.84999990
   17.86305618   87.24310303    0.55000001    2.84999990
   17.86638832   88.90409851    0.52999997    2.84999990
   17.86805534   85.35849762    0.52999997    2.84999990
   17.87027740   90.08660126    0.55000001    2.84999990
   17.87333298   84.67579651    0.55000001    2.84999990
   17.87666702   85.46330261    0.52999997    2.84999990
   17.88000107   91.06400299    0.55000001    2.84999990
   17.88305473   87.24019623    0.52999997    2.84999990
   17.88638878   89.68939972    0.55000001    2.84999990
   17.88944435   92.49790192    0.55000001    2.84999990
   17.89277840   91.03749847    0.55000001    2.84999990
   17.89611053   92.89949799    0.55000001    2.84999990
   17.90194321   92.89949799    0.55000001    2.84999990
   17.90611076   90.84690094    0.55000001    2.86999989
   17.90916634   89.78179932    0.55000001    2.86999989
   17.91250038   90.19280243    0.55000001    2.86999989
   17.91583252   86.26599884    0.56999999    2.84999990
   17.91888809   89.71669769    0.56999999    2.84999990
   17.92222214   90.88289642    0.56999999    2.82999992
   17.92555428   90.31079865    0.56999999    2.84999990
   17.92860985   88.36560059    0.55000001    2.84999990
   17.93194389   88.76329803    0.56999999    2.84999990
   17.93472099   87.59680176    0.55000001    2.84999990
   17.93555450   90.18039703    0.55000001    2.84999990
   17.93861008   93.32160187    0.55000001    2.84999990
   17.94472122   93.32160187    0.55000001    2.84999990
   17.94888878   89.87920380    0.55000001    2.84999990
   17.95222282   88.23259735    0.55000001    2.84999990
   17.95527840   90.17279816    0.55000001    2.84999990
   17.95861244   86.97840118    0.55000001    2.84999990
   17.96194458   87.77839661    0.55000001    2.84999990
   17.96500015   86.90319824    0.55000001    2.84999990
   17.96805573   88.68489838    0.55000001    2.84999990
   17.96888924   92.24569702    0.55000001    2.84999990
   17.97194481   87.51490021    0.55000001    2.84999990
   17.97527885   91.57150269    0.56999999    2.84999990
   17.97861099   85.59819794    0.56999999    2.84999990
   17.98166656   87.42500305    0.56999999    2.84999990
   17.98750114   87.42500305    0.58999997    2.82999992
   17.99166679   85.12470245    0.58999997    2.84999990
   17.99500084   89.10929871    0.58999997    2.84999990
   17.99805641   87.02860260    0.58999997    2.82999992
   18.00138855   87.02799988    0.58999997    2.84999990
   18.00194359   84.77519989    0.58999997    2.84999990
   18.00499916   92.24770355    0.58999997    2.82999992
   18.00833321   91.96829987    0.58999997    2.84999990
   18.01166725   86.58470154    0.58999997    2.84999990
   18.01472282   87.37979889    0.58999997    2.84999990
   18.01805496   87.45059967    0.58999997    2.84999990
   18.02111053   88.04810333    0.61000001    2.84999990
   18.02444458   82.65709686    0.61000001    2.84999990
   18.03055573   82.65709686    0.61000001    2.84999990
   18.03444481   90.70809937    0.61000001    2.84999990
   18.03527641   86.04229736    0.61000001    2.84999990
   18.03833199   90.48290253    0.61000001    2.84999990
   18.04166603   88.12509918    0.61000001    2.84999990
   18.04500008   92.92379761    0.58999997    2.84999990
   18.04805565   84.64129639    0.58999997    2.84999990
   18.05138779   91.08460236    0.58999997    2.84999990
   18.05444336   90.01619720    0.58999997    2.84999990
   18.05777740   95.47460175    0.58999997    2.84999990
   18.06110954   92.16020203    0.58999997    2.84999990
   18.06416512   87.08119965    0.56999999    2.84999990
   18.06750107   90.05069733    0.56999999    2.84999990
   18.06833458   87.72599792    0.56999999    2.84999990
   18.07333374   87.72599792    0.58999997    2.84999990
   18.07750130   91.33570099    0.58999997    2.84999990
   18.08055687   86.17440033    0.58999997    2.84999990
   18.08388901   91.24829865    0.58999997    2.84999990
   18.08722305   94.16500092    0.58999997    2.84999990
   18.09027863   87.14450073    0.58999997    2.84999990
   18.09361267   86.22109985    0.58999997    2.84999990
   18.09694481   87.74870300    0.58999997    2.84999990
   18.10000038   89.71109772    0.56999999    2.84999990
   18.10166740   89.11479950    0.56999999    2.82999992
   18.10361099   85.44219971    0.56999999    2.82999992
   18.10694504   89.78800201    0.56999999    2.84999990
   18.11000061   93.85230255    0.56999999    2.84999990
   18.11611176   93.85230255    0.56999999    2.84999990
   18.12027740   86.28919983    0.56999999    2.84999990
   18.12361145   88.26049805    0.58999997    2.84999990
   18.12666702   87.71330261    0.58999997    2.84999990
   18.13000107   86.82080078    0.58999997    2.84999990
   18.13305473   91.37249756    0.58999997    2.84999990
   18.13500023   88.38700104    0.58999997    2.84999990
   18.13666725   89.94339752    0.58999997    2.84999990
   18.13999939   86.44239807    0.58999997    2.84999990
   18.14305496   83.91049957    0.58999997    2.84999990
   18.14638901   86.48860168    0.58999997    2.84999990
   18.14972115   86.36710358    0.56999999    2.84999990
   18.15277672   91.48310089    0.58999997    2.84999990
   18.15888786   91.48310089    0.56999999    2.84999990
   18.16305542   95.46859741    0.56999999    2.84999990
   18.16638756   89.80290222    0.56999999    2.84999990
   18.16860962   90.54640198    0.56999999    2.84999990
   18.17000008   93.87950134    0.56999999    2.82999992
   18.17333221   95.34649658    0.56999999    2.80999994
   18.17638779   87.89250183    0.56999999    2.80999994
   18.17972183   92.03099823    0.56999999    2.82999992
   18.18305397   93.71939850    0.55000001    2.82999992
   18.18610954   90.00710297    0.56999999    2.84999990
   18.18944359   91.87159729    0.56999999    2.84999990
   18.19277763   89.56420135    0.56999999    2.84999990
   18.19583321   92.46440125    0.56999999    2.84999990
   18.20194435   92.46440125    0.56999999    2.84999990
   18.20583344   86.17800140    0.56999999    2.84999990
   18.20916748   89.01249695    0.58999997    2.84999990
   18.21250153   91.42710114    0.58999997    2.84999990
   18.21555710   84.77290344    0.56999999    2.84999990
   18.21888924   88.23400116    0.56999999    2.84999990
   18.22222328   88.60399628    0.58999997    2.84999990
   18.22527885   87.23030090    0.58999997    2.82999992
   18.22861099   88.92630005    0.56999999    2.82999992
   18.23166656   82.99369812    0.56999999    2.84999990
   18.23500061   86.98069763    0.56999999    2.84999990
   18.23694420   85.74510193    0.58999997    2.82999992
   18.23861122   93.17169952    0.58999997    2.82999992
   18.24472237   93.17169952    0.58999997    2.84999990
   18.24888992   89.11409760    0.58999997    2.82999992
   18.25194359   95.03089905    0.58999997    2.82999992
   18.25527763   91.78179932    0.58999997    2.84999990
   18.25861168   90.32309723    0.58999997    2.82999992
   18.26166725   90.07260132    0.58999997    2.84999990
   18.26499939   89.86499786    0.58999997    2.84999990
   18.26805496   92.92410278    0.58999997    2.84999990
   18.27027702   93.51470184    0.58999997    2.84999990
   18.27166557   93.68920135    0.58999997    2.84999990
   18.27499962   89.01909637    0.58999997    2.84999990
   18.27833366   89.17829895    0.58999997    2.84999990
   18.28138924   93.85399628    0.58999997    2.82999992
   18.28750038   93.85399628    0.58999997    2.82999992
   18.29166603   84.52339935    0.61000001    2.84999990
   18.29472160   88.88760376    0.63000000    2.82999992
   18.29805565   87.93679810    0.63000000    2.82999992
   18.30138779   85.55139923    0.63000000    2.82999992
   18.30360985   89.78919983    0.63000000    2.82999992
   18.30499840   89.50360107    0.63000000    2.84999990
   18.30833244   85.29969788    0.63000000    2.84999990
   18.31138802   92.25109863    0.64999998    2.82999992
   18.31472206   91.82350159    0.64999998    2.82999992
   18.31805611   87.42060089    0.64999998    2.82999992
   18.32111168   87.56970215    0.64999998    2.82999992
   18.32444572   88.17379761    0.64999998    2.82999992
   18.33027840   88.17379761    0.64999998    2.82999992
   18.33444595   92.21859741    0.64999998    2.82999992
   18.33694458   83.78600311    0.64999998    2.82999992
   18.33805656   84.21050262    0.64999998    2.82999992
   18.34138870   87.70069885    0.64999998    2.82999992
   18.34444427   87.64420319    0.64999998    2.82999992
   18.34777832   89.15090179    0.67000002    2.84999990
   18.35111237   86.86889648    0.67000002    2.82999992
   18.35416794   85.92009735    0.67000002    2.82999992
   18.35750008   91.39150238    0.67000002    2.82999992
   18.36055565   86.80619812    0.67000002    2.82999992
   18.36388969   90.10810089    0.67000002    2.82999992
   18.36722183   89.37339783    0.67000002    2.80999994
   18.37305641   89.37339783    0.69000000    2.84999990
   18.37722206   94.16110229    0.67000002    2.82999992
   18.38055611   92.40219879    0.67000002    2.82999992
   18.38388824   88.21959686    0.67000002    2.84999990
   18.38694382   89.97850037    0.67000002    2.82999992
   18.39027786   99.01589966    0.67000002    2.82999992
   18.39333344   90.11779785    0.67000002    2.82999992
   18.39666748   95.49610138    0.67000002    2.82999992
   18.39999962   92.53150177    0.67000002    2.82999992
   18.40305519  100.12999725    0.67000002    2.82999992
   18.40416718   96.96810150    0.67000002    2.82999992
   18.40666580  101.93699646    0.67000002    2.82999992
   18.40999985   94.84230042    0.67000002    2.82999992
   18.41611099   94.84230042    0.67000002    2.82999992
   18.42027664   94.87979889    0.67000002    2.82999992
   18.42333221   94.95549774    0.67000002    2.82999992
   18.42666626   93.37870026    0.67000002    2.82999992
   18.43000031   90.85919952    0.67000002    2.82999992
   18.43305397   91.97019958    0.69000000    2.82999992
   18.43638802   88.16419983    0.69000000    2.82999992
   18.43750000   92.08979797    0.69000000    2.82999992
   18.43999863   92.16470337    0.67000002    2.82999992
   18.44333267   89.42569733    0.67000002    2.82999992
   18.44666672   98.56629944    0.69000000    2.82999992
   18.44972038   86.98300171    0.69000000    2.82999992
   18.45305634   89.28559875    0.70999998    2.84999990
   18.45888901   89.28559875    0.70999998    2.82999992
   18.46305656   92.12899780    0.70999998    2.82999992
   18.46611214   90.82630157    0.69000000    2.82999992
   18.46944427   90.67310333    0.70999998    2.82999992
   18.47083473   95.02839661    0.70999998    2.80999994
   18.47305679   88.99440002    0.70999998    2.80999994
   18.47638893   96.71549988    0.70999998    2.82999992
   18.47944450   90.88449860    0.70999998    2.82999992
   18.48277855   91.42279816    0.70999998    2.82999992
   18.48611069   89.54209900    0.70999998    2.82999992
   18.48916626   91.71810150    0.70999998    2.82999992
   18.49250031   91.79190063    0.70999998    2.82999992
   18.49583435  100.04100037    0.73000002    2.82999992
   18.50166702  100.04100037    0.70999998    2.82999992
   18.52000046   90.47509766    0.75000000    2.82999992
   18.52333260   90.16870117    0.75000000    2.82999992
   18.52666664   86.19779968    0.75000000    2.82999992
   18.52972221   91.26020050    0.75000000    2.82999992
   18.53305435   89.33979797    0.75000000    2.82999992
   18.53638840   97.14579773    0.75000000    2.82999992
   18.53944397   92.09989929    0.75000000    2.82999992
   18.54472160   92.09989929    0.76999998    2.82999992
   18.54888916   92.41899872    0.76999998    2.80999994
   18.55222130   91.39289856    0.76999998    2.82999992
   18.55305481   89.30130005    0.75000000    2.82999992
   18.55583191   94.05879974    0.75000000    2.82999992
   18.55916595   88.43370056    0.75000000    2.82999992
   18.56222153   93.73889923    0.75000000    2.82999992
   18.56555557   85.68830109    0.75000000    2.82999992
   18.56888962   91.51930237    0.75000000    2.82999992
   18.57194519   93.04859924    0.73000002    2.82999992
   18.57527924   87.73560333    0.73000002    2.82999992
   18.57833481   90.72760010    0.73000002    2.82999992
   18.58166695   94.02819824    0.70999998    2.82999992
   18.58777809   94.02819824    0.70999998    2.82999992
   18.59194565   85.20429993    0.73000002    2.82999992
   18.59500122   91.51380157    0.73000002    2.80999994
   18.59833336   84.84159851    0.73000002    2.80999994
   18.60138893   88.70829773    0.73000002    2.82999992
   18.60472298   87.12409973    0.73000002    2.82999992
   18.60805511   90.00109863    0.73000002    2.82999992
   18.61138916   90.45500183    0.73000002    2.82999992
   18.61444473   89.16280365    0.73000002    2.80999994
   18.61777878   95.17919922    0.73000002    2.82999992
   18.61972237   88.43589783    0.73000002    2.80999994
   18.62138939   96.35829926    0.73000002    2.82999992
   18.62472153   90.70189667    0.73000002    2.80999994
   18.63055611   90.70189667    0.75000000    2.80999994
   18.63472176   94.17330170    0.75000000    2.80999994
   18.63777733   94.50129700    0.75000000    2.82999992
   18.64111137   90.51599884    0.75000000    2.82999992
   18.64444351   87.81199646    0.75000000    2.82999992
   18.64749908   90.63520050    0.75000000    2.82999992
   18.65083313   88.53029633    0.75000000    2.82999992
   18.65305519   92.09870148    0.75000000    2.82999992
   18.65444374   87.28040314    0.75000000    2.82999992
   18.65777779   90.54769897    0.75000000    2.80999994
   18.66083336   86.08429718    0.75000000    2.82999992
   18.66416550   87.20480347    0.73000002    2.80999994
   18.66749954   88.49359894    0.73000002    2.80999994
   18.67333221   88.49359894    0.75000000    2.82999992
   18.67749977   85.90270233    0.76999998    2.80999994
   18.68083191   89.50399780    0.76999998    2.80999994
   18.68388748   83.85169983    0.79000002    2.82999992
   18.68638802   86.08290100    0.79000002    2.82999992
   18.68750000   88.29519653    0.79000002    2.80999994
   18.69083214   91.15959930    0.79000002    2.80999994
   18.69388771   92.32730103    0.76999998    2.80999994
   18.69722176   90.67330170    0.76999998    2.82999992
   18.70055580   89.71369934    0.76999998    2.82999992
   18.70361137   90.06020355    0.79000002    2.82999992
   18.70694542   84.24600220    0.76999998    2.82999992
   18.71027946   87.68930054    0.76999998    2.82999992
   18.71611214   87.68930054    0.76999998    2.82999992
   18.72027779   87.84899902    0.76999998    2.82999992
   18.72361183   95.59680176    0.79000002    2.82999992
   18.72666740   85.68360138    0.80000001    2.80999994
   18.73000145   92.71209717    0.80000001    2.80999994
   18.73333359   86.92539978    0.81999999    2.82999992
   18.73638916   84.16719818    0.81999999    2.80999994
   18.73972321   85.83589935    0.81999999    2.80999994
   18.74305534   93.68070221    0.81999999    2.80999994
   18.74611092   98.17890167    0.81999999    2.80999994
   18.74944496   89.96559906    0.81999999    2.80999994
   18.75250053   88.01080322    0.81999999    2.80999994
   18.75305557   87.13739777    0.81999999    2.80999994
   18.75916672   87.13739777    0.81999999    2.80999994
   18.76305580   96.89260101    0.81999999    2.82999992
   18.76638794   92.44460297    0.81999999    2.82999992
   18.76972198   92.95169830    0.83999997    2.80999994
   18.77277756   91.06710052    0.83999997    2.80999994
   18.77611160   91.27069855    0.86000001    2.80999994
   18.77944374   88.35530090    0.83999997    2.80999994
   18.78249931   87.05750275    0.81999999    2.82999992
   18.78583336   89.10900116    0.83999997    2.82999992
   18.78666687   89.80000305    0.83999997    2.82999992
   18.78944397   87.90429688    0.81999999    2.82999992
   18.79277802   92.67639923    0.81999999    2.82999992
   18.79583359   88.03690338    0.86000001    2.80999994
   18.80194283   88.03690338    0.81999999    2.80999994
   18.80611038   88.81569672    0.83999997    2.80999994
   18.80916595   95.18699646    0.83999997    2.80999994
   18.81250000   96.48590088    0.83999997    2.80999994
   18.81583214   91.59680176    0.86000001    2.82999992
   18.81888962   88.60870361    0.88000000    2.80999994
   18.82000160   89.10980225    0.88000000    2.80999994
   18.82250023   93.97889709    0.88000000    2.80999994
   18.82583427   96.32029724    0.88000000    2.80999994
   18.82888985   88.27880096    0.86000001    2.80999994
   18.83222389   90.32530212    0.86000001    2.80999994
   18.83555603   88.80960083    0.86000001    2.80999994
   18.83861160   86.95130157    0.86000001    2.80999994
   18.84472275   86.95130157    0.92000002    2.80999994
   18.84889030   88.67900085    0.89999998    2.80999994
   18.85222244   91.24490356    0.89999998    2.80999994
   18.85333443   85.99739838    0.89999998    2.80999994
   18.85583305   89.77519989    0.89999998    2.80999994
   18.85916710   91.08249664    0.89999998    2.80999994
   18.86222267   84.17209625    0.89999998    2.80999994
   18.86555672   85.37550354    0.92000002    2.80999994
   18.86888885   89.51399994    0.92000002    2.78999996
   18.87194443   90.96569824    0.92000002    2.80999994
   18.87527847   91.70559692    0.92000002    2.78999996
   18.87861061   90.43270111    0.92000002    2.80999994
   18.88166618   86.93650055    0.92000002    2.80999994
   18.88750076   86.93650055    0.95999998    2.80999994
   18.89166641   92.67649841    0.95999998    2.78999996
   18.89500046   86.12449646    0.95999998    2.78999996
   18.89805603   84.92720032    0.95999998    2.78999996
   18.90138817   84.84660339    0.95999998    2.78999996
   18.90472221   85.39199829    0.98000002    2.80999994
   18.90777779   84.11769867    0.94000000    2.80999994
   18.91110992   84.65650177    0.94000000    2.80999994
   18.91444397   87.82910156    0.94000000    2.80999994
   18.91749954   91.58709717    0.95999998    2.80999994
   18.92000008   90.99530029    0.95999998    2.78999996
   18.92111015   91.99479675    0.95999998    2.78999996
   18.92444420   83.37490082    0.95999998    2.80999994
   18.93055534   83.37490082    0.98000002    2.80999994
   18.93444443   90.73110199    0.95999998    2.78999996
   18.93777657   89.68779755    0.94000000    2.78999996
   18.94111061   87.92310333    0.94000000    2.78999996
   18.94416618   91.96379852    0.94000000    2.80999994
   18.94749832   86.69010162    0.94000000    2.80999994
   18.95083427   88.52909851    0.92000002    2.78999996
   18.95333481   90.30300140    0.92000002    2.80999994
   18.95416832   87.77799988    0.92000002    2.78999996
   18.95750046   90.04180145    0.92000002    2.78999996
   18.96083450   89.94450378    0.92000002    2.78999996
   18.96389008   87.73979950    0.94000000    2.78999996
   18.96722221   85.79720306    0.92000002    2.80999994
   18.97333336   85.79720306    0.94000000    2.78999996
   18.97750092  191.97700500    0.95999998    2.78999996
   18.98055649   87.29260254    0.95999998    2.78999996
   18.98388863   93.53579712    0.95999998    2.80999994
   18.98666763   87.75589752    0.98000002    2.78999996
   18.98777771   84.22429657    0.98000002    2.78999996
   18.99083328   88.83930206    0.98000002    2.78999996
   18.99416733   89.35980225    0.95999998    2.78999996
   18.99749947   83.75279999    0.95999998    2.78999996
   19.00055504   84.76519775    0.95999998    2.78999996
   19.00388908   86.40950012    0.94000000    2.78999996
   19.00722313   86.75559998    0.95999998    2.78999996
   19.01027870   85.37699890    0.95999998    2.78999996
   19.01611137   85.37699890    0.95999998    2.78999996
   19.02027702   84.30560303    0.95999998    2.78999996
   19.02361107   92.07309723    0.95999998    2.78999996
   19.02666664   84.41690063    0.95999998    2.78999996
   19.03000069   85.28620148    0.94000000    2.78999996
   19.03333282   79.91529846    0.92000002    2.80999994
   19.03638840   88.02629852    0.92000002    2.80999994
   19.03972244   83.51020050    0.92000002    2.78999996
   19.04277802   85.18499756    0.92000002    2.78999996
   19.04611015   82.94360352    0.94000000    2.78999996
   19.04944420   85.63120270    0.94000000    2.78999996
   19.05249977   85.86769867    0.92000002    2.78999996
   19.05333328   88.09510040    0.92000002    2.78999996
   19.05888748   88.09510040    0.94000000    2.78999996
   19.06305504   81.70909882    0.94000000    2.78999996
   19.06638718   96.31030273    0.94000000    2.78999996
   19.06972313   88.70980072    0.92000002    2.78999996
   19.07277870   84.03610229    0.92000002    2.80999994
   19.07611275   91.51629639    0.89999998    2.78999996
   19.07916832   87.14270020    0.89999998    2.78999996
   19.08250046   85.40489960    0.89999998    2.78999996
   19.08583450   85.43759918    0.89999998    2.78999996
   19.08666801   86.20369720    0.89999998    2.78999996
   19.08916664   80.82099915    0.89999998    2.78999996
   19.09250069   88.19930267    0.89999998    2.78999996
   19.09583473   87.23220062    0.89999998    2.78999996
   19.10194397   87.23220062    0.88000000    2.78999996
   19.10583305   89.23549652    0.88000000    2.78999996
   19.10916710   84.77890015    0.86000001    2.78999996
   19.11250114   86.23419952    0.86000001    2.78999996
   19.11555672   89.25409698    0.86000001    2.78999996
   19.11888885   92.64559937    0.83999997    2.80999994
   19.12000084   89.63909912    0.83999997    2.78999996
   19.12249947   91.08630371    0.83999997    2.78999996
   19.12583351   88.45510101    0.83999997    2.78999996
   19.12916756   83.23919678    0.86000001    2.78999996
   19.13222313   89.97049713    0.83999997    2.78999996
   19.13555527   91.94989777    0.83999997    2.78999996
   19.13861084  131.60899353    0.83999997    2.78999996
   19.14472198  131.60899353    0.86000001    2.78999996
   19.14888954   87.16149902    0.88000000    2.78999996
   19.15194321   88.04579926    0.88000000    2.78999996
   19.15333366   90.26660156    0.88000000    2.78999996
   19.15555573   93.17810059    0.88000000    2.78999996
   19.15888786   86.77429962    0.88000000    2.78999996
   19.16222191   90.26180267    0.88000000    2.78999996
   19.16527748   90.91220093    0.88000000    2.78999996
   19.16860962   87.48320007    0.89999998    2.78999996
   19.17194366   89.69969940    0.89999998    2.78999996
   19.17499924   90.51889801    0.89999998    2.78999996
   19.17833328   92.80680084    0.88000000    2.78999996
   19.18138885   88.66179657    0.89999998    2.78999996
   19.18750000   88.66179657    0.88000000    2.78999996
   19.19166565   89.36440277    0.86000001    2.78999996
   19.19499969   85.38529968    0.86000001    2.78999996
   19.19805527   91.68409729    0.86000001    2.78999996
   19.20138931   89.05599976    0.88000000    2.78999996
   19.20472336   87.47250366    0.88000000    2.78999996
   19.20777893   86.62999725    0.88000000    2.78999996
   19.21111107   84.03009796    0.88000000    2.78999996
   19.21444511   90.63790131    0.88000000    2.78999996
   19.21750069   86.94660187    0.88000000    2.78999996
   19.22000122   89.64289856    0.88000000    2.78999996
   19.22111130   87.89820099    0.86000001    2.78999996
   19.22444534   92.29519653    0.86000001    2.78999996
   19.23027802   92.29519653    0.86000001    2.78999996
   19.23444557   88.64630127    0.88000000    2.76999998
   19.23777771   89.10060120    0.88000000    2.78999996
   19.24083328   86.33740234    0.88000000    2.78999996
   19.24416733   89.67749786    0.88000000    2.78999996
   19.24749947   91.08979797    0.89999998    2.78999996
   19.25055504   90.82469940    0.89999998    2.78999996
   19.25333405   89.90760040    0.89999998    2.78999996
   19.25444412   87.68229675    0.89999998    2.78999996
   19.25749969   93.16169739    0.89999998    2.78999996
   19.26083374   91.30390167    0.89999998    2.78999996
   19.26416588   90.63749695    0.89999998    2.78999996
   19.26722145   90.55729675    0.89999998    2.78999996
   19.27305603   90.55729675    0.92000002    2.78999996
   19.27722168   86.06520081    0.94000000    2.78999996
   19.28055573   93.02369690    0.94000000    2.78999996
   19.28388786   89.36009979    0.94000000    2.78999996
   19.28666687   90.80410004    0.94000000    2.78999996
   19.28722191   85.31749725    0.94000000    2.78999996
   19.29055595   90.19519806    0.94000000    2.76999998
   19.29388809   90.66000366    0.92000002    2.78999996
   19.29694366   89.70320129    0.94000000    2.76999998
   19.30027771   90.78399658    0.94000000    2.76999998
   19.30360985   89.19629669    0.94000000    2.78999996
   19.30666542   85.50479889    0.94000000    2.78999996
   19.30999947   94.40260315    0.95999998    2.78999996
   19.31611061   94.40260315    1.00000000    2.76999998
   19.32027817   90.70520020    0.98000002    2.76999998
   19.32333374   85.41220093    0.95999998    2.76999998
   19.32666779   94.03890228    0.98000002    2.78999996
   19.32972336   87.64399719    0.98000002    2.76999998
   19.33305550   87.46130371    0.98000002    2.76999998
   19.33638954   89.53890228    1.00000000    2.78999996
   19.33944511   88.27729797    1.00000000    2.76999998
   19.34277916   92.24199677    1.00000000    2.76999998
   19.34611130   87.99600220    1.00000000    2.78999996
   19.34916687   85.42449951    1.00000000    2.76999998
   19.35250092   87.75820160    1.01999998    2.76999998
   19.35333443   82.96589661    1.01999998    2.76999998
   19.35888863   82.96589661    1.01999998    2.76999998
   19.36305618   89.32620239    1.01999998    2.76999998
   19.36611176   92.94819641    1.01999998    2.76999998
   19.36944389   89.95339966    1.01999998    2.76999998
   19.37277794   88.67849731    1.01999998    2.78999996
   19.37583351   85.93190002    1.00000000    2.78999996
   19.37916756   89.68399811    1.01999998    2.78999996
   19.38249969   93.33940125    1.01999998    2.78999996
   19.38555527   89.07630157    1.01999998    2.76999998
   19.38666725   88.37840271    1.01999998    2.76999998
   19.38944435   89.68009949    1.00000000    2.78999996
   19.39249992   83.93409729    1.00000000    2.78999996
   19.39583397   87.15329742    1.00000000    2.76999998
   19.40166664   87.15329742    1.00000000    2.76999998
   19.40583229   87.90219879    1.00000000    2.76999998
   19.40916634   86.10109711    1.00000000    2.78999996
   19.41222191   92.33170319    1.00000000    2.78999996
   19.41555595   88.81189728    0.98000002    2.78999996
   19.41888809   86.46779633    0.98000002    2.76999998
   19.42000008   86.09210205    1.00000000    2.76999998
   19.42222214   84.39330292    0.98000002    2.76999998
   19.42555428   86.95490265    1.00000000    2.76999998
   19.42888832   84.53430176    1.00000000    2.76999998
   19.43194389   86.83809662    1.00000000    2.76999998
   19.43527603   86.56590271    1.00000000    2.76999998
   19.43861008   86.79869843    1.00000000    2.76999998
   19.44472122   86.79869843    1.00000000    2.76999998
   19.44861031   93.48940277    1.00000000    2.76999998
   19.45194435   87.17060089    1.00000000    2.76999998
   19.45333481   88.53060150    1.00000000    2.76999998
   19.45583344   92.88690186    1.00000000    2.76999998
   19.45888901   93.65779877    1.01999998    2.76999998
   19.46222305   90.08059692    1.01999998    2.76999998
   19.46527863   89.30100250    1.01999998    2.75000000
   19.46861076   89.12419891    1.01999998    2.75000000
   19.47194481   87.97450256    1.01999998    2.75000000
   19.47500038   93.67500305    1.01999998    2.76999998
   19.47833443   92.01950073    1.01999998    2.75000000
   19.48166656   83.83820343    1.03999996    2.76999998
   19.48750114   83.83820343    1.03999996    2.75000000
   19.49166679   85.27570343    1.03999996    2.76999998
   19.49472237   84.62950134    1.01999998    2.76999998
   19.49805641   86.35009766    1.01999998    2.76999998
   19.50138855   83.56780243    1.00000000    2.76999998
   19.50444412   85.81099701    1.01999998    2.76999998
   19.50777817   88.98629761    1.01999998    2.75000000
   19.51083374   87.81590271    1.01999998    2.76999998
   19.51416588   87.43939972    1.01999998    2.76999998
   19.51749992   90.06600189    1.03999996    2.76999998
   19.52000046   90.17749786    1.03999996    2.76999998
   19.54055595   90.17749786    1.26999998    2.75000000
   19.54472160   89.88220215    1.16999996    2.76999998
   19.54805565   97.27130127    1.09000003    2.75000000
   19.55111122   88.97920227    1.09000003    2.75000000
   19.55333328   90.23940277    1.09000003    2.75000000
   19.55499840   87.88619995    1.11000001    2.75000000
   19.55805397   89.58110046    1.13000000    2.75000000
   19.56138802   96.48789978    1.13000000    2.75000000
   19.56472206   90.11070251    1.11000001    2.75000000
   19.56777954   92.22579956    1.16999996    2.75000000
   19.57111168   96.23660278    1.26999998    2.75000000
   19.57444572   92.37969971    1.28999996    2.75000000
   19.57750130   88.62840271    1.26999998    2.75000000
   19.58333397   88.62840271    1.23000002    2.75000000
   19.58750153   90.99849701    1.23000002    2.75000000
   19.59083366   86.12439728    1.19000006    2.75000000
   19.59388924   98.30239868    1.14999998    2.75000000
   19.59722328   96.81030273    1.14999998    2.75000000
   19.60055542   89.06189728    1.14999998    2.75000000
   19.60361099   97.23979950    1.13000000    2.75000000
   19.60694504   98.19770050    1.13000000    2.75000000
   19.61000061   97.05500031    1.13000000    2.75000000
   19.61333466   94.55159760    1.13000000    2.75000000
   19.61666679   88.66739655    1.13000000    2.75000000
   19.61972237   95.78479767    1.13000000    2.75000000
   19.62027740   94.31770325    1.13000000    2.75000000
   19.62611198   94.31770325    1.13000000    2.75000000
   19.63027763   89.87020111    1.13000000    2.75000000
   19.63361168   98.77940369    1.14999998    2.75000000
   19.63666725   95.83139801    1.13000000    2.75000000
   19.63999939  101.49700165    1.14999998    2.75000000
   19.64333344   95.23590088    1.14999998    2.75000000
   19.64666748   94.92500305    1.13000000    2.75000000
   19.64972115  103.23300171    1.13000000    2.75000000
   19.65305519   95.41149902    1.13000000    2.75000000
   19.65361023  104.60199738    1.13000000    2.75000000
   19.65666580  100.49299622    1.13000000    2.73000002
   19.65999985   92.89700317    1.13000000    2.75000000
   19.66305542   99.39109802    1.13000000    2.75000000
   19.66916656   99.39109802    1.13000000    2.73000002
   19.67305565   97.74579620    1.13000000    2.75000000
   19.67638779  100.18599701    1.13000000    2.75000000
   19.67972183   99.30889893    1.13000000    2.73000002
   19.68277740  100.64299774    1.14999998    2.73000002
   19.68610954   89.39520264    1.13000000    2.75000000
   19.68694305   94.87819672    1.14999998    2.73000002
   19.68972206   96.77269745    1.13000000    2.73000002
   19.69305420   98.09619904    1.13000000    2.73000002
   19.69610977   91.35859680    1.14999998    2.73000002
   19.69944382   97.14230347    1.16999996    2.73000002
   19.70250130   97.51429749    1.16999996    2.75000000
   19.70583344  100.01999664    1.19000006    2.75000000
   19.71194458  100.01999664    1.23000002    2.73000002
   19.71611214  100.97699738    1.23000002    2.73000002
   19.71916771   99.35469818    1.23000002    2.73000002
   19.72027779  101.62699890    1.25000000    2.73000002
   19.72277832  100.75800323    1.25000000    2.73000002
   19.72611237   99.06559753    1.25000000    2.73000002
   19.72916794   95.32330322    1.25000000    2.73000002
   19.73250008   97.94120026    1.25000000    2.73000002
   19.73583412   95.89270020    1.25000000    2.73000002
   19.73888969   93.72640228    1.25000000    2.75000000
   19.74222183   96.97740173    1.26999998    2.73000002
   19.74527740   96.86389923    1.26999998    2.73000002
   19.74861145   99.93319702    1.28999996    2.73000002
   19.75472260   99.93319702    1.30999994    2.73000002
   19.75888824  102.75499725    1.28999996    2.73000002
   19.76222229   99.60350037    1.30999994    2.73000002
   19.76527786  105.38200378    1.33000004    2.73000002
   19.76861000   91.98169708    1.34000003    2.73000002
   19.77166557  101.23000336    1.34000003    2.71000004
   19.77499962   92.87079620    1.34000003    2.73000002
   19.77833366   97.46779633    1.34000003    2.73000002
   19.78138924  111.53199768    1.34000003    2.73000002
   19.78472137  101.25000000    1.34000003    2.73000002
   19.78694344   96.38269806    1.34000003    2.73000002
   19.78833199   94.26909637    1.34000003    2.71000004
   19.79166603   98.74579620    1.34000003    2.71000004
   19.79749870   98.74579620    1.34000003    2.73000002
   19.80166626   99.83380127    1.34000003    2.73000002
   19.80499840  107.99700165    1.34000003    2.71000004
   19.80805397  101.35299683    1.34000003    2.71000004
   19.81138802  102.72699738    1.36000001    2.73000002
   19.81472206  104.88300323    1.36000001    2.71000004
   19.81777954   95.78710175    1.38000000    2.73000002
   19.82027817  103.76499939    1.41999996    2.73000002
   19.82139015   98.09069824    1.41999996    2.71000004
   19.82472229  106.19000244    1.44000006    2.73000002
   19.82777786  102.21099854    1.44000006    2.73000002
   19.83111191  111.75800323    1.44000006    2.73000002
   19.83444595  121.65299988    1.44000006    2.71000004
   19.84055710  121.65299988    1.48000002    2.73000002
   19.84444427  102.73200226    1.50000000    2.71000004
   19.84777832   96.49549866    1.53999996    2.71000004
   19.85111237  100.70400238    1.53999996    2.71000004
   19.85361099   98.01010132    1.53999996    2.71000004
   19.85472298   94.70600128    1.53999996    2.71000004
   19.85805511  101.14600372    1.55999994    2.71000004
   19.86111069   99.50260162    1.60000002    2.71000004
   19.86444473  101.69899750    1.63000000    2.69000006
   19.86777878   99.77780151    1.63000000    2.69000006
   19.87083435   95.73560333    1.63000000    2.69000006
   19.87416649   94.99050140    1.63000000    2.69000006
   19.87750053   97.05010223    1.61000001    2.71000004
   19.88333321   97.05010223    1.60000002    2.69000006
   19.88750076   97.76860046    1.58000004    2.71000004
   19.89055634   95.13189697    1.58000004    2.71000004
   19.89388847   95.85569763    1.58000004    2.69000006
   19.89722252   96.08869934    1.58000004    2.69000006
   19.90027809   93.61119843    1.55999994    2.71000004
   19.90361023   94.69960022    1.58000004    2.71000004
   19.90666580   96.61759949    1.58000004    2.69000006
   19.90999985  102.34200287    1.60000002    2.69000006
   19.91333389   94.87020111    1.58000004    2.71000004
   19.91638756   99.30149841    1.58000004    2.71000004
   19.91972160   95.73940277    1.60000002    2.71000004
   19.92027664  102.42199707    1.60000002    2.71000004
   19.92611122  102.42199707    1.63000000    2.69000006
   19.93027687   96.26309967    1.63000000    2.69000006
   19.93361092   98.34629822    1.69000006    2.69000006
   19.93666649   94.64929962    1.69000006    2.69000006
   19.93999863   94.98040009    1.69000006    2.69000006
   19.94305420  100.80000305    1.71000004    2.69000006
   19.94638824  100.02899933    1.71000004    2.69000006
   19.94972038   98.64679718    1.73000002    2.69000006
   19.95277786   91.45449829    1.73000002    2.69000006
   19.95361137   93.91590118    1.73000002    2.69000006
   19.95639038   94.11380005    1.73000002    2.69000006
   19.95972252   93.64080048    1.73000002    2.69000006
   19.96277809   97.30690002    1.75000000    2.69000006
   19.96888924   97.30690002    1.75000000    2.69000006
   19.97305679   97.61340332    1.80999994    2.69000006
   19.97638893   91.55429840    1.80999994    2.69000006
   19.97944450   94.79830170    1.80999994    2.69000006
   19.98277855   95.92160034    1.80999994    2.69000006
   19.98611069   91.02600098    1.80999994    2.69000006
   19.98694420   91.69210052    1.80999994    2.67000008
   19.98972321   94.94560242    1.80999994    2.69000006
   19.99305534   98.04650116    1.80999994    2.69000006
   19.99611092   99.22910309    1.80999994    2.69000006
   19.99944496  100.29199982    1.76999998    2.69000006
   20.00277710   99.36589813    1.78999996    2.69000006
   20.00583267   93.85970306    1.80999994    2.67000008
   20.01166725   93.85970306    1.85000002    2.69000006
   20.01583290  156.13900757    1.86000001    2.69000006
   20.01916695   96.02420044    1.86000001    2.69000006
   20.02027702   96.99410248    1.88000000    2.69000006
   20.02277756   98.73870087    1.88000000    2.69000006
   20.02611160   96.40019989    1.89999998    2.67000008
   20.02916718   98.31690216    1.89999998    2.69000006
   20.03249931   93.37500000    1.89999998    2.67000008
   20.03583336   95.37850189    1.91999996    2.67000008
   20.03888893   96.13760376    2.00000000    2.66000009
   20.04222107   91.50219727    2.03999996    2.67000008
   20.04527664   93.69110107    2.09999990    2.67000008
   20.04861069   93.25540161    2.17000008    2.66000009
   20.05472183   93.25540161    2.26999998    2.66000009
   20.05888748   89.55970001    2.26999998    2.66000009
   20.06194305   92.35649872    2.28999996    2.67000008
   20.06527710   91.39469910    2.30999994    2.67000008
   20.06861115   92.49939728    2.30999994    2.67000008
   20.07166672   92.23269653    2.28999996    2.66000009
   20.07500076   90.60990143    2.28999996    2.66000009
   20.07805634  101.18099976    2.28999996    2.66000009
   20.08139038   94.59179688    2.28999996    2.66000009
   20.08472252   91.40219879    2.28999996    2.66000009
   20.08694458   91.68260193    2.28999996    2.66000009
   20.08833313   94.88770294    2.28999996    2.66000009
   20.09166718   88.98000336    2.28999996    2.66000009
   20.09749985   88.98000336    2.32999992    2.66000009
   20.10166740   92.92939758    2.36999989    2.67000008
   20.10472298   95.88050079    2.44000006    2.66000009
   20.10805511   98.29299927    2.50000000    2.66000009
   20.11138916   95.59839630    2.69000006    2.66000009
   20.11444473   97.97419739    3.01999998    2.66000009
   20.11777878   93.94149780    3.68000007    2.67000008
   20.12027740   96.79029846    4.19999981    2.66000009
   20.12138939   96.60510254    4.46999979    2.66000009
   20.12472153   96.23149872    4.90999985    2.64000010
   20.12777710   97.41079712    4.90999985    2.64000010
   20.13111115   97.92620087    4.80000019    2.64000010
   20.13444519   98.60859680    4.90999985    2.64000010
   20.14027786   98.60859680    4.90999985    2.64000010
   20.14444351   92.80300140    4.90999985    2.66000009
   20.14777756   97.88870239    4.90999985    2.61999989
   20.15083313   94.69570160    4.90999985    2.64000010
   20.15361023   90.97260284    4.90999985    2.61999989
   20.15444374   96.41639709    4.90999985    2.61999989
   20.15777779   96.89900208    4.90999985    2.59999990
   20.16110992   98.34049988    4.90999985    2.61999989
   20.16416550  102.00399780    4.90999985    2.61999989
   20.16749954   96.88300323    4.90999985    2.59999990
   20.17055511   92.82769775    4.90999985    2.61999989
   20.17388916   92.33129883    4.90999985    2.61999989
   20.17722130   94.59100342    4.90999985    2.61999989
   20.18305397   94.59100342    4.90999985    2.55999994
   20.18722153   99.30879974    4.90999985    2.53999996
   20.19055557  102.05599976    4.90999985    2.51999998
   20.19388771  103.21900177    4.90999985    2.53999996
   20.19694328   94.71579742    4.90999985    2.51999998
   20.20027924   92.78209686    4.90999985    2.53999996
   20.20361137  101.88300323    4.90999985    2.57999992
   20.20666695  104.28299713    4.90999985    2.53999996
   20.21000099   94.02799988    4.90999985    2.53999996
   20.21305656  103.95200348    4.90999985    2.51999998
   20.21638870  100.86100006    4.90999985    2.53999996
   20.21972275   93.08969879    4.90999985    2.55999994
   20.22055626   95.63710022    4.90999985    2.55999994
   20.22611237   95.63710022    4.90999985    2.55999994
   20.23027802   99.22000122    4.90999985    2.59999990
   20.23333359   89.23999786    4.90999985    2.61999989
   20.23666763   95.96499634    4.42999983    2.61999989
   20.23999977   91.15360260    4.05999994    2.61999989
   20.24305534   91.20420074    4.15999985    2.64000010
   20.24638939   93.63510132    4.69999981    2.61999989
   20.24972153   88.46700287    4.90999985    2.61999989
   20.25277710   94.53420258    4.90999985    2.59999990
   20.25388908   91.82399750    4.90999985    2.59999990
   20.25638962   96.72669983    4.90999985    2.59999990
   20.25972176   94.76540375    4.90999985    2.53999996
   20.26277733   90.74109650    4.90999985    2.53999996
   20.26888847   90.74109650    4.90999985    2.55999994
   20.27305603   99.98090363    4.90999985    2.57999992
   20.27611160   86.17680359    4.90999985    2.57999992
   20.27944374   92.82669830    4.90999985    2.57999992
   20.28277779   96.16339874    4.90999985    2.57999992
   20.28583336   97.23889923    4.90999985    2.55999994
   20.28722191   97.44879913    4.90999985    2.55999994
   20.28944397   92.77549744    4.90999985    2.53999996
   20.29277802   92.96009827    4.90999985    2.59999990
   20.29611015   90.70880127    4.90999985    2.55999994
   20.29916573   92.52670288    4.90999985    2.57999992
   20.30249977   96.33059692    4.90999985    2.53999996
   20.30555534   98.00769806    4.90999985    2.55999994
   20.31166649   98.00769806    4.90999985    2.51999998
   20.31583214   92.06569672    4.90999985    2.51999998
   20.31916809   97.96530151    4.90999985    2.50000000
   20.32055664   98.52320099    4.90999985    2.50000000
   20.32277870  103.60600281    4.90999985    2.48000002
   20.32611275   98.88849640    4.90999985    2.51999998
   20.32944489   93.88300323    4.90999985    2.48000002
   20.33250046  104.22499847    4.90999985    2.51999998
   20.33583450  104.28700256    4.90999985    2.53999996
   20.33889008  101.57299805    4.90999985    2.53999996
   20.34222221   96.15370178    4.90999985    2.59999990
   20.34555626  101.68699646    4.90999985    2.61999989
   20.34861183   92.32009888    4.90999985    2.64000010
   20.35444450   92.32009888    4.90999985    2.53999996
   20.35861206  103.17099762    4.90999985    2.55999994
   20.36194420   95.33799744    4.90999985    2.51999998
   20.36527824  104.57199860    4.90999985    2.44000006
   20.36833382  107.02300262    4.90999985    2.46000004
   20.37166595  112.41999817    4.90999985    2.42000008
   20.37472153  100.95600128    4.90999985    2.50000000
   20.37805557   97.08899689    4.90999985    2.48000002
   20.38138962  100.20400238    4.90999985    2.48000002
   20.38444519   99.47180176    4.90999985    2.50000000
   20.38722229  105.55100250    4.90999985    2.51999998
   20.38805580   96.64060211    4.90999985    2.50000000
   20.39138794   98.46420288    4.90999985    2.57999992
   20.39749908   98.46420288    4.90999985    2.67000008
   20.40166664   91.88970184    4.90999985    2.21000004
   20.40472221  101.88300323    4.90999985    2.61999989
   20.40805435   99.56900024    4.90999985    2.55999994
   20.41138840  102.21499634    4.90999985    2.59999990
   20.41444397   98.55210114    4.90999985    2.59999990
   20.41777802  101.14099884    4.90999985    2.59999990
   20.42055511   95.04940033    4.90999985    2.59999990
   20.42138863   97.83660126    4.90999985    2.59999990
   20.42472076   99.88120270    4.90999985    2.57999992
   20.42805481   95.15910339    4.90999985    2.57999992
   20.43111038   98.52970123    4.90999985    2.59999990
   20.43444443  101.13400269    4.90999985    2.59999990
   20.44027710  101.13400269    4.84999990    2.59999990
   20.44444275   99.75930023    4.90999985    2.59999990
   20.44749832   99.88929749    4.90999985    2.59999990
   20.45083427  102.43099976    4.90999985    2.59999990
   20.45388985   97.26470184    4.90999985    2.59999990
   20.45444489   96.74649811    4.90999985    2.57999992
   20.45777893   93.86239624    4.90999985    2.57999992
   20.46111107   95.54440308    4.90999985    2.55999994
   20.46416664   94.87930298    4.90999985    2.55999994
   20.46750069   93.42729950    4.90999985    2.59999990
   20.47055626   92.44909668    4.90999985    2.55999994
   20.47389030  100.17700195    4.90999985    2.51999998
   20.47722244   98.62840271    4.90999985    2.46000004
   20.48305511   98.62840271    4.90999985    2.46000004
   20.48722267  102.29499817    4.90999985    2.48000002
   20.49055672   96.72619629    4.90999985    2.46000004
   20.49361229  102.81900024    4.90999985    2.42000008
   20.49694443   95.41449738    4.90999985    2.40000010
   20.50027847  102.79199982    4.90999985    2.39000010
   20.50333405  114.97299957    4.90999985    2.34999990
   20.50666618  113.85900116    4.90999985    2.30999994
   20.50972176   91.63800049    4.90999985    2.34999990
   20.51305580  116.94599915    4.90999985    2.39000010
   20.51638794  115.73400116    4.90999985    2.36999989
   20.51944351  103.42500305    4.90999985    2.34999990
   20.52055550  105.58999634    4.90999985    0.05000000
   20.52583313  105.58999634    4.90999985    2.36999989
   20.53000069  101.51100159    4.90999985    2.42000008
   20.53333282  117.11799622    4.90999985    2.39000010
   20.53638840   95.02529907    4.90999985    2.44000006
   20.55416679   96.22139740    4.90999985    2.40000010
   20.55638885  112.90299988    4.90999985    2.44000006
   20.55972099   85.88670349    4.90999985    2.42000008
   20.56305504  134.19999695    4.90999985    2.23000002
   20.56888962  134.19999695    4.90999985    2.34999990
   20.57305717  112.27400208    4.90999985    2.39000010
   20.57638931  135.37399292    4.90999985    2.32999992
   20.57944489  103.37100220    4.90999985    2.28999996
   20.58277893  138.62699890    4.90999985    2.19000006
   20.58611107  115.65100098    4.90999985    2.32999992
   20.58722305  162.30599976    4.90999985    2.15000010
   20.58972359  157.79800415    4.90999985    2.15000010
   20.59305573  116.63099670    4.90999985    2.19000006
   20.59638977  149.45300293    4.90999985    2.13000011
   20.59944534  132.22799683    4.90999985    2.19000006
   20.60277748  206.13499451    4.90999985    2.05999994
   20.60583305  141.17700195    4.90999985    2.05999994
   20.61194420  141.17700195    4.90999985    2.05999994
   20.61583328  161.28100586    4.90999985    2.09999990
   20.61916733  152.45500183    4.90999985    2.17000008
   20.62055588  137.42500305    4.90999985    2.07999992
   20.62277794  125.29299927    4.90999985    2.13000011
   20.62611198  110.14099884    4.90999985    2.23000002
   20.62916756  106.94699860    4.90999985    2.21000004
   20.63249969   96.90390015    4.90999985    2.28999996
   20.63555527  120.62100220    4.90999985    2.30999994
   20.63888931  106.41300201    4.90999985    2.30999994
   20.64222145  109.38099670    4.90999985    2.40000010
   20.64527702  110.64199829    4.90999985    2.39000010
   20.64861107   99.25370026    4.90999985    2.30999994
   20.65472221   99.25370026    4.90999985    2.01999998
   20.65888786  108.99400330    4.90999985    2.32999992
   20.66194344  129.70399475    4.90999985    2.17000008
   20.66527748  121.09899902    4.90999985    2.26999998
   20.66860962  147.90400696    4.90999985    2.05999994
   20.67194366  221.71499634    4.90999985    2.00000000
   20.67499924  182.20799255    4.90999985    1.96000004
   20.67833328  245.61300659    4.90999985    1.98000002
   20.68138885  287.14801025    4.90999985    1.88000000
   20.68472099  270.31399536    4.90999985    1.96000004
   20.68750000  198.22500610    4.90999985    2.05999994
   20.68861008  216.35600281    4.90999985    2.15000010
   20.69166565  215.20100403    4.90999985    2.25000000
   20.69749832  215.20100403    4.90999985    2.25000000
