    HOUR (UT)   FLARE FACTOR    SKY TESTER    SUN TESTER
   12.27277756   -1.00000000   -1.00000000   -1.00000000
   12.32750034  132.67599487    0.00000000    0.00000000
   12.33083344  122.41699982    0.00000000    0.00000000
   12.33388901  119.37999725    0.00000000    0.00000000
   12.33722210  123.05699921    0.00000000    0.00000000
   12.34055519  127.25099945    0.00000000    0.00000000
   12.34361076  124.20899963    0.00000000    0.00000000
   12.34777737  124.20899963    0.00000000    0.00000000
   12.35194492  118.63899994    0.00000000    0.00000000
   12.35527802  126.31400299    0.00000000    0.00000000
   12.35833359  140.20599365    0.00000000    0.00000000
   12.36083412  120.02799988    0.00000000    0.00000000
   12.36222267  119.12599945    0.00000000    0.00000000
   12.36527824  117.23999786    0.00000000    0.00000000
   12.36861134  119.47699738    0.00000000    0.00000000
   12.37194443  118.33799744    0.00000000    0.00000000
   12.37500000  113.71399689    0.00000000    0.00000000
   12.37833309  120.61699677    0.00000000    0.00000000
   12.38166714  121.41899872    0.00000000    0.00000000
   12.38472176  118.12999725    0.00000000    0.00000000
   12.39055538  118.12999725    0.00000000    0.00000000
   12.39472198  119.29299927    0.00000000    0.00000000
   12.39805508  115.07599640    0.00000000    0.00000000
   12.40138817  120.79599762    0.00000000    0.00000000
   12.40444374  115.75499725    0.00000000    0.00000000
   12.40777779  121.23999786    0.00000000    0.00000000
   12.41083336  122.36599731    0.05000000    0.01000000
   12.41416645  121.28399658    0.05000000    0.01000000
   12.41750050  125.14199829    0.05000000    0.01000000
   12.42055607  116.23500061    0.05000000    0.01000000
   12.42388916  133.45500183    0.05000000    0.01000000
   12.42722225  117.83499908    0.05000000    0.01000000
   12.42750072  131.90600586    0.05000000    0.01000000
   12.43361092  131.90600586    0.05000000    0.01000000
   12.43777752  121.29299927    0.05000000    0.01000000
   12.44083309  121.61399841    0.05000000    0.01000000
   12.44416714  121.03700256    0.05000000    0.01000000
   12.44722271  125.89900208    0.05000000    0.01000000
   12.45055580  115.68199921    0.05000000    0.01000000
   12.45388889  125.37799835    0.05000000    0.01000000
   12.45722198  112.36599731    0.05000000    0.01000000
   12.46027756  120.72399902    0.05000000    0.01000000
   12.46111107  114.01399994    0.05000000    0.01000000
   12.46388912  118.74700165    0.05000000    0.01000000
   12.46722221  126.30500031    0.05000000    0.01000000
   12.47027779  117.24299622    0.05000000    0.01000000
   12.47638798  117.24299622    0.05000000    0.01000000
   12.48055553  108.76399994    0.05000000    0.01000000
   12.48361111  104.33899689    0.05000000    0.01000000
   12.48694515  106.46499634    0.05000000    0.01000000
   12.49027824  104.84400177    0.05000000    0.01000000
   12.49333382  103.88500214    0.05000000    0.01000000
   12.49444485  108.79199982    0.05000000    0.01000000
   12.49694443  103.60500336    0.05000000    0.01000000
   12.50027752  107.65100098    0.05000000    0.01000000
   12.50333309  106.85399628    0.05000000    0.01000000
   12.50666714  119.62599945    0.05000000    0.01000000
   12.51000023  118.44000244    0.05000000    0.01000000
   12.51305580  114.40100098    0.05000000    0.01000000
   12.51916599  114.40100098    0.05000000    0.01000000
   12.52333355  117.07199860    0.05000000    0.01000000
   12.52666664  110.00399780    0.05000000    0.01000000
   12.52777767  113.63400269    0.05000000    0.01000000
   12.53027725  104.68800354    0.05000000    0.01000000
   12.53361130  113.23500061    0.05000000    0.01000000
   12.53666687  114.22000122    0.05000000    0.01000000
   12.54000092  109.13700104    0.05000000    0.01000000
   12.54333401  103.84700012    0.05000000    0.01000000
   12.54638958  107.25000000    0.05000000    0.01000000
   12.54972267  109.24500275    0.05000000    0.01000000
   12.55305576  106.97899628    0.05000000    0.01000000
   12.55611134   97.76779938    0.05000000    0.01000000
   12.56194496   97.76779938    0.05000000    0.01000000
   12.56611156   98.66680145    0.05000000    0.01000000
   12.56944466  101.70999908    0.05000000    0.01000000
   12.57277775  107.46199799    0.05000000    0.01000000
   12.57583332  111.12100220    0.05000000    0.01000000
   12.57916641  110.22899628    0.05000000    0.01000000
   12.58222198  108.40299988    0.05000000    0.01000000
   12.58555508   98.09739685    0.05000000    0.01000000
   12.58888817  110.82399750    0.05000000    0.01000000
   12.59194374  102.09400177    0.05000000    0.01000000
   12.59444427  107.85099792    0.05000000    0.01000000
   12.59555531  109.72399902    0.05000000    0.01000000
   12.59888840  113.55400085    0.05000000    0.01000000
   12.60500050  113.55400085    0.05000000    0.01000000
   12.60916710   94.79709625    0.05000000    0.01000000
   12.61222267  107.32599640    0.05000000    0.01000000
   12.61555576   97.23110199    0.05000000    0.01000000
   12.61861134  101.67400360    0.05000000    0.01000000
   12.62194443  112.50399780    0.05000000    0.01000000
   12.62527752  111.14299774    0.05000000    0.01000000
   12.62777805  114.17500305    0.05000000    0.01000000
   12.62888908  105.88099670    0.05000000    0.01000000
   12.63222218   99.03250122    0.05000000    0.01000000
   12.63527775  105.03600311    0.05000000    0.01000000
   12.63861084  101.63800049    0.05000000    0.01000000
   12.64194393  108.06199646    0.05000000    0.01000000
   12.64777756  108.06199646    0.05000000    0.01000000
   12.65194416  101.42600250    0.05000000    0.01000000
   12.65499973  110.13899994    0.05000000    0.01000000
   12.65833282  105.86399841    0.05000000    0.01000000
   12.66111088  103.18499756    0.05000000    0.01000000
   12.66194439  105.46499634    0.05000000    0.01000000
   12.66527748  104.63400269    0.05000000    0.01000000
   12.66833401  108.58599854    0.05000000    0.01000000
   12.67166710  105.25399780    0.05000000    0.01000000
   12.67500019  109.02799988    0.05000000    0.01000000
   12.67805576  103.29199982    0.05000000    0.01000000
   12.68138885  104.61799622    0.05000000    0.01000000
   12.68472195  112.00299835    0.05000000    0.01000000
   12.69055557  112.00299835    0.05000000    0.01000000
   12.69472218  108.53700256    0.05000000    0.01000000
   12.69805527  102.72200012    0.05000000    0.01000000
   12.70111084  109.26399994    0.05000000    0.01000000
   12.70444393  118.48100281    0.05000000    0.01000000
   12.70777798  112.60900116    0.05000000    0.01000000
   12.71083355  113.09999847    0.05000000    0.01000000
   12.71416664  108.15100098    0.05000000    0.01000000
   12.71749973  117.23400116    0.05000000    0.01000000
   12.72055531  112.58899689    0.05000000    0.01000000
   12.72388840  110.07499695    0.05000000    0.01000000
   12.72694397  104.68900299    0.05000000    0.01000000
   12.72777748  109.56800079    0.05000000    0.01000000
   12.73333359  109.56800079    0.05000000    0.01000000
   12.73750019  107.04199982    0.05000000    0.01000000
   12.74083328   99.09480286    0.05000000    0.01000000
   12.74416733  104.69699860    0.05000000    0.01000000
   12.74722290  103.00900269    0.05000000    0.01000000
   12.75055599  105.21199799    0.05000000    0.01000000
   12.75361156  110.92600250    0.05000000    0.01000000
   12.75694466  103.89700317    0.05000000    0.01000000
   12.76027775  106.31400299    0.05000000    0.01000000
   12.76111126  106.13999939    0.05000000    0.01000000
   12.76361084  110.84700012    0.05000000    0.01000000
   12.76694393  112.94300079    0.05000000    0.01000000
   12.77027798  104.34799957    0.05000000    0.01000000
   12.77638817  104.34799957    0.05000000    0.01000000
   12.78055573  104.24600220    0.05000000    0.01000000
   12.78388977   95.14679718    0.05000000    0.01000000
   12.78722286  102.31099701    0.05000000    0.01000000
   12.79027843  104.66799927    0.05000000    0.01000000
   12.79361153  111.64700317    0.05000000    0.01000000
   12.79444504   98.24379730    0.05000000    0.01000000
   12.79722309  102.93499756    0.05000000    0.01000000
   12.80055618  108.57299805    0.05000000    0.01000000
   12.80361176  106.18800354    0.05000000    0.01000000
   12.80694485  101.45800018    0.05000000    0.01000000
   12.81027794   99.45880127    0.05000000    0.01000000
   12.81333351  102.55100250    0.05000000    0.01000000
   12.81944466  102.55100250    0.05000000    0.01000000
   12.82361126   94.89409637    0.05000000    0.01000000
   12.82666683   97.53359985    0.05000000    0.01000000
   12.82777786  102.04499817    0.05000000    0.01000000
   12.83027744  100.97599792    0.05000000    0.01000000
   12.83361053   98.15859985    0.05000000    0.01000000
   12.83666611  103.34999847    0.05000000    0.01000000
   12.84000015  107.76100159    0.05000000    0.01000000
   12.84333324   99.70030212    0.05000000    0.01000000
   12.84638882  102.18299866    0.05000000    0.01000000
   12.84972191  100.14499664    0.05000000    0.01000000
   12.85277843   98.08979797    0.05000000    0.01000000
   12.85583401  102.55699921    0.05000000    0.01000000
   12.86194515  102.55699921    0.05000000    0.01000000
   12.86611176  104.68800354    0.05000000    0.01000000
   12.86944485  103.45899963    0.05000000    0.01000000
   12.87250042  107.08499908    0.05000000    0.01000000
   12.87583351  100.59600067    0.05000000    0.01000000
   12.87916660   91.08499908    0.05000000    0.01000000
   12.88222218   97.57309723    0.05000000    0.01000000
   12.88555527  100.31400299    0.05000000    0.01000000
   12.88888836  102.23100281    0.05000000    0.01000000
   12.89194393   99.39589691    0.05000000    0.01000000
   12.89444447  100.85800171    0.05000000    0.01000000
   12.89555550   97.59909821    0.05000000    0.01000000
   12.89888859   97.84120178    0.05000000    0.01000000
   12.90472221   97.84120178    0.05000000    0.01000000
   12.90888882   97.33149719    0.05000000    0.01000000
   12.91222191   98.79949951    0.05000000    0.01000000
   12.91555500   98.81649780    0.05000000    0.01000000
   12.91861153   98.80699921    0.05000000    0.01000000
   12.92194462  103.84100342    0.05000000    0.01000000
   12.92500019  102.78700256    0.05000000    0.01000000
   12.92777824  101.52300262    0.05000000    0.01000000
   12.92861176   98.43070221    0.05000000    0.01000000
   12.93194485  101.76200104    0.05000000    0.01000000
   12.93527794   96.45010376    0.05000000    0.01000000
   12.93833351  101.98799896    0.05000000    0.01000000
   12.94166660  101.88400269    0.05000000    0.01000000
   12.94777775  101.88400269    0.05000000    0.01000000
   12.95194435   98.08740234    0.05000000    0.01000000
   12.95499992  102.08899689    0.05000000    0.01000000
   12.95833302   98.77610016    0.05000000    0.01000000
   12.96111107   98.46779633    0.05000000    0.01000000
   12.96194458  102.24500275    0.05000000    0.01000000
   12.96527767   97.68430328    0.05000000    0.01000000
   12.96861076  103.77100372    0.05000000    0.01000000
   12.97166634   94.83390045    0.05000000    0.01000000
   12.97499943   98.77680206    0.05000000    0.01000000
   12.97805500   97.92859650    0.05000000    0.01000000
   12.98138809   99.55860138    0.05000000    0.01000000
   12.98472214   98.46749878    0.05000000    0.01000000
   12.99055576   98.46749878    0.05000000    0.01000000
   12.99472237   97.98329926    0.05000000    0.01000000
   12.99777794  102.70500183    0.05000000    0.01000000
   13.00111103  102.26399994    0.05000000    0.01000000
   13.00444412  101.56900024    0.05000000    0.01000000
   13.00749969   98.79299927    0.05000000    0.01000000
   13.01083374   92.82790375    0.05000000    0.01000000
   13.01416683  101.80799866    0.05000000    0.01000000
   13.01722240   97.02989960    0.05000000    0.01000000
   13.02055550   95.67919922    0.05000000    0.01000000
   13.02361107   95.68000031    0.05000000    0.01000000
   13.02694416   96.71730042    0.05000000    0.01000000
   13.02777767  102.43499756    0.05000000    0.01000000
   13.03333378  102.43499756    0.05000000    0.01000000
   13.03750038   99.51349640    0.05000000    0.01000000
   13.04083347  100.01799774    0.05000000    0.01000000
   13.04388905   97.84269714    0.05000000    0.01000000
   13.04722309  100.70400238    0.05000000    0.01000000
   13.05055618  100.45200348    0.05000000    0.01000000
   13.05361176   99.74729919    0.05000000    0.01000000
   13.05694485  101.12400055    0.05000000    0.01000000
   13.06000042  102.98300171    0.05000000    0.01000000
   13.06111145  105.39700317    0.05000000    0.01000000
   13.06361103  100.31900024    0.05000000    0.01000000
   13.06694412   94.47010040    0.05000000    0.01000000
   13.07027817   95.33229828    0.05000000    0.01000000
   13.07611084   95.33229828    0.05000000    0.01000000
   13.08027744   97.80829620    0.05000000    0.01000000
   13.08361053  100.37599945    0.05000000    0.01000000
   13.08694458   97.00309753    0.05000000    0.01000000
   13.09000015  102.00700378    0.05000000    0.01000000
   13.09333324   95.29650116    0.05000000    0.01000000
   13.09444427   99.52410126    0.05000000    0.01000000
   13.09666634   96.14150238    0.05000000    0.01000000
   13.10000038   99.18930054    0.05000000    0.01000000
   13.10333347   97.09210205    0.05000000    0.01000000
   13.10638905  102.96299744    0.05000000    0.01000000
   13.10972214  107.06199646    0.05000000    0.01000000
   13.11305618  104.58599854    0.05000000    0.01000000
   13.11916637  104.58599854    0.05000000    0.01000000
   13.12333393   96.70240021    0.05000000    0.01000000
   13.12638855  109.06400299    0.05000000    0.01000000
   13.12777805  101.14299774    0.05000000    0.01000000
   13.13000011   95.27899933    0.05000000    0.01000000
   13.13333321  100.25599670    0.05000000    0.01000000
   13.13666630  101.45099640    0.05000000    0.01000000
   13.13972187   97.57399750    0.05000000    0.01000000
   13.14305496  106.86499786    0.05000000    0.01000000
   13.14638901  108.51899719    0.05000000    0.01000000
   13.14944458   97.60350037    0.05000000    0.01000000
   13.15277767  108.84899902    0.05000000    0.01000000
   13.15583324   99.71690369    0.05000000    0.01000000
   13.16194439   99.71690369    0.05000000    0.01000000
   13.16611099  106.10800171    0.05000000    0.01000000
   13.16916656  123.70700073    0.05000000    0.01000000
   13.17250061  105.44499969    0.05000000    0.01000000
   13.17583370  107.34700012    0.05000000    0.01000000
   13.17888927  108.92199707    0.05000000    0.01000000
   13.18222237  104.52700043    0.05000000    0.01000000
   13.18555546  105.01499939    0.05000000    0.01000000
   13.18861103  105.70899963    0.05000000    0.01000000
   13.19194412  101.42700195    0.05000000    0.01000000
   13.19444466   99.19629669    0.05000000    0.01000000
   13.19555569  104.56500244    0.05000000    0.01000000
   13.19861126   98.74449921    0.05000000    0.01000000
   13.20472240   98.74449921    0.05000000    0.01000000
   13.20888901   92.57959747    0.05000000    0.01000000
   13.21222210  103.61000061    0.05000000    0.01000000
   13.21555519   97.96179962    0.05000000    0.01000000
   13.21861076  103.69100189    0.05000000    0.01000000
   13.22194386  107.06700134    0.05000000    0.01000000
   13.22499943  103.86599731    0.05000000    0.01000000
   13.22777748  103.58699799    0.05000000    0.01000000
   13.22888851  102.54499817    0.05000000    0.01000000
   13.23194408   95.56349945    0.05000000    0.01000000
   13.23527813   96.88629913    0.05000000    0.01000000
   13.23833370  100.95899963    0.05000000    0.01000000
   13.24166679  100.07599640    0.05000000    0.01000000
   13.24777794  100.07599640    0.05000000    0.01000000
   13.25166702  104.29799652    0.05000000    0.01000000
   13.25500011  104.47100067    0.05000000    0.01000000
   13.25833321   96.00469971    0.05000000    0.01000000
   13.26111126   96.59220123    0.05000000    0.01000000
   13.26194477  103.01799774    0.05000000    0.01000000
   13.26500034  101.70400238    0.05000000    0.01000000
   13.26833344  100.55500031    0.05000000    0.01000000
   13.27166653  107.22599792    0.05000000    0.01000000
   13.27472210   99.77269745    0.05000000    0.01000000
   13.27805519   96.69930267    0.05000000    0.01000000
   13.28111076  104.41000366    0.05000000    0.01000000
   13.28444481   97.29119873    0.05000000    0.01000000
   13.29055595   97.29119873    0.05000000    0.01000000
   13.29472256   99.04409790    0.05000000    0.01000000
   13.29777813   93.77929688    0.05000000    0.01000000
   13.30111122   95.60479736    0.05000000    0.01000000
   13.30444431   97.47219849    0.05000000    0.01000000
   13.30749989   93.97840118    0.05000000    0.01000000
   13.31083393   97.64170074    0.05000000    0.01000000
   13.31388950  100.77100372    0.05000000    0.01000000
   13.31722260   96.22709656    0.05000000    0.01000000
   13.32055569   96.90309906    0.05000000    0.01000000
   13.32361126   91.38259888    0.05000000    0.01000000
   13.32694435   92.11419678    0.05000000    0.01000000
   13.32777786   93.84279633    0.05000000    0.01000000
   13.34833336   93.84279633    0.05000000    0.01000000
   13.35249996  101.37300110    0.05000000    0.01000000
   13.35583401  102.32599640    0.05000000    0.01000000
   13.35888958   98.90940094    0.05000000    0.01000000
   13.36111164   94.93009949    0.05000000    0.01000000
   13.36277771   98.45510101    0.05000000    0.01000000
   13.36583328  100.06600189    0.05000000    0.01000000
   13.36916637  101.10399628    0.05000000    0.01000000
   13.37222195  100.66999817    0.05000000    0.01000000
   13.37555599   95.23480225    0.05000000    0.01000000
   13.37888908   99.02030182    0.05000000    0.01000000
   13.38194466   97.32369995    0.05000000    0.01000000
   13.38527775  100.87200165    0.05000000    0.01000000
   13.39111137  100.87200165    0.05000000    0.01000000
   13.39527798   96.91870117    0.05000000    0.01000000
   13.39861107  106.59400177    0.05000000    0.01000000
   13.40166664  103.07099915    0.05000000    0.01000000
   13.40499973  101.33499908    0.05000000    0.01000000
   13.40833282   98.60479736    0.05000000    0.01000000
   13.41138840  104.62100220    0.05000000    0.01000000
   13.41472149  106.37599945    0.05000000    0.01000000
   13.41805553  105.36199951    0.05000000    0.01000000
   13.42111111   94.82740021    0.05000000    0.01000000
   13.42444515  102.23300171    0.05000000    0.01000000
   13.42777824   99.12079620    0.05000000    0.01000000
   13.42833328   93.16419983    0.05000000    0.01000000
   13.43388939   93.16419983    0.05000000    0.01000000
   13.43805599  100.10800171    0.05000000    0.01000000
   13.44138908   98.87519836    0.05000000    0.01000000
   13.44472218   95.41010284    0.05000000    0.01000000
   13.44777775   98.52330017    0.05000000    0.01000000
   13.45111084   98.97419739    0.05000000    0.01000000
   13.45416641   96.93009949    0.05000000    0.01000000
   13.45749950   97.19509888    0.05000000    0.01000000
   13.46083355  105.12699890    0.05000000    0.01000000
   13.46166611   97.84320068    0.05000000    0.01000000
   13.46444416   98.21510315    0.05000000    0.01000000
   13.46777725   92.26830292    0.05000000    0.01000000
   13.47083282   96.32189941    0.05000000    0.01000000
   13.47694397   96.32189941    0.05000000    0.01000000
   13.48111057  100.51999664    0.05000000    0.01000000
   13.48416710  100.82599640    0.05000000    0.01000000
   13.48750019   99.44539642    0.05000000    0.01000000
   13.49055576   99.42459869    0.05000000    0.01000000
   13.49388885  102.70600128    0.05000000    0.01000000
   13.49499989  107.49500275    0.05000000    0.01000000
   13.49750042   98.74839783    0.05000000    0.01000000
   13.50083351  102.98600006    0.05000000    0.01000000
   13.50416660  101.18199921    0.05000000    0.01000000
   13.50722218   98.86049652    0.05000000    0.01000000
   13.51055527  101.73799896    0.05000000    0.01000000
   13.51361084  105.70300293    0.05000000    0.01000000
   13.51972198  105.70300293    0.05000000    0.01000000
   13.52388859   96.66590118    0.05000000    0.01000000
   13.52694416  100.41699982    0.05000000    0.01000000
   13.52833271   97.40509796    0.05000000    0.01000000
   13.53055573  104.01200104    0.05000000    0.01000000
   13.53388977   98.68070221    0.05000000    0.01000000
   13.53694534  105.93399811    0.05000000    0.01000000
   13.54027843   99.94249725    0.05000000    0.01000000
   13.54361153  104.35900116    0.05000000    0.01000000
   13.54666710  106.32199860    0.05000000    0.01000000
   13.55000019  100.19100189    0.05000000    0.01000000
   13.55333328   99.51229858    0.05000000    0.01000000
   13.55638885  106.88899994    0.05000000    0.01000000
   13.56250000  106.88899994    0.05000000    0.01000000
   13.56666660  108.02500153    0.05000000    0.01000000
   13.56999969  107.15499878    0.05000000    0.01000000
   13.57333374   98.80909729    0.05000000    0.01000000
   13.57638836  105.80000305    0.05000000    0.01000000
   13.57972240  102.62899780    0.05000000    0.01000000
   13.58305550  105.97299957    0.05000000    0.01000000
   13.58611107  107.32599640    0.05000000    0.01000000
   13.58944416  105.32800293    0.05000000    0.01000000
   13.59249973  103.99500275    0.05000000    0.01000000
   13.59499931  103.29000092    0.05000000    0.01000000
   13.59611034  106.47699738    0.05000000    0.01000000
   13.59944439  102.16200256    0.05000000    0.01000000
   13.60527802  102.16200256    0.05000000    0.01000000
   13.60944462  104.68399811    0.05000000    0.01000000
   13.61277771  108.33000183    0.05000000    0.01000000
   13.61583328  109.44999695    0.05000000    0.01000000
   13.61916637  109.56500244    0.05000000    0.01000000
   13.62250042  108.19100189    0.05000000    0.01000000
   13.62555599  112.95600128    0.05000000    0.01000000
   13.62833309  109.64099884    0.05000000    0.01000000
   13.62916660  105.87000275    0.05000000    0.01000000
   13.63249969  104.65899658    0.05000000    0.01000000
   13.63583279  107.79199982    0.05000000    0.01000000
   13.63916683  107.20800018    0.05000000    0.01000000
   13.64222240  106.81600189    0.05000000    0.01000000
   13.64833355  106.81600189    0.05000000    0.01000000
   13.65249920  106.85700226    0.05000000    0.01000000
   13.65555477  103.31300354    0.05000000    0.01000000
   13.65888882  103.16799927    0.05000000    0.01000000
   13.66166592  103.69999695    0.05000000    0.01000000
   13.66249943  107.42500305    0.05000000    0.01000000
   13.66583252  106.83499908    0.05000000    0.01000000
   13.66916656  102.99500275    0.05000000    0.01000000
   13.67222214   92.47339630    0.05000000    0.01000000
   13.67555618   87.06549835    0.05000000    0.01000000
   13.67888927   89.56189728    0.05000000    0.01000000
   13.68222237   93.31230164    0.05000000    0.01000000
   13.68527794   84.52110291    0.05000000    0.01000000
   13.69111156   84.52110291    0.05000000    0.01000000
   13.69527817  104.96900177    0.05000000    0.01000000
   13.69833374  112.31300354    0.05000000    0.01000000
   13.70166683  107.82900238    0.05000000    0.01000000
   13.70499992  109.03500366    0.05000000    0.01000000
   13.70805550  110.82900238    0.05000000    0.01000000
   13.71138859  105.54799652    0.05000000    0.01000000
   13.71472168  107.80899811    0.05000000    0.01000000
   13.71777725  111.61399841    0.05000000    0.01000000
   13.72111034  108.14900208    0.05000000    0.01000000
   13.72416592  103.92299652    0.05000000    0.01000000
   13.72749996  116.19899750    0.05000000    0.01000000
   13.72833252  112.56199646    0.05000000    0.01000000
   13.73388958  112.56199646    0.05000000    0.01000000
   13.73805618  114.75900269    0.05000000    0.01000000
   13.74138927  107.61000061    0.05000000    0.01000000
   13.74444485  116.08999634    0.05000000    0.01000000
   13.74777794  108.56999969    0.05000000    0.01000000
   13.75111103  119.46800232    0.05000000    0.01000000
   13.75416660  111.83100128    0.05000000    0.01000000
   13.75749969  119.19899750    0.05000000    0.01000000
   13.76083374  113.53500366    0.05000000    0.01000000
   13.76166630  116.54000092    0.05000000    0.01000000
   13.76416683  113.58399963    0.05000000    0.01000000
   13.76749992  121.49600220    0.05000000    0.01000000
   13.77083302  146.68200684    0.05000000    0.01000000
   13.77666664  146.68200684    0.05000000    0.01000000
   13.78083324  119.00199890    0.05000000    0.01000000
   13.78416729  115.83499908    0.05000000    0.01000000
   13.78722286  103.85700226    0.05000000    0.01000000
   13.79055595  110.16500092    0.05000000    0.01000000
   13.79388905  104.95500183    0.05000000    0.01000000
   13.79500008  109.80300140    0.05000000    0.01000000
   13.79722309  104.15499878    0.05000000    0.01000000
   13.80055618  105.20300293    0.05000000    0.01000000
   13.80388927  109.41400146    0.05000000    0.01000000
   13.80694485  113.73500061    0.05000000    0.01000000
   13.81027794  108.54000092    0.05000000    0.01000000
   13.81333351  112.99400330    0.05000000    0.01000000
   13.81972218  112.99400330    0.05000000    0.01000000
   13.82388878  105.04599762    0.05000000    0.01000000
   13.82694435  109.61499786    0.05000000    0.01000000
   13.82833290  102.67199707    0.05000000    0.01000000
   13.83083344   98.96330261    0.05000000    0.01000000
   13.83416653  104.12899780    0.05000000    0.01000000
   13.83722210  121.30899811    0.05000000    0.01000000
   13.84055519  115.28399658    0.05000000    0.01000000
   13.84388828  110.96800232    0.05000000    0.01000000
   13.84694386  110.82800293    0.05000000    0.01000000
   13.85027790  106.92199707    0.05000000    0.01000000
   13.85361195  103.19499969    0.05000000    0.01000000
   13.85666752  118.41699982    0.05000000    0.01000000
   13.86250019  118.41699982    0.05000000    0.01000000
   13.86666679  111.21399689    0.05000000    0.01000000
   13.86972237  103.62100220    0.05000000    0.01000000
   13.87305546  100.43299866    0.05000000    0.01000000
   13.87638855  105.86100006    0.05000000    0.01000000
   13.87944412  101.31900024    0.05000000    0.01000000
   13.88277817  105.29699707    0.05000000    0.01000000
   13.88611126  103.97299957    0.05000000    0.01000000
   13.88916683  106.16699982    0.05000000    0.01000000
   13.89249992  105.76599884    0.05000000    0.01000000
   13.89499950  105.60299683    0.05000000    0.01000000
   13.89611053  103.78399658    0.05000000    0.01000000
   13.89944458  103.79199982    0.05000000    0.01000000
   13.90527725  103.79199982    0.05000000    0.01000000
   13.90944386  111.09999847    0.05000000    0.01000000
   13.91277695  108.53600311    0.05000000    0.01000000
   13.91583252  116.72799683    0.05000000    0.01000000
   13.91916656  117.55100250    0.05000000    0.01000000
   13.92250061  119.67199707    0.05000000    0.01000000
   13.92555618  105.89700317    0.05000000    0.01000000
   13.92833328  106.82900238    0.05000000    0.01000000
   13.92916679  107.90100098    0.05000000    0.01000000
   13.93249989  114.81999969    0.05000000    0.01000000
   13.93583298  104.31600189    0.05000000    0.01000000
   13.93888855  104.29699707    0.05000000    0.01000000
   13.94222260  111.44499969    0.05000000    0.01000000
   13.94805527  111.44499969    0.05000000    0.01000000
   13.95222187  106.69999695    0.05000000    0.01000000
   13.95555496  107.63600159    0.05000000    0.01000000
   13.95888901  111.69300079    0.05000000    0.01000000
   13.96166611  110.39800262    0.05000000    0.01000000
   13.96249962  115.63899994    0.05000000    0.01000000
   13.96583271  106.00299835    0.05000000    0.01000000
   13.96888828  114.54199982    0.05000000    0.01000000
   13.97222137  110.57499695    0.05000000    0.01000000
   13.97527695  118.72499847    0.05000000    0.01000000
   13.97861099  115.62100220    0.05000000    0.01000000
   13.98194408  108.72599792    0.05000000    0.01000000
   13.98500061  118.08599854    0.05000000    0.01000000
   13.99111176  118.08599854    0.05000000    0.01000000
   13.99527836  113.59899902    0.05000000    0.01000000
   13.99833393  108.57800293    0.05000000    0.01000000
   14.00166702  115.14099884    0.05000000    0.01000000
   14.00500011  113.94200134    0.05000000    0.01000000
   14.00805569  119.46199799    0.05000000    0.01000000
   14.01138878  104.98899841    0.05000000    0.01000000
   14.01472187  106.98100281    0.05000000    0.01000000
   14.01777744  115.94499969    0.05000000    0.01000000
   14.02111053  111.34300232    0.05000000    0.01000000
   14.02444458  101.66300201    0.05000000    0.01000000
   14.02750015  116.41300201    0.05000000    0.01000000
   14.02833271  113.97299957    0.05000000    0.01000000
   14.03388977  113.97299957    0.05000000    0.01000000
   14.03805637  120.76000214    0.05000000    0.01000000
   14.04111195  115.63200378    0.05000000    0.01000000
   14.04472256  110.93900299    0.05000000    0.01000000
   14.04777813  113.83399963    0.05000000    0.01000000
   14.05111122  114.45999908    0.05000000    0.01000000
   14.05444431  111.57700348    0.05000000    0.01000000
   14.05749989  114.58599854    0.05000000    0.01000000
   14.06083393  112.64700317    0.05000000    0.01000000
   14.06166649  119.82099915    0.05000000    0.01000000
   14.06416702  107.20899963    0.05000000    0.01000000
   14.06750011  122.87500000    0.05000000    0.01000000
   14.07083321  103.61499786    0.05000000    0.01000000
   14.07666683  103.61499786    0.05000000    0.01000000
   14.08083344  117.15000153    0.05000000    0.01000000
   14.08416653  118.66000366    0.05000000    0.01000000
   14.08722210  105.90299988    0.05000000    0.01000000
   14.09055519  113.20200348    0.05000000    0.01000000
   14.09388828  104.10199738    0.05000000    0.01000000
   14.09499931  111.58499908    0.05000000    0.01000000
   14.09722233  115.46399689    0.05000000    0.01000000
   14.10055637  114.95800018    0.05000000    0.01000000
   14.10388947  108.26399994    0.05000000    0.01000000
   14.10694504  119.47100067    0.05000000    0.01000000
   14.11027813  119.77899933    0.05000000    0.01000000
   14.11361122  111.83499908    0.05000000    0.01000000
   14.11944485  111.83499908    0.05000000    0.01000000
   14.12361145  113.62999725    0.05000000    0.01000000
   14.12694454  119.72699738    0.05000000    0.01000000
   14.12833309  108.88500214    0.05000000    0.01000000
   14.13083363  111.94300079    0.05000000    0.01000000
   14.13388920  107.50000000    0.05000000    0.01000000
   14.13722229  113.05200195    0.05000000    0.01000000
   14.14027786  112.75000000    0.05000000    0.01000000
   14.14361095  118.28399658    0.05000000    0.01000000
   14.14694405  104.84300232    0.05000000    0.01000000
   14.14999962  110.59300232    0.05000000    0.01000000
   14.15333271  109.77400208    0.05000000    0.01000000
   14.15666676  111.33200073    0.05000000    0.01000000
   14.16249943  111.33200073    0.05000000    0.01000000
   14.16638851  113.80100250    0.05000000    0.01000000
   14.16972256  112.97799683    0.05000000    0.01000000
   14.17305565  106.53099823    0.05000000    0.01000000
   14.17611122  114.81300354    0.05000000    0.01000000
   14.17944431  107.34100342    0.05000000    0.01000000
   14.18277836  118.21800232    0.05000000    0.01000000
   14.18583298  117.73600006    0.05000000    0.01000000
   14.18916702  135.12199402    0.05000000    0.01000000
   14.19222260  146.13200378    0.05000000    0.01000000
   14.19499969  140.23699951    0.05000000    0.01000000
   14.19583321  135.16600037    0.05000000    0.01000000
   14.19916630  150.40499878    0.05000000    0.01000000
   14.20527744  150.40499878    0.05000000    0.01000000
   14.20944405  153.20799255    0.05000000    0.01000000
   14.21249962  153.63900757    0.05000000    0.01000000
   14.21583271  160.96699524    0.05000000    0.01000000
   14.21916580  170.00999451    0.05000000    0.01000000
   14.22222137  169.55599976    0.05000000    0.01000000
   14.22555542  164.57400513    0.05000000    0.01000000
   14.22833252  175.24800110    0.05000000    0.01000000
   14.22916603  141.17500305    0.05000000    0.01000000
   14.23249912  159.68699646    0.05000000    0.01000000
   14.23583317  153.44900513    0.05000000    0.01000000
   14.23888874  148.04400635    0.05000000    0.01000000
   14.24222279  155.41200256    0.05000000    0.01000000
   14.24805546  155.41200256    0.05000000    0.01000000
   14.25222206  138.71000671    0.05000000    0.01000000
   14.25555515  136.74000549    0.05000000    0.01000000
   14.25861073  132.10800171    0.05000000    0.01000000
   14.26194477  144.06700134    0.05000000    0.01000000
   14.26249981  137.58999634    0.05000000    0.01000000
   14.26583290  129.90400696    0.05000000    0.01000000
   14.26888847  127.80400085    0.05000000    0.01000000
   14.27222157  136.52699280    0.05000000    0.01000000
   14.27555561  139.76699829    0.05000000    0.01000000
   14.27861118  123.63300323    0.05000000    0.01000000
   14.28194427  135.35099792    0.05000000    0.01000000
   14.28527832  132.49200439    0.05000000    0.01000000
   14.29083347  132.49200439    0.05000000    0.01000000
   14.29500008  110.76399994    0.05000000    0.01000000
   14.29833412  116.28500366    0.05000000    0.01000000
   14.30138874  109.14600372    0.05000000    0.01000000
   14.30472279  121.09500122    0.05000000    0.01000000
   14.30805588  128.33599854    0.05000000    0.01000000
   14.31111145  137.72099304    0.05000000    0.01000000
   14.31444454  128.02600098    0.05000000    0.01000000
   14.31777763  144.27299500    0.05000000    0.01000000
   14.32083321  125.73100281    0.05000000    0.01000000
   14.32416630  145.63200378    0.05000000    0.01000000
   14.32750034  132.43200684    0.05000000    0.01000000
   14.32833290  134.04400635    0.05000000    0.01000000
   14.33388901  134.04400635    0.05000000    0.01000000
   14.33777714  127.28399658    0.05000000    0.01000000
   14.34111118  139.05200195    0.05000000    0.01000000
   14.34444427  107.84500122    0.05000000    0.01000000
   14.36194515  110.95700073    0.05000000    0.01000000
   14.36444473  108.28099823    0.05000000    0.01000000
   14.36777782  109.25499725    0.05000000    0.01000000
   14.37111092  106.08100128    0.05000000    0.01000000
   14.37666702  106.08100128    0.05000000    0.01000000
   14.38083363  115.10600281    0.05000000    0.01000000
   14.38416672  111.10099792    0.05000000    0.01000000
   14.38749981  114.75599670    0.05000000    0.01000000
   14.39055538  107.62899780    0.05000000    0.01000000
   14.39388847  115.61900330    0.05000000    0.01000000
   14.39527798  119.10399628    0.05000000    0.01000000
   14.39750004  122.85600281    0.05000000    0.01000000
   14.40083313  113.66100311    0.05000000    0.01000000
   14.40416622  110.00800323    0.05000000    0.01000000
   14.40722179  109.63999939    0.05000000    0.01000000
   14.41055489  113.12899780    0.05000000    0.01000000
   14.41388893  120.59500122    0.05000000    0.01000000
   14.41972256  120.59500122    0.05000000    0.01000000
   14.42388916  110.04299927    0.05000000    0.01000000
   14.42694473  108.76100159    0.05000000    0.01000000
   14.42861176  110.33599854    0.05000000    0.01000000
   14.43055630  113.88500214    0.05000000    0.01000000
   14.43388939  114.38400269    0.05000000    0.01000000
   14.43722248  111.53099823    0.05000000    0.01000000
   14.44027805  107.90299988    0.05000000    0.01000000
   14.44361115  103.79199982    0.05000000    0.01000000
   14.44694424  107.97100067    0.05000000    0.01000000
   14.44999981  115.63800049    0.05000000    0.01000000
   14.45333290  113.61199951    0.05000000    0.01000000
   14.45638847  109.80799866    0.05000000    0.01000000
   14.46249962  109.80799866    0.05000000    0.01000000
   14.46666622  112.43499756    0.05000000    0.01000000
   14.46972179  109.39199829    0.05000000    0.01000000
   14.47305489  115.36499786    0.05000000    0.01000000
   14.47638798  114.96099854    0.05000000    0.01000000
   14.47944355  114.08899689    0.05000000    0.01000000
   14.48277760  104.62400055    0.05000000    0.01000000
   14.48611164  117.43599701    0.05000000    0.01000000
   14.48916721  106.25000000    0.05000000    0.01000000
   14.49250031  112.16899872    0.05000000    0.01000000
   14.49527836  114.41500092    0.05000000    0.01000000
   14.49611092  113.87400055    0.05000000    0.01000000
   14.49944496  112.38200378    0.05000000    0.01000000
   14.50527763  112.38200378    0.05000000    0.01000000
   14.50944424  110.02400208    0.05000000    0.01000000
   14.51277733  114.17500305    0.05000000    0.01000000
   14.51583290  109.60099792    0.05000000    0.01000000
   14.51916599  105.23699951    0.05000000    0.01000000
   14.52250004  112.53199768    0.05000000    0.01000000
   14.52555561  108.24299622    0.05000000    0.01000000
   14.52861118  110.46399689    0.05000000    0.01000000
   14.52916622  110.70800018    0.05000000    0.01000000
   14.53249931  110.11199951    0.05000000    0.01000000
   14.53583336  110.91699982    0.05000000    0.01000000
   14.53888893  111.68299866    0.05000000    0.01000000
   14.54222298  115.67600250    0.05000000    0.01000000
   14.54805565  115.67600250    0.05000000    0.01000000
   14.55222225   97.99340057    0.05000000    0.01000000
   14.55555534  102.72899628    0.05000000    0.01000000
   14.55888939  105.27700043    0.05000000    0.01000000
   14.56194496  116.21199799    0.05000000    0.01000000
   14.56222248  111.17600250    0.05000000    0.01000000
   14.56555557  108.20099640    0.05000000    0.01000000
   14.56888866  114.71800232    0.05000000    0.01000000
   14.57194424  108.17299652    0.05000000    0.01000000
   14.57527733  108.66600037    0.05000000    0.01000000
   14.57861137  102.11199951    0.05000000    0.01000000
   14.58166695  106.39600372    0.05000000    0.01000000
   14.58500004  106.66200256    0.05000000    0.01000000
   14.59111118  106.66200256    0.05000000    0.01000000
   14.59527779  108.12500000    0.05000000    0.01000000
   14.59555531  111.55300140    0.05000000    0.01000000
   14.59888840   99.67250061    0.05000000    0.01000000
   14.60222244  116.09100342    0.05000000    0.01000000
   14.60527802  109.95500183    0.05000000    0.01000000
   14.60861111  117.12699890    0.05000000    0.01000000
   14.61194515  115.84100342    0.05000000    0.01000000
   14.61500072  112.63600159    0.05000000    0.01000000
   14.61833382  113.20300293    0.05000000    0.01000000
   14.62166691  111.23899841    0.05000000    0.01000000
   14.62472248  118.19699860    0.05000000    0.01000000
   14.62805557  118.63600159    0.05000000    0.01000000
   14.62861156  117.96499634    0.05000000    0.01000000
   14.63388920  117.96499634    0.05000000    0.01000000
   14.63833332  120.39800262    0.05000000    0.01000000
   14.64166641  115.26399994    0.05000000    0.01000000
   14.64472198  120.86299896    0.05000000    0.01000000
   14.64805508  114.51999664    0.05000000    0.01000000
   14.65138817  116.52100372    0.05000000    0.01000000
   14.65444374  115.93399811    0.05000000    0.01000000
   14.65777779  114.96199799    0.05000000    0.01000000
   14.66083336  106.49299622    0.05000000    0.01000000
   14.66194439  106.28099823    0.05000000    0.01000000
   14.66472149   98.82550049    0.05000000    0.01000000
   14.66777802  107.29799652    0.05000000    0.01000000
   14.67111111  104.42900085    0.05000000    0.01000000
   14.67666721  104.42900085    0.05000000    0.01000000
   14.68083382  107.57599640    0.05000000    0.01000000
   14.68416691  103.78600311    0.05000000    0.01000000
   14.68722248  102.83899689    0.05000000    0.01000000
   14.69055557  110.19699860    0.05000000    0.01000000
   14.69388866  109.51100159    0.05000000    0.01000000
   14.69527817  119.80899811    0.05000000    0.01000000
   14.69750023  112.70200348    0.05000000    0.01000000
   14.70055580  108.07800293    0.05000000    0.01000000
   14.70388889  116.94799805    0.05000000    0.01000000
   14.70722198  100.94799805    0.05000000    0.01000000
   14.71027756  110.20800018    0.05000000    0.01000000
   14.71361065  121.92800140    0.05000000    0.01000000
   14.71944427  121.92800140    0.05000000    0.01000000
   14.72361088  108.69300079    0.05000000    0.01000000
   14.72694397  113.24800110    0.05000000    0.01000000
   14.72861099  106.71600342    0.05000000    0.01000000
   14.73055553  115.46199799    0.05000000    0.01000000
   14.73361111  109.45400238    0.05000000    0.01000000
   14.73694515  104.83599854    0.05000000    0.01000000
   14.74000072  111.56099701    0.05000000    0.01000000
   14.74333382  112.80599976    0.05000000    0.01000000
   14.74666691  111.63500214    0.05000000    0.01000000
   14.74972248  116.12400055    0.05000000    0.01000000
   14.75305557  107.17800140    0.05000000    0.01000000
   14.75611115  105.88200378    0.05000000    0.01000000
   14.76249981  105.88200378    0.05000000    0.01000000
   14.76666641  113.89299774    0.05000000    0.01000000
   14.76972198  115.83399963    0.05000000    0.01000000
   14.77305508  108.76100159    0.05000000    0.01000000
   14.77638817  101.28299713    0.05000000    0.01000000
   14.77944374  107.17199707    0.05000000    0.01000000
   14.78277779  111.09100342    0.05000000    0.01000000
   14.78611183  107.85600281    0.05000000    0.01000000
   14.78916740  102.80699921    0.05000000    0.01000000
   14.79250050  107.47200012    0.05000000    0.01000000
   14.79527855  101.89499664    0.05000000    0.01000000
   14.79611111  108.27899933    0.05000000    0.01000000
   14.79916668  110.19999695    0.05000000    0.01000000
   14.80527782  110.19999695    0.05000000    0.01000000
   14.80944443  111.13099670    0.05000000    0.01000000
   14.81250000  102.81999969    0.05000000    0.01000000
   14.81583309  105.18599701    0.05000000    0.01000000
   14.81916618  116.86799622    0.05000000    0.01000000
   14.82222176  101.15100098    0.05000000    0.01000000
   14.82555580  112.88700104    0.05000000    0.01000000
   14.82861137  105.58599854    0.05000000    0.01000000
   14.82916641  112.68299866    0.05000000    0.01000000
   14.83222198  110.41699982    0.05000000    0.01000000
   14.83555508  108.01300049    0.05000000    0.01000000
   14.83861065  102.25199890    0.05000000    0.01000000
   14.84194374  105.33000183    0.05000000    0.01000000
   14.84805489  105.33000183    0.05000000    0.01000000
   14.85222244   98.55010223    0.05000000    0.01000000
   14.85555553   96.37969971    0.05000000    0.01000000
   14.85888958   97.51190186    0.05000000    0.01000000
   14.86194515  102.64199829    0.05000000    0.01000000
   14.86250019  100.11199951    0.05000000    0.01000000
   14.86555576  109.62400055    0.05000000    0.01000000
   14.86888885  107.93000031    0.05000000    0.01000000
   14.87194443  106.26999664    0.05000000    0.01000000
   14.87527752   99.03299713    0.05000000    0.01000000
   14.87861156  105.06199646    0.05000000    0.01000000
   14.88166714  110.11799622    0.05000000    0.01000000
   14.88500023  111.05500031    0.05000000    0.01000000
   14.89111137  111.05500031    0.05000000    0.01000000
   14.89499950  104.25000000    0.05000000    0.01000000
   14.89555550  104.31300354    0.05000000    0.01000000
   14.89888859  109.93699646    0.05000000    0.01000000
   14.90222168  111.89099884    0.05000000    0.01000000
   14.90527725  106.15299988    0.05000000    0.01000000
   14.90861034   97.55120087    0.05000000    0.01000000
   14.91194439  107.37100220    0.05000000    0.01000000
   14.91499996  106.80100250    0.05000000    0.01000000
   14.91833401  106.94599915    0.05000000    0.01000000
   14.92138958   98.56320190    0.05000000    0.01000000
   14.92472267  105.45099640    0.05000000    0.01000000
   14.92805576  103.47799683    0.05000000    0.01000000
   14.92888927  111.72799683    0.05000000    0.01000000
   14.93388939  111.72799683    0.05000000    0.01000000
   14.93805599  109.23300171    0.05000000    0.01000000
   14.94111156  100.45800018    0.05000000    0.01000000
   14.94444466  113.54100037    0.05000000    0.01000000
   14.94750023  105.03399658    0.05000000    0.01000000
   14.95083332  111.94200134    0.05000000    0.01000000
   14.95416641  105.23200226    0.05000000    0.01000000
   14.95749950  103.79599762    0.05000000    0.01000000
   14.96055508  113.62300110    0.05000000    0.01000000
   14.96222210  101.54000092    0.05000000    0.01000000
   14.96444416  111.20700073    0.05000000    0.01000000
   14.96777725  110.66400146    0.05000000    0.01000000
   14.97111034  111.08200073    0.05000000    0.01000000
   14.97666645  111.08200073    0.05000000    0.01000000
   14.98083305  117.50399780    0.05000000    0.01000000
   14.98388958  112.33799744    0.05000000    0.01000000
   14.98722267  113.32599640    0.05000000    0.01000000
   14.99055576  107.83699799    0.05000000    0.01000000
   14.99361134  111.74500275    0.05000000    0.01000000
   14.99555588  114.47799683    0.05000000    0.01000000
   14.99722290  113.25299835    0.05000000    0.01000000
   15.00027752  113.98100281    0.05000000    0.01000000
   15.00361156  103.65499878    0.05000000    0.01000000
   15.00694466  106.26899719    0.05000000    0.01000000
   15.01027775  109.04299927    0.05000000    0.01000000
   15.01333332  112.25499725    0.05000000    0.01000000
   15.01944447  112.25499725    0.05000000    0.01000000
   15.02361107  115.55000305    0.05000000    0.01000000
   15.02694416  108.93800354    0.05000000    0.01000000
   15.02916622  103.74199677    0.05000000    0.01000000
   15.03055573  120.62400055    0.05000000    0.01000000
   15.03388977  118.30200195    0.05000000    0.01000000
   15.03722286  112.36499786    0.05000000    0.01000000
   15.04027843  111.23899841    0.05000000    0.01000000
   15.04361153  105.40399933    0.05000000    0.01000000
   15.04694462  126.65399933    0.05000000    0.01000000
   15.05000019  103.79900360    0.05000000    0.01000000
   15.05333328  112.37000275    0.05000000    0.01000000
   15.05666733  123.33499908    0.05000000    0.01000000
   15.06222248  123.33499908    0.05000000    0.01000000
   15.06638908  130.58200073    0.05000000    0.01000000
   15.06972218  114.19999695    0.05000000    0.01000000
   15.07305527  112.91400146    0.05000000    0.01000000
   15.07611084  109.57900238    0.05000000    0.01000000
   15.07944393  111.85600281    0.05000000    0.01000000
   15.08277798  123.59700012    0.05000000    0.01000000
   15.08583260  123.10199738    0.05000000    0.01000000
   15.08916664  122.22899628    0.05000000    0.01000000
   15.09249973  123.91999817    0.05000000    0.01000000
   15.09555531  114.97200012    0.05000000    0.01000000
   15.09611034  116.82399750    0.05000000    0.01000000
   15.09916592  123.64700317    0.05000000    0.01000000
   15.10527802  123.64700317    0.05000000    0.01000000
   15.10916710  119.83499908    0.05000000    0.01000000
   15.11250019  116.57700348    0.05000000    0.01000000
   15.11583328  120.87100220    0.05000000    0.01000000
   15.11888885  121.15499878    0.05000000    0.01000000
   15.12222195  117.55899811    0.05000000    0.01000000
   15.12555599  117.90399933    0.05000000    0.01000000
   15.12861156  120.44300079    0.05000000    0.01000000
   15.12916660  120.87100220    0.05000000    0.01000000
   15.13249969  112.34799957    0.05000000    0.01000000
   15.13583279  110.39900208    0.05000000    0.01000000
   15.13888836  109.45899963    0.05000000    0.01000000
   15.14222240  112.20200348    0.05000000    0.01000000
   15.14805508  112.20200348    0.05000000    0.01000000
   15.15222168  105.26599884    0.05000000    0.01000000
   15.15555477  110.23799896    0.05000000    0.01000000
   15.15861034  122.46199799    0.05000000    0.01000000
   15.16194439  122.92099762    0.05000000    0.01000000
   15.16249943  127.06900024    0.05000000    0.01000000
   15.16555500  120.67700195    0.05000000    0.01000000
   15.16861153  114.02999878    0.05000000    0.01000000
   15.17194462  119.99700165    0.05000000    0.01000000
   15.17527771  127.60199738    0.05000000    0.01000000
   15.17833328  116.08100128    0.05000000    0.01000000
   15.18166733  108.67099762    0.05000000    0.01000000
   15.18500042  119.13700104    0.05000000    0.01000000
   15.19083309  119.13700104    0.05000000    0.01000000
   15.19499969  116.68099976    0.05000000    0.01000000
   15.19583321  116.86599731    0.05000000    0.01000000
   15.19861126  119.16400146    0.05000000    0.01000000
   15.20166683  122.59700012    0.05000000    0.01000000
   15.20499992  116.49700165    0.05000000    0.01000000
   15.20833302  122.05400085    0.05000000    0.01000000
   15.21138859  108.01699829    0.05000000    0.01000000
   15.21472168  117.44699860    0.05000000    0.01000000
   15.21805477  128.06300354    0.05000000    0.01000000
   15.22111034  114.37799835    0.05000000    0.01000000
   15.31861115   -1.00000000   -1.00000000   -1.00000000
   15.51666641   -1.00000000   -1.00000000   -1.00000000
   15.74083328   -1.00000000   -1.00000000   -1.00000000
   15.80111122   72.05139923    0.05000000    0.01000000
   15.80416679  143.48399353    0.05000000    0.01000000
   15.80749989  150.14599609    0.05000000    0.01000000
   15.81083393  136.03900146    0.05000000    0.01000000
   15.81388950  149.63900757    0.05000000    0.01000000
   15.81722260  135.79400635    0.05000000    0.01000000
   15.82138920  135.79400635    0.05000000    0.01000000
   15.82555580  130.06300354    0.05000000    0.01000000
   15.82861137  117.80400085    0.05000000    0.01000000
   15.83194447  130.68800354    0.05000000    0.01000000
   15.83444405  139.61399841    0.05000000    0.01000000
   15.83555508  134.30200195    0.05000000    0.01000000
   15.83888817  133.41999817    0.05000000    0.01000000
   15.84222221  144.95500183    0.05000000    0.01000000
   15.84527779  135.30099487    0.05000000    0.01000000
   15.84861088  134.75700378    0.05000000    0.01000000
   15.85194492  133.38400269    0.05000000    0.01000000
   15.85500050  128.07299805    0.05000000    0.01000000
   15.85833359  113.59600067    0.05000000    0.01000000
   15.86416721  113.59600067    0.05000000    0.01000000
   15.86833382  128.81599426    0.05000000    0.01000000
   15.87166691  134.82400513    0.05000000    0.01000000
   15.87472248  136.59199524    0.05000000    0.01000000
   15.87805557  127.59100342    0.05000000    0.01000000
   15.88138866  139.69500732    0.05000000    0.01000000
   15.88444424  128.65499878    0.05000000    0.01000000
   15.88777733  145.11799622    0.05000000    0.01000000
   15.89083290  132.61599731    0.05000000    0.01000000
   15.89416695  134.04400635    0.05000000    0.01000000
   15.89750004  137.17199707    0.05000000    0.01000000
   15.90083313  151.26899719    0.05000000    0.01000000
   15.90166664  136.09199524    0.05000000    0.01000000
   15.90694427  136.09199524    0.05000000    0.01000000
   15.91111088  126.81700134    0.05000000    0.01000000
   15.91444397  125.51399994    0.05000000    0.01000000
   15.91750050  117.37799835    0.05000000    0.01000000
   15.92083359  140.90499878    0.05000000    0.01000000
   15.92416668  135.54200745    0.05000000    0.01000000
   15.92722225  135.42500305    0.05000000    0.01000000
   15.93055630  129.59700012    0.05000000    0.01000000
   15.93388939  120.24299622    0.05000000    0.01000000
   15.93472195  131.11199951    0.05000000    0.01000000
   15.93750000  134.64199829    0.05000000    0.01000000
   15.94055557  140.08299255    0.05000000    0.01000000
   15.94388866  149.08700562    0.05000000    0.01000000
   15.94999981  149.08700562    0.05000000    0.01000000
   15.95416641  115.53900146    0.05000000    0.01000000
   15.95722198  113.44799805    0.05000000    0.01000000
   15.96055508  118.52500153    0.05000000    0.01000000
   15.96361065  124.05899811    0.05000000    0.01000000
   15.96694374  115.41899872    0.05000000    0.01000000
   15.96805477  114.87599945    0.05000000    0.01000000
   15.97083282  131.86700439    0.05000000    0.01000000
   15.97388840  116.96399689    0.05000000    0.01000000
   15.97722149  132.11099243    0.05000000    0.01000000
   15.98055553  159.61700439    0.05000000    0.01000000
   15.98361111  147.33000183    0.05000000    0.01000000
   15.98694515  156.89500427    0.05000000    0.01000000
   15.99277782  156.89500427    0.05000000    0.01000000
   15.99694443  133.66900635    0.05000000    0.01000000
   16.00000000  147.72000122    0.05000000    0.01000000
   16.00138855  136.27999878    0.05000000    0.01000000
   16.00388908  143.78700256    0.05000000    0.01000000
   16.00694466  142.37100220    0.05000000    0.01000000
   16.01027870  150.38999939    0.05000000    0.01000000
   16.01361084  154.26100159    0.05000000    0.01000000
   16.01666641  160.89799500    0.05000000    0.01000000
   16.02000046  149.83900452    0.05000000    0.01000000
   16.02305603  136.44900513    0.05000000    0.01000000
   16.02638817  140.31399536    0.05000000    0.01000000
   16.02972221  138.70300293    0.05000000    0.01000000
   16.03555489  138.70300293    0.05000000    0.01000000
   16.03972244  139.39199829    0.05000000    0.01000000
   16.04305458  140.06900024    0.05000000    0.01000000
   16.04611015  134.97300720    0.05000000    0.01000000
   16.04944420  121.41699982    0.05000000    0.01000000
   16.05249977  125.76599884    0.05000000    0.01000000
   16.05583191  138.26800537    0.05000000    0.01000000
   16.05916595  131.24699402    0.05000000    0.01000000
   16.06222153  125.94599915    0.05000000    0.01000000
   16.06555557  119.66799927    0.05000000    0.01000000
   16.06805611  123.07199860    0.05000000    0.01000000
   16.06944466  121.54299927    0.05000000    0.01000000
   16.07250023  118.94400024    0.05000000    0.01000000
   16.07833481  118.94400024    0.05000000    0.01000000
   16.08250046  121.73500061    0.05000000    0.01000000
   16.08583450  110.43900299    0.05000000    0.01000000
   16.08889008  108.82399750    0.05000000    0.01000000
   16.09222221  115.33599854    0.05000000    0.01000000
   16.09555626  113.69899750    0.05000000    0.01000000
   16.09861183  112.43900299    0.05000000    0.01000000
   16.10138893  105.35800171    0.05000000    0.01000000
   16.10250092  106.23500061    0.05000000    0.01000000
   16.10555649  107.22499847    0.05000000    0.01000000
   16.10888863  103.06700134    0.05000000    0.01000000
   16.11194420  100.67199707    0.05000000    0.01000000
   16.11527824   97.32649994    0.05000000    0.01000000
   16.12138939   97.32649994    0.05000000    0.01000000
   16.12527847   98.43540192    0.05000000    0.01000000
   16.12861061   90.77770233    0.05000000    0.01000000
   16.13194466  102.25800323    0.05000000    0.01000000
   16.13472176  100.88400269    0.05000000    0.01000000
   16.13555527   93.90889740    0.05000000    0.01000000
   16.13861084  101.99099731    0.05000000    0.01000000
   16.14194489  105.44499969    0.05000000    0.01000000
   16.14500046   94.88600159    0.05000000    0.01000000
   16.14833260   87.22440338    0.05000000    0.01000000
   16.15166664  104.44599915    0.05000000    0.01000000
   16.15499878   99.12879944    0.05000000    0.01000000
   16.15805435   99.82180023    0.05000000    0.01000000
   16.16416550   99.82180023    0.05000000    0.01000000
   16.16833305  101.42299652    0.05000000    0.01000000
   16.17138863   95.65950012    0.05000000    0.01000000
   16.17472076  112.25099945    0.05000000    0.01000000
   16.17805481   96.46320343    0.05000000    0.01000000
   16.18111038   98.71540070    0.05000000    0.01000000
   16.18444443  108.66999817    0.05000000    0.01000000
   16.18750000   94.46019745    0.05000000    0.01000000
   16.19083214  101.38899994    0.05000000    0.01000000
   16.19416618  109.00499725    0.05000000    0.01000000
   16.19722176  114.16699982    0.05000000    0.01000000
   16.20055580   92.89800262    0.05000000    0.01000000
   16.20138931  104.53900146    0.05000000    0.01000000
   16.20694542  104.53900146    0.05000000    0.01000000
   16.21111107   99.21269989    0.05000000    0.01000000
   16.21444511   97.31790161    0.05000000    0.01000000
   16.21750069  106.56600189    0.05000000    0.01000000
   16.22083473   88.46710205    0.05000000    0.01000000
   16.22389030  104.68299866    0.05000000    0.01000000
   16.22722244   97.02899933    0.05000000    0.01000000
   16.23055649   95.59570313    0.05000000    0.01000000
   16.23361206   88.49060059    0.05000000    0.01000000
   16.23472214  102.18000031    0.05000000    0.01000000
   16.23750114   95.71749878    0.05000000    0.01000000
   16.24055672   96.26309967    0.05000000    0.01000000
   16.24388885   88.72149658    0.05000000    0.01000000
   16.24972153   88.72149658    0.05000000    0.01000000
   16.25388908   98.62950134    0.05000000    0.01000000
   16.25722313   99.93579865    0.05000000    0.01000000
   16.26027870   94.55750275    0.05000000    0.01000000
   16.26361084   98.11889648    0.05000000    0.01000000
   16.26694489   97.03119659    0.05000000    0.01000000
   16.26805496  100.84400177    0.05000000    0.01000000
   16.27055550  102.36699677    0.05000000    0.01000000
   16.27361107   96.55239868    0.05000000    0.01000000
   16.27694511   92.81060028    0.05000000    0.01000000
   16.28027725   97.68640137    0.05000000    0.01000000
   16.28333282   95.31610107    0.05000000    0.01000000
   16.28666687   92.17790222    0.05000000    0.01000000
   16.29277802   92.17790222    0.05000000    0.01000000
   16.29666710   91.61160278    0.05000000    0.01000000
   16.29999924   90.60820007    0.05000000    0.01000000
   16.30138779   96.70929718    0.05000000    0.01000000
   16.30360985   94.77069855    0.05000000    0.01000000
   16.30666542   96.83519745    0.05000000    0.01000000
   16.30999947   92.62079620    0.05000000    0.01000000
   16.31333351   89.18109894    0.05000000    0.01000000
   16.31638718   83.75409698    0.05000000    0.01000000
   16.31972313  103.65599823    0.05000000    0.01000000
   16.32305717  102.69499969    0.05000000    0.01000000
   16.32611275   89.26950073    0.05000000    0.01000000
   16.32944489   95.24559784    0.05000000    0.01000000
   16.33555603   95.24559784    0.05000000    0.01000000
   16.33972359   97.66960144    0.05000000    0.01000000
   16.34277916   89.49620056    0.05000000    0.01000000
   16.34611130   89.05970001    0.05000000    0.01000000
   16.34944534   92.15609741    0.05000000    0.01000000
   16.35250092   96.32640076    0.05000000    0.01000000
   16.35583305   98.80549622    0.05000000    0.01000000
   16.35888863   99.92780304    0.05000000    0.01000000
   16.36222267   94.50270081    0.05000000    0.01000000
   16.36555672   96.05069733    0.05000000    0.01000000
   16.36805534   99.14569855    0.05000000    0.01000000
   16.36916733   97.46109772    0.05000000    0.01000000
   16.37222290   96.48290253    0.05000000    0.01000000
   16.37833405   96.48290253    0.05000000    0.01000000
   16.38249969  101.55000305    0.05000000    0.01000000
   16.38583374   94.84870148    0.05000000    0.01000000
   16.38888931   99.42070007    0.05000000    0.01000000
   16.39222145   92.46749878    0.05000000    0.01000000
   16.39555550  104.02500153    0.05000000    0.01000000
   16.39861107  105.84400177    0.05000000    0.01000000
   16.40138817   96.91609955    0.05000000    0.01000000
   16.40222168   94.42230225    0.05000000    0.01000000
   16.40527725  100.76300049    0.05000000    0.01000000
   16.40861130  102.06600189    0.05000000    0.01000000
   16.41194344   94.79750061    0.05000000    0.01000000
   16.41499901  101.51799774    0.05000000    0.01000000
   16.42111015  101.51799774    0.05000000    0.01000000
   16.42527771   96.71610260    0.05000000    0.01000000
   16.42860985   96.06569672    0.05000000    0.01000000
   16.43166542   85.69750214    0.05000000    0.01000000
   16.43472099   93.40760040    0.05000000    0.01000000
   16.43555450   94.11879730    0.05000000    0.01000000
   16.43861008  100.36499786    0.05000000    0.01000000
   16.44194412   94.35489655    0.05000000    0.01000000
   16.44527626  105.61199951    0.05000000    0.01000000
   16.44833183   96.88909912    0.05000000    0.01000000
   16.45166779  107.80699921    0.05000000    0.01000000
   16.45472336  101.40200043    0.05000000    0.01000000
   16.45805550   85.73410034    0.05000000    0.01000000
   16.46389008   85.73410034    0.05000000    0.01000000
   16.46805573   84.09539795    0.05000000    0.01000000
   16.47138977   99.53160095    0.05000000    0.01000000
   16.47472191   89.68949890    0.05000000    0.01000000
   16.47777748   92.46019745    0.05000000    0.01000000
   16.48111153   93.59539795    0.05000000    0.01000000
   16.48416710   96.97709656    0.05000000    0.01000000
   16.48750114  108.79000092    0.05000000    0.01000000
   16.49083328  112.72899628    0.05000000    0.01000000
   16.49388885  112.10700226    0.05000000    0.01000000
   16.49722290   99.97660065    0.05000000    0.01000000
   16.50055504  103.95600128    0.05000000    0.01000000
   16.50138855  107.47799683    0.05000000    0.01000000
   16.50694466  107.47799683    0.05000000    0.01000000
   16.51111031  101.34899902    0.05000000    0.01000000
   16.51416588  106.79799652    0.05000000    0.01000000
   16.51777840   95.05280304    0.05000000    0.01000000
   16.52083397   93.02050018    0.05000000    0.01000000
   16.52416611   95.32399750    0.05000000    0.01000000
   16.52722168   96.13120270    0.05000000    0.01000000
   16.53055573  111.14099884    0.05000000    0.01000000
   16.53388786   99.66419983    0.05000000    0.01000000
   16.53472137   95.01750183    0.05000000    0.01000000
   16.53750038   98.60250092    0.05000000    0.01000000
   16.54055595   91.49220276    0.05000000    0.01000000
   16.54388809   98.15650177    0.05000000    0.01000000
   16.54972076   98.15650177    0.05000000    0.01000000
   16.55388832  100.86499786    0.05000000    0.01000000
   16.55694389  102.32599640    0.05000000    0.01000000
   16.56027794  102.05300140    0.05000000    0.01000000
   16.56361008   96.51390076    0.05000000    0.01000000
   16.56666756  100.54499817    0.05000000    0.01000000
   16.56805611   98.71340179    0.05000000    0.01000000
   16.57055664   86.23690033    0.05000000    0.01000000
   16.57389069  100.06500244    0.05000000    0.01000000
   16.57694626   98.07230377    0.05000000    0.01000000
   16.58027840   91.75820160    0.05000000    0.01000000
   16.58361244  100.63300323    0.05000000    0.01000000
   16.58666801   99.97820282    0.05000000    0.01000000
   16.59250069   99.97820282    0.05000000    0.01000000
   16.59666824  107.29000092    0.05000000    0.01000000
   16.60000038  102.22799683    0.05000000    0.01000000
   16.60138893  101.49299622    0.05000000    0.01000000
   16.60361099  106.85700226    0.05000000    0.01000000
   16.60666656  101.52100372    0.05000000    0.01000000
   16.61000061  102.91200256    0.05000000    0.01000000
   16.61333466   96.99199677    0.05000000    0.01000000
   16.61638832   94.00849915    0.05000000    0.01000000
   16.61972237   92.76799774    0.05000000    0.01000000
   16.62305641   97.27799988    0.05000000    0.01000000
   16.62611198   90.64289856    0.05000000    0.01000000
   16.62944412   94.96759796    0.05000000    0.01000000
   16.63527679   94.96759796    0.05000000    0.01000000
   16.63944435   94.29750061    0.05000000    0.01000000
   16.64277840   99.89350128    0.05000000    0.01000000
   16.64611053  100.12899780    0.05000000    0.01000000
   16.64916611   96.04100037    0.05000000    0.01000000
   16.65250015   92.32929993    0.05000000    0.01000000
   16.65583229   94.28679657    0.05000000    0.01000000
   16.65888786   88.47660065    0.05000000    0.01000000
   16.66222191   93.25759888    0.05000000    0.01000000
   16.66527748  101.29100037    0.05000000    0.01000000
   16.66805458   98.88490295    0.05000000    0.01000000
   16.66916656   93.20570374    0.05000000    0.01000000
   16.67222214   98.69300079    0.05000000    0.01000000
   16.67833328   98.69300079    0.05000000    0.01000000
   16.68249893   94.58399963    0.05000000    0.01000000
   16.68583298   87.87249756    0.05000000    0.01000000
   16.68888855   95.77279663    0.05000000    0.01000000
   16.69222069   95.04029846    0.05000000    0.01000000
   16.69555473  103.19100189    0.05000000    0.01000000
   16.69861031  103.37999725    0.05000000    0.01000000
   16.70138931   99.40509796    0.05000000    0.01000000
   16.70250130  102.41899872    0.05000000    0.01000000
   16.70555687   94.40609741    0.05000000    0.01000000
   16.70888901   98.82920074    0.05000000    0.01000000
   16.71250153  100.38400269    0.05000000    0.01000000
   16.71555710   90.08850098    0.05000000    0.01000000
   16.72111130   90.08850098    0.05000000    0.01000000
   16.72527885   96.62370300    0.05000000    0.01000000
   16.72833443   83.92900085    0.05000000    0.01000000
   16.73166656   95.86309814    0.05000000    0.01000000
   16.73472214   93.46430206    0.05000000    0.01000000
   16.73527718   88.48609924    0.05000000    0.01000000
   16.73888969   96.79219818    0.05000000    0.01000000
   16.74194527   93.85780334    0.05000000    0.01000000
   16.74527740   90.47899628    0.05000000    0.01000000
   16.74861145   95.53079987    0.05000000    0.01000000
   16.75166702   90.67510223    0.05000000    0.01000000
   16.75499916   89.05629730    0.05000000    0.01000000
   16.75833321   89.40110016    0.05000000    0.01000000
   16.76388931   89.40110016    0.05000000    0.01000000
   16.76805496   89.85060120    0.05000000    0.01000000
   16.76861000   84.32119751    0.05000000    0.01000000
   16.77194405   94.51399994    0.05000000    0.01000000
   16.77499962   97.76229858    0.05000000    0.01000000
   16.77833366   90.95179749    0.05000000    0.01000000
   16.78138924   91.52079773    0.05000000    0.01000000
   16.78472137   95.94349670    0.05000000    0.01000000
   16.78805542   90.96579742    0.05000000    0.01000000
   16.79111099   87.15139771    0.05000000    0.01000000
   16.79444313   96.68669891    0.05000000    0.01000000
   16.79777718   95.85310364    0.05000000    0.01000000
   16.80083275   87.36879730    0.05000000    0.01000000
   16.80138779   88.87470245    0.05000000    0.01000000
   16.82222366   88.87470245    0.05000000    0.01000000
   16.82611275   89.56330109    0.05000000    0.01000000
   16.82944489   87.42890167    0.05000000    0.01000000
   16.83277893   88.12519836    0.05000000    0.01000000
   16.83472252   88.18560028    0.05000000    0.01000000
   16.83638954   87.69850159    0.05000000    0.01000000
   16.83972359   91.15499878    0.05000000    0.01000000
   16.84305573   90.03649902    0.05000000    0.01000000
   16.84611130   96.00890350    0.05000000    0.01000000
   16.84944534   93.48930359    0.05000000    0.01000000
   16.85250092  102.01000214    0.05000000    0.01000000
   16.85583305   99.26979828    0.05000000    0.01000000
   16.85916710   95.73410034    0.05000000    0.01000000
   16.86472321   95.73410034    0.05000000    0.01000000
   16.86888885   86.52239990    0.05000000    0.01000000
   16.87222290   95.50060272    0.05000000    0.01000000
   16.87555504   97.46600342    0.05000000    0.01000000
   16.87861061   89.58660126    0.05000000    0.01000000
   16.88194466   92.22090149    0.05000000    0.01000000
   16.88500023   91.84970093    0.05000000    0.01000000
   16.88833237   91.59989929    0.05000000    0.01000000
   16.89166641   94.99160004    0.05000000    0.01000000
   16.89472198   87.59210205    0.05000000    0.01000000
   16.89805603   92.94170380    0.05000000    0.01000000
   16.90138817   96.19020081    0.05000000    0.01000000
   16.90194321   92.15699768    0.05000000    0.01000000
   16.90777779   92.15699768    0.05000000    0.01000000
   16.91194344   86.15200043    0.05000000    0.01000000
   16.91499901   94.25599670    0.05000000    0.01000000
   16.91833305   98.02320099    0.05000000    0.01000000
   16.92138863   93.84210205    0.05000000    0.01000000
   16.92472076   89.00350189    0.05000000    0.01000000
   16.92805481   94.30229950    0.05000000    0.01000000
   16.93138885   91.15119934    0.05000000    0.01000000
   16.93444443   89.29820251    0.05000000    0.01000000
   16.93527603   96.70629883    0.05000000    0.01000000
   16.93805504   93.45649719    0.05000000    0.01000000
   16.94138718   93.56410217    0.05000000    0.01000000
   16.94472122   93.02310181    0.05000000    0.01000000
   16.95055580   93.02310181    0.05000000    0.01000000
   16.95472336   90.06189728    0.05000000    0.01000000
   16.95805550   93.99880219    0.05000000    0.01000000
   16.96138954   93.41349792    0.05000000    0.01000000
   16.96444511   88.70870209    0.05000000    0.01000000
   16.96777916   88.14759827    0.05000000    0.01000000
   16.96861076   86.78980255    0.05000000    0.01000000
   16.97138977   92.33979797    0.05000000    0.01000000
   16.97472191   86.66390228    0.05000000    0.01000000
   16.97777748   85.46669769    0.05000000    0.01000000
   16.98111153   91.06870270    0.05000000    0.01000000
   16.98444557   91.83350372    0.05000000    0.01000000
   16.98750114   85.22689819    0.05000000    0.01000000
   16.99333382   85.22689819    0.05000000    0.01000000
   16.99749947   92.21530151    0.05000000    0.01000000
   17.00083351   84.12930298    0.05000000    0.01000000
   17.00194359  100.99299622    0.05000000    0.01000000
   17.00444412   91.31690216    0.05000000    0.01000000
   17.00777817   99.58769989    0.05000000    0.01000000
   17.01111031   95.68569946    0.05000000    0.01000000
   17.01416588   98.39089966    0.05000000    0.01000000
   17.01749992  104.44300079    0.05000000    0.01000000
   17.02055550   94.02999878    0.05000000    0.01000000
   17.02416611   88.40589905    0.05000000    0.01000000
   17.02722168  100.65899658    0.05000000    0.01000000
   17.03055573  103.01999664    0.05000000    0.01000000
   17.03610992  103.01999664    0.05000000    0.01000000
   17.04027748  104.78700256    0.05000000    0.01000000
   17.04361153  119.70500183    0.05000000    0.01000000
   17.04694366  101.72799683    0.05000000    0.01000000
   17.05027771  110.70300293    0.05000000    0.01000000
   17.05333328   95.84950256    0.05000000    0.01000000
   17.05666542   96.52529907    0.05000000    0.01000000
   17.05999947  108.43099976    0.05000000    0.01000000
   17.06305504   98.67310333    0.05000000    0.01000000
   17.06638718  107.20800018    0.05000000    0.01000000
   17.06861115  113.58200073    0.05000000    0.01000000
   17.07000160  102.17700195    0.05000000    0.01000000
   17.07333374  103.14099884    0.05000000    0.01000000
   17.07916832  103.14099884    0.05000000    0.01000000
   17.08333397  100.08499908    0.05000000    0.01000000
   17.08638954  105.14900208    0.05000000    0.01000000
   17.08972359  101.62599945    0.05000000    0.01000000
   17.09277916   92.05159760    0.05000000    0.01000000
   17.09611130   97.25550079    0.05000000    0.01000000
   17.09944534   96.36640167    0.05000000    0.01000000
   17.10194397   96.79080200    0.05000000    0.01000000
   17.10305595   97.18530273    0.05000000    0.01000000
   17.10639000   96.52709961    0.05000000    0.01000000
   17.10972214   95.80979919    0.05000000    0.01000000
   17.11277771   95.35070038    0.05000000    0.01000000
   17.11611176  103.30999756    0.05000000    0.01000000
   17.12194443  103.30999756    0.05000000    0.01000000
   17.12611198   98.76439667    0.05000000    0.01000000
   17.12916756   99.17420197    0.05000000    0.01000000
   17.13249969   89.47910309    0.05000000    0.01000000
   17.13527679  111.19100189    0.05000000    0.01000000
   17.13611031   95.81539917    0.05000000    0.01000000
   17.13944435   90.13050079    0.05000000    0.01000000
   17.14277840   94.42359924    0.05000000    0.01000000
   17.14583397  100.56600189    0.05000000    0.01000000
   17.14916611  103.11499786    0.05000000    0.01000000
   17.15250015   95.19300079    0.05000000    0.01000000
   17.15555573   86.29740143    0.05000000    0.01000000
   17.15888786   98.91590118    0.05000000    0.01000000
   17.16472244   98.91590118    0.05000000    0.01000000
   17.16888809   77.31670380    0.05000000    0.01000000
   17.17222214   99.20760345    0.05000000    0.01000000
   17.17527771  105.97100067    0.05000000    0.01000000
   17.17860985  104.40699768    0.05000000    0.01000000
   17.18194389   85.43800354    0.05000000    0.01000000
   17.18499947   95.89969635    0.05000000    0.01000000
   17.18833160   91.08950043    0.05000000    0.01000000
   17.19138718   93.49810028    0.05000000    0.01000000
   17.19472122   93.50789642    0.05000000    0.01000000
   17.19805527   90.22859955    0.05000000    0.01000000
   17.20111275   94.35410309    0.05000000    0.01000000
   17.20194435   89.12889862    0.05000000    0.01000000
   17.20750046   89.12889862    0.05000000    0.01000000
   17.21166801   89.52719879    0.05000000    0.01000000
   17.21500015   93.29820251    0.05000000    0.01000000
   17.21833420   92.11209869    0.05000000    0.01000000
   17.22138977   86.16439819    0.05000000    0.01000000
   17.22472191   93.28179932    0.05000000    0.01000000
   17.22777748   86.10769653    0.05000000    0.01000000
   17.23111153   92.90630341    0.05000000    0.01000000
   17.23444557   95.80010223    0.05000000    0.01000000
   17.23527718   99.73560333    0.05000000    0.01000000
   17.23777771  100.02700043    0.05000000    0.01000000
   17.24111176   88.49639893    0.05000000    0.01000000
   17.24444389   93.67500305    0.05000000    0.01000000
   17.25055504   93.67500305    0.05000000    0.01000000
   17.25472260   86.35060120    0.05000000    0.01000000
   17.25777817   97.30979919    0.05000000    0.01000000
   17.26111031   97.32199860    0.05000000    0.01000000
   17.26416588   96.54640198    0.05000000    0.01000000
   17.26749992   97.43270111    0.05000000    0.01000000
   17.26861000   88.60340118    0.05000000    0.01000000
   17.27249908   89.65440369    0.05000000    0.01000000
   17.27583313   94.31130219    0.05000000    0.01000000
   17.27916718   87.50669861    0.05000000    0.01000000
   17.28222275   90.10900116    0.05000000    0.01000000
   17.28555489   84.55359650    0.05000000    0.01000000
   17.28861046   90.36430359    0.05000000    0.01000000
   17.29472160   90.36430359    0.05000000    0.01000000
   17.29888916   91.34220123    0.05000000    0.01000000
   17.30194283   89.41410065    0.05000000    0.01000000
   17.30333328   99.98059845    0.05000000    0.01000000
   17.30555534   97.74669647    0.05000000    0.01000000
   17.30888748   97.52909851    0.05000000    0.01000000
   17.31222153   90.45770264    0.05000000    0.01000000
   17.31527710   87.78679657    0.05000000    0.01000000
   17.31861115   89.76519775    0.05000000    0.01000000
   17.32194519   94.12310028    0.05000000    0.01000000
   17.32500076   91.83740234    0.05000000    0.01000000
   17.32833481   95.20780182    0.05000000    0.01000000
   17.33166695   91.59839630    0.05000000    0.01000000
   17.33750153   91.59839630    0.05000000    0.01000000
   17.34166718   99.86750031    0.05000000    0.01000000
   17.34500122   96.13580322    0.05000000    0.01000000
   17.34805679   95.52480316    0.05000000    0.01000000
   17.35138893   90.55460358    0.05000000    0.01000000
   17.35472298   95.64600372    0.05000000    0.01000000
   17.35639000   93.74479675    0.05000000    0.01000000
   17.35972214   94.20950317    0.05000000    0.01000000
   17.36305618   91.05439758    0.05000000    0.01000000
   17.36611176   92.00299835    0.05000000    0.01000000
   17.36861038   90.60600281    0.05000000    0.01000000
   17.37027740   91.83879852    0.05000000    0.01000000
   17.37333298   87.27140045    0.05000000    0.01000000
   17.37888908   87.27140045    0.05000000    0.01000000
   17.38305473   92.45600128    0.05000000    0.01000000
   17.38638878   88.39099884    0.05000000    0.01000000
   17.38972282   88.69010162    0.05000000    0.01000000
   17.39277840   84.90499878    0.05000000    0.01000000
   17.39611053   99.34049988    0.05000000    0.01000000
   17.39916611   91.23729706    0.05000000    0.01000000
   17.40194321   91.26119995    0.05000000    0.01000000
   17.40277672   96.04380035    0.05000000    0.01000000
   17.40611076   97.02680206    0.05000000    0.01000000
   17.40944481   89.34970093    0.05000000    0.01000000
   17.41250038   92.55519867    0.05000000    0.01000000
   17.41583252   93.72940063    0.05000000    0.01000000
   17.42194366   93.72940063    0.05000000    0.01000000
   17.42611122   99.23739624    0.05000000    0.01000000
   17.42916679   97.66780090    0.05000000    0.01000000
   17.43249893   90.13189697    0.05000000    0.01000000
   17.43527603   84.34870148    0.05000000    0.01000000
   17.43583298   90.76550293    0.05000000    0.01000000
   17.43916512   94.57299805    0.05000000    0.01000000
   17.44249916   89.95020294    0.05000000    0.01000000
   17.44583321   88.83429718    0.05000000    0.01000000
   17.44888878   96.55690002    0.05000000    0.01000000
   17.45222282   87.72339630    0.05000000    0.01000000
   17.45527840   88.20249939    0.05000000    0.01000000
   17.45861244   85.23699951    0.05000000    0.01000000
   17.46472359   85.23699951    0.05000000    0.01000000
   17.46888924   85.93470001    0.05000000    0.01000000
   17.47222328   88.05629730    0.05000000    0.01000000
   17.47527885   87.63659668    0.05000000    0.01000000
   17.47861099   88.72329712    0.05000000    0.01000000
   17.48166656   91.38549805    0.05000000    0.01000000
   17.48500061   90.99859619    0.05000000    0.01000000
   17.48833275   93.26879883    0.05000000    0.01000000
   17.49166679   93.63939667    0.05000000    0.01000000
   17.49500084   85.65869904    0.05000000    0.01000000
   17.49805641   94.54029846    0.05000000    0.01000000
   17.50138855   86.46630096    0.05000000    0.01000000
   17.50194359   91.16629791    0.05000000    0.01000000
   17.50749969   91.16629791    0.05000000    0.01000000
   17.51166725   94.86389923    0.05000000    0.01000000
   17.51499939   93.90019989    0.05000000    0.01000000
   17.51805496   90.49009705    0.05000000    0.01000000
   17.52138901   91.27700043    0.05000000    0.01000000
   17.52472115   88.24590302    0.05000000    0.01000000
   17.52777672   96.64360046    0.05000000    0.01000000
   17.53111076   90.09079742    0.05000000    0.01000000
   17.53444481   90.18699646    0.05000000    0.01000000
   17.53527641   97.88800049    0.05000000    0.01000000
   17.53805542   93.05319977    0.05000000    0.01000000
   17.54111099   98.95230103    0.05000000    0.01000000
   17.54444313   93.68019867    0.05000000    0.01000000
   17.55027771   93.68019867    0.05000000    0.01000000
   17.55444336   91.98120117    0.05000000    0.01000000
   17.55777740   87.44029999    0.05000000    0.01000000
   17.56110954   96.35469818    0.05000000    0.01000000
   17.56416512   98.49019623    0.05000000    0.01000000
   17.56750107   90.87180328    0.05000000    0.01000000
   17.56861115   89.93849945    0.05000000    0.01000000
   17.57111168   93.55919647    0.05000000    0.01000000
   17.57416725   90.55629730    0.05000000    0.01000000
   17.57750130   85.03170013    0.05000000    0.01000000
   17.58083344  101.93099976    0.05000000    0.01000000
   17.58388901   96.13749695    0.05000000    0.01000000
   17.58722305   91.39869690    0.05000000    0.01000000
   17.59333420   91.39869690    0.05000000    0.01000000
   17.59722328   87.64209747    0.05000000    0.01000000
   17.60055542   86.10669708    0.05000000    0.01000000
   17.60194397   86.56620026    0.05000000    0.01000000
   17.60444450   88.75930023    0.05000000    0.01000000
   17.60750008   93.32510376    0.05000000    0.01000000
   17.61083412   92.07520294    0.05000000    0.01000000
   17.61388969   93.78199768    0.05000000    0.01000000
   17.61722183   91.49649811    0.05000000    0.01000000
   17.62055588   90.50640106    0.05000000    0.01000000
   17.62361145   82.84420013    0.05000000    0.01000000
   17.62694550   90.96360016    0.05000000    0.01000000
   17.63027763   91.97720337    0.05000000    0.01000000
   17.63611031   91.97720337    0.05000000    0.01000000
   17.64027786   95.77420044    0.05000000    0.01000000
   17.64333344   95.43070221    0.05000000    0.01000000
   17.64694405   94.70520020    0.05000000    0.01000000
   17.64999962   92.59570313    0.05000000    0.01000000
   17.65333366   91.13890076    0.05000000    0.01000000
   17.65638924   94.11299896    0.05000000    0.01000000
   17.65972137   91.08260345    0.05000000    0.01000000
   17.66305542   93.22789764    0.05000000    0.01000000
   17.66611099   94.32550049    0.05000000    0.01000000
   17.66860962   87.98259735    0.05000000    0.01000000
   17.67000008   91.28350067    0.05000000    0.01000000
   17.67305565   87.96420288    0.05000000    0.01000000
   17.67888832   87.96420288    0.05000000    0.01000000
   17.68305397   86.27510071    0.05000000    0.01000000
   17.68638802   92.39279938    0.05000000    0.01000000
   17.68944359   93.93900299    0.05000000    0.01000000
   17.69277763   86.13030243    0.05000000    0.01000000
   17.69610977   93.36499786    0.05000000    0.01000000
   17.69916534   89.36100006    0.05000000    0.01000000
   17.70194435   87.40689850    0.05000000    0.01000000
   17.70305634   93.28790283    0.05000000    0.01000000
   17.70611191   91.90750122    0.05000000    0.01000000
   17.70944595   93.65180206    0.05000000    0.01000000
   17.71250153   81.48829651    0.05000000    0.01000000
   17.71583366   86.12529755    0.05000000    0.01000000
   17.72166634   86.12529755    0.05000000    0.01000000
   17.72583389   92.38639832    0.05000000    0.01000000
   17.72916794   88.31269836    0.05000000    0.01000000
   17.73222351   89.55500031    0.05000000    0.01000000
   17.73527718   92.63710022    0.05000000    0.01000000
   17.73611069   91.56020355    0.05000000    0.01000000
   17.73916626  103.04299927    0.05000000    0.01000000
   17.74250031   82.17259979    0.05000000    0.01000000
   17.74583435   85.37409973    0.05000000    0.01000000
   17.74888992   88.87870026    0.05000000    0.01000000
   17.75222206   89.22329712    0.05000000    0.01000000
   17.75527763   89.13310242    0.05000000    0.01000000
   17.75861168   85.83670044    0.05000000    0.01000000
   17.76472282   85.83670044    0.05000000    0.01000000
   17.76861000   89.83679962    0.05000000    0.01000000
   17.77194405   81.04499817    0.05000000    0.01000000
   17.77527809   83.06680298    0.05000000    0.01000000
   17.77833366   82.94270325    0.05000000    0.01000000
   17.78166580   85.08740234    0.05000000    0.01000000
   17.78499985   83.84310150    0.05000000    0.01000000
   17.78805542   86.34739685    0.05000000    0.01000000
   17.79138756   89.20580292    0.05000000    0.01000000
   17.79444313   87.18890381    0.05000000    0.01000000
   17.79777718   84.37899780    0.05000000    0.01000000
   17.80111122   86.18849945    0.05000000    0.01000000
   17.80194283   80.97699738    0.05000000    0.01000000
   17.80749893   80.97699738    0.05000000    0.01000000
   17.81166649   82.58570099    0.05000000    0.01000000
   17.81499863   90.73310089    0.05000000    0.01000000
   17.81833458   84.96910095    0.05000000    0.01000000
   17.83555603   86.10150146    0.05000000    0.01000000
   17.83805656   85.52220154    0.05000000    0.01000000
   17.84111214   91.07360077    0.05000000    0.01000000
   17.84444427   85.61630249    0.05000000    0.01000000
   17.85055542   85.61630249    0.05000000    0.01000000
   17.85472298   94.39659882    0.05000000    0.01000000
   17.85777855   86.35990143    0.05000000    0.01000000
   17.86111069   91.41660309    0.05000000    0.01000000
   17.86444473   94.30860138    0.05000000    0.01000000
   17.86750031   92.34940338    0.05000000    0.01000000
   17.86888885   90.40750122    0.05000000    0.01000000
   17.87138939   89.24320221    0.05000000    0.01000000
   17.87444496  100.63999939    0.05000000    0.01000000
   17.87777710   94.09169769    0.05000000    0.01000000
   17.88111115   92.08149719    0.05000000    0.01000000
   17.88416672   94.34549713    0.05000000    0.01000000
   17.88750076   87.45449829    0.05000000    0.01000000
   17.89333344   87.45449829    0.05000000    0.01000000
   17.89749908   90.49089813    0.05000000    0.01000000
   17.90055466   94.48660278    0.05000000    0.01000000
   17.90222168   91.21440125    0.05000000    0.01000000
   17.90416718   91.52860260    0.05000000    0.01000000
   17.90749931  104.56300354    0.05000000    0.01000000
   17.91083336  109.59899902    0.05000000    0.01000000
   17.91388893   84.93669891    0.05000000    0.01000000
   17.91722107  102.14700317    0.05000000    0.01000000
   17.92055511  107.81900024    0.05000000    0.01000000
   17.92361069  111.02400208    0.05000000    0.01000000
   17.92694473  109.45999908    0.05000000    0.01000000
   17.93000031  108.77700043    0.05000000    0.01000000
   17.93610954  108.77700043    0.05000000    0.01000000
   17.94027710  106.01999664    0.05000000    0.01000000
   17.94361115  111.61299896    0.05000000    0.01000000
   17.94666672  102.83499908    0.05000000    0.01000000
   17.95000076  107.01599884    0.05000000    0.01000000
   17.95333481   90.18920135    0.05000000    0.01000000
   17.95639038   95.43650055    0.05000000    0.01000000
   17.95972252   88.25299835    0.05000000    0.01000000
   17.96305656  109.40599823    0.05000000    0.01000000
   17.96638870  112.26399994    0.05000000    0.01000000
   17.96888924  108.28500366    0.05000000    0.01000000
   17.97000122  117.21499634    0.05000000    0.01000000
   17.97305679  115.03900146    0.05000000    0.01000000
   17.97888947  115.03900146    0.05000000    0.01000000
   17.98305511  126.88099670    0.05000000    0.01000000
   17.98638916  131.39599609    0.05000000    0.01000000
   17.98972321  116.89499664    0.05000000    0.01000000
   17.99277878  136.88400269    0.05000000    0.01000000
   17.99611092  143.46400452    0.05000000    0.01000000
   17.99916649  150.56500244    0.05000000    0.01000000
   18.00222206  137.87199402    0.05000000    0.01000000
   18.00277710  127.87599945    0.05000000    0.01000000
   18.00611115  114.90200043    0.05000000    0.01000000
   18.00944519  134.13699341    0.05000000    0.01000000
   18.01250076  107.04000092    0.05000000    0.01000000
   18.01583290  130.01400757    0.05000000    0.01000000
   18.02194405  130.01400757    0.05000000    0.01000000
   18.02611160  105.21399689    0.05000000    0.01000000
   18.02916718   87.84839630    0.05000000    0.01000000
   18.03249931  107.93699646    0.05000000    0.01000000
   18.03555489  101.72499847    0.05000000    0.01000000
   18.03610992   96.49549866    0.05000000    0.01000000
   18.03944397   92.24620056    0.05000000    0.01000000
   18.04249954   86.40000153    0.05000000    0.01000000
   18.04583359   92.78450012    0.05000000    0.01000000
   18.04888916   98.91780090    0.05000000    0.01000000
   18.05222130   87.95240021    0.05000000    0.01000000
   18.05555534   90.74819946    0.05000000    0.01000000
   18.05861092   88.53050232    0.05000000    0.01000000
   18.06472206   88.53050232    0.05000000    0.01000000
   18.06888962   90.17780304    0.05000000    0.01000000
   18.06944466   82.60240173    0.05000000    0.01000000
   18.07250023   86.99440002    0.05000000    0.01000000
   18.07583427   93.37960052    0.05000000    0.01000000
   18.07916832   98.01219940    0.05000000    0.01000000
   18.08222389   92.57949829    0.05000000    0.01000000
   18.08555603   88.62899780    0.05000000    0.01000000
   18.08861160   88.50540161    0.05000000    0.01000000
   18.09222221   87.71469879    0.05000000    0.01000000
   18.09527779   84.08799744    0.05000000    0.01000000
   18.09861183   85.81199646    0.05000000    0.01000000
   18.10166740   94.59220123    0.05000000    0.01000000
   18.10222244   95.06549835    0.05000000    0.01000000
   18.10750008   95.06549835    0.05000000    0.01000000
   18.11166763   87.20680237    0.05000000    0.01000000
   18.11499977   89.22499847    0.05000000    0.01000000
   18.11805534   86.09549713    0.05000000    0.01000000
   18.12138939  100.40200043    0.05000000    0.01000000
   18.12472153   88.45249939    0.05000000    0.01000000
   18.12777710   86.70469666    0.05000000    0.01000000
   18.13111115  104.70500183    0.05000000    0.01000000
   18.13444519   82.67939758    0.05000000    0.01000000
   18.13555527   86.20089722    0.05000000    0.01000000
   18.13805580   85.77940369    0.05000000    0.01000000
   18.14138794   80.43090057    0.05000000    0.01000000
   18.14444351   89.07129669    0.05000000    0.01000000
   18.15027809   89.07129669    0.05000000    0.01000000
   18.15444374   93.40440369    0.05000000    0.01000000
   18.15777779   86.95529938    0.05000000    0.01000000
   18.16110992   90.41410065    0.05000000    0.01000000
   18.16416550   90.33529663    0.05000000    0.01000000
   18.16749954   91.63999939    0.05000000    0.01000000
   18.16888809   89.40940094    0.05000000    0.01000000
   18.17111015   89.17459869    0.05000000    0.01000000
   18.17444420   84.56990051    0.05000000    0.01000000
   18.17749977   84.88520050    0.05000000    0.01000000
   18.18083191   93.92169952    0.05000000    0.01000000
   18.18416595   87.83399963    0.05000000    0.01000000
   18.18722153   86.92469788    0.05000000    0.01000000
   18.19333267   86.92469788    0.05000000    0.01000000
   18.19722176   87.65450287    0.05000000    0.01000000
   18.20055580   90.06359863    0.05000000    0.01000000
   18.20222282   87.93659973    0.05000000    0.01000000
   18.20416832   81.92120361    0.05000000    0.01000000
   18.20750046   89.62729645    0.05000000    0.01000000
   18.21055603   94.02690125    0.05000000    0.01000000
   18.21389008   90.91500092    0.05000000    0.01000000
   18.21694565   91.24130249    0.05000000    0.01000000
   18.22027779   93.44059753    0.05000000    0.01000000
   18.22361183   94.13300323    0.05000000    0.01000000
   18.22666740   96.36209869    0.05000000    0.01000000
   18.23000145   95.44999695    0.05000000    0.01000000
   18.23611069   95.44999695    0.05000000    0.01000000
   18.24027824   96.18710327    0.05000000    0.01000000
   18.24333382   88.51570129    0.05000000    0.01000000
   18.24666786   92.03209686    0.05000000    0.01000000
   18.25000000   95.93360138    0.05000000    0.01000000
   18.25305557   91.87259674    0.05000000    0.01000000
   18.25638962   92.71600342    0.05000000    0.01000000
   18.25944519   90.79209900    0.05000000    0.01000000
   18.26277733   92.52960205    0.05000000    0.01000000
   18.26611137   91.82060242    0.05000000    0.01000000
   18.26888847   84.38860321    0.05000000    0.01000000
   18.26972198   85.70919800    0.05000000    0.01000000
   18.27305603   90.55490112    0.05000000    0.01000000
   18.27888870   90.55490112    0.05000000    0.01000000
   18.28305435   97.60250092    0.05000000    0.01000000
   18.28638840   93.57170105    0.05000000    0.01000000
   18.28944397   85.93419647    0.05000000    0.01000000
   18.29277802   93.54969788    0.05000000    0.01000000
   18.29611015   96.21309662    0.05000000    0.01000000
   18.29916573   94.27780151    0.05000000    0.01000000
   18.30222130   89.50270081    0.05000000    0.01000000
   18.30277634   88.68869781    0.05000000    0.01000000
   18.30611038   95.21029663    0.05000000    0.01000000
   18.30916595   94.89179993    0.05000000    0.01000000
   18.31250000   87.76999664    0.05000000    0.01000000
   18.31583214   93.39710236    0.05000000    0.01000000
   18.32166672   93.39710236    0.05000000    0.01000000
   18.32583427  102.54000092    0.05000000    0.01000000
   18.32916832   99.28430176    0.05000000    0.01000000
   18.33222389   99.02639771    0.05000000    0.01000000
   18.33555603   89.79699707    0.05000000    0.01000000
   18.33611107   86.72869873    0.05000000    0.01000000
   18.33944511   96.83999634    0.05000000    0.01000000
   18.34250069   97.12660217    0.05000000    0.01000000
   18.34583473   96.94270325    0.05000000    0.01000000
   18.34916687  115.02200317    0.05000000    0.01000000
   18.35222244   89.29129791    0.05000000    0.01000000
   18.35555649   99.36750031    0.05000000    0.01000000
   18.35888863   78.26830292    0.05000000    0.01000000
   18.36472321   78.26830292    0.05000000    0.01000000
   18.36888885   95.07800293    0.05000000    0.01000000
   18.36944389  111.92600250    0.05000000    0.01000000
   18.37249947  111.76200104    0.05000000    0.01000000
   18.37583351  113.94300079    0.05000000    0.01000000
   18.37916756  115.84700012    0.05000000    0.01000000
   18.38222313  112.39099884    0.05000000    0.01000000
   18.38555527  111.15299988    0.05000000    0.01000000
   18.38861084   88.63639832    0.05000000    0.01000000
   18.39222145  106.74700165    0.05000000    0.01000000
   18.39527702  113.07399750    0.05000000    0.01000000
   18.39861107  117.95600128    0.05000000    0.01000000
   18.40194321  113.01999664    0.05000000    0.01000000
   18.40277672  114.58300018    0.05000000    0.01000000
   18.40749931  114.58300018    0.05000000    0.01000000
   18.41166687  122.70200348    0.05000000    0.01000000
   18.41472244  108.00099945    0.05000000    0.01000000
   18.41805458  116.64800262    0.05000000    0.01000000
   18.42138863  125.25000000    0.05000000    0.01000000
   18.42444420  118.29900360    0.05000000    0.01000000
   18.42777634  112.88099670    0.05000000    0.01000000
   18.43111038   99.64250183    0.05000000    0.01000000
   18.43416595  118.43699646    0.05000000    0.01000000
   18.43610954  108.04299927    0.05000000    0.01000000
   18.43777657  122.26300049    0.05000000    0.01000000
   18.44111061  112.17299652    0.05000000    0.01000000
   18.44444275  107.20899963    0.05000000    0.01000000
   18.45027924  107.20899963    0.05000000    0.01000000
   18.45444489   90.06960297    0.05000000    0.01000000
   18.45777893   86.58589935    0.05000000    0.01000000
   18.46083450   85.26689911    0.05000000    0.01000000
   18.46416664   89.13739777    0.05000000    0.01000000
   18.46750069   82.71690369    0.05000000    0.01000000
   18.46944427   85.71959686    0.05000000    0.01000000
   18.47083473   88.10420227    0.05000000    0.01000000
   18.47416687   94.78399658    0.05000000    0.01000000
   18.47750092   82.85340118    0.05000000    0.01000000
   18.48055649   97.63939667    0.05000000    0.01000000
   18.48388863   85.35910034    0.05000000    0.01000000
   18.48694420   82.70459747    0.05000000    0.01000000
   18.49305534   82.70459747    0.05000000    0.01000000
   18.49722290   91.58830261    0.05000000    0.01000000
   18.50055504   92.53990173    0.05000000    0.01000000
   18.50277710   94.97689819    0.05000000    0.01000000
   18.50416756   87.33999634    0.05000000    0.01000000
   18.50749969   78.89299774    0.05000000    0.01000000
   18.51083374  128.84500122    0.05000000    0.01000000
   18.51388931   89.52799988    0.05000000    0.01000000
   18.51722145  106.73899841    0.05000000    0.01000000
   18.52027702  102.08699799    0.05000000    0.01000000
   18.52361107  118.27500153    0.05000000    0.01000000
   18.52694511   99.07599640    0.05000000    0.01000000
   18.53000069  102.77100372    0.05000000    0.01000000
   18.53610992  102.77100372    0.05000000    0.01000000
   18.53999901  141.61999512    0.05000000    0.01000000
   18.54333305  104.60700226    0.05000000    0.01000000
   18.54666710  104.18099976    0.05000000    0.01000000
   18.54972076   94.70629883    0.05000000    0.01000000
   18.55305481   93.67030334    0.05000000    0.01000000
   18.55638885   79.81729889    0.05000000    0.01000000
   18.55944443   90.30809784    0.05000000    0.01000000
   18.56277657   95.56819916    0.05000000    0.01000000
   18.56583214   87.46959686    0.05000000    0.01000000
   18.56916809   87.26419830    0.05000000    0.01000000
   18.56972313   88.13200378    0.05000000    0.01000000
   18.57305717   90.22750092    0.05000000    0.01000000
   18.57888985   90.22750092    0.05000000    0.01000000
   18.58305550   93.58049774    0.05000000    0.01000000
   18.58611107   97.95069885    0.05000000    0.01000000
   18.58944511   87.71849823    0.05000000    0.01000000
   18.59277916   91.70749664    0.05000000    0.01000000
   18.59583473   89.88040161    0.05000000    0.01000000
   18.59916687   95.58360291    0.05000000    0.01000000
   18.60250092   88.20670319    0.05000000    0.01000000
   18.60305595   82.10900116    0.05000000    0.01000000
   18.60611153   86.75569916    0.05000000    0.01000000
   18.60916710   82.17939758    0.05000000    0.01000000
   18.61250114   82.46859741    0.05000000    0.01000000
   18.61555672   83.83110046    0.05000000    0.01000000
   18.62166595   83.83110046    0.05000000    0.01000000
   18.62583351   93.32409668    0.05000000    0.01000000
   18.62916756   94.07129669    0.05000000    0.01000000
   18.63222313   82.21379852    0.05000000    0.01000000
   18.63555527   96.68910217    0.05000000    0.01000000
   18.63638878   87.12319946    0.05000000    0.01000000
   18.63916588   87.96810150    0.05000000    0.01000000
   18.64222145   89.43160248    0.05000000    0.01000000
   18.64555550   90.10970306    0.05000000    0.01000000
   18.64888954   84.81670380    0.05000000    0.01000000
   18.65194321   85.15630341    0.05000000    0.01000000
   18.65527725   85.05419922    0.05000000    0.01000000
   18.65861130   85.20590210    0.05000000    0.01000000
   18.66444397   85.20590210    0.05000000    0.01000000
   18.66860962   84.20619965    0.05000000    0.01000000
   18.66972160   86.75990295    0.05000000    0.01000000
   18.67249870  104.69400024    0.05000000    0.01000000
   18.67555428   80.47429657    0.05000000    0.01000000
   18.67888832   86.65119934    0.05000000    0.01000000
   18.68222237   93.01650238    0.05000000    0.01000000
   18.68527603   87.49520111    0.05000000    0.01000000
   18.68861008   86.63839722    0.05000000    0.01000000
   18.69166565   92.82589722    0.05000000    0.01000000
   18.69499969   95.08630371    0.05000000    0.01000000
   18.69833183   88.50469971    0.05000000    0.01000000
   18.70138931   87.87580109    0.05000000    0.01000000
   18.70305634   82.07479858    0.05000000    0.01000000
   18.70722389   82.07479858    0.05000000    0.01000000
   18.71138954   84.97029877    0.05000000    0.01000000
   18.71472359   93.91570282    0.05000000    0.01000000
   18.71805573   84.94989777    0.05000000    0.01000000
   18.72138977   93.34539795    0.05000000    0.01000000
   18.72444534   87.70390320    0.05000000    0.01000000
   18.72777748   89.63839722    0.05000000    0.01000000
   18.73111153   90.44869995    0.05000000    0.01000000
   18.73416710   82.13510132    0.05000000    0.01000000
   18.73666763   92.71739960    0.05000000    0.01000000
   18.73805618  102.32099915    0.05000000    0.01000000
   18.74138832   97.34210205    0.05000000    0.01000000
   18.74472237  100.81199646    0.05000000    0.01000000
   18.75027847  100.81199646    0.05000000    0.01000000
   18.75444412   89.09590149    0.05000000    0.01000000
   18.75749969   95.51229858    0.05000000    0.01000000
   18.76083374   99.81179810    0.05000000    0.01000000
   18.76388931   93.50710297    0.05000000    0.01000000
   18.76722145   94.64260101    0.05000000    0.01000000
   18.76972198   98.09780121    0.05000000    0.01000000
   18.77111053   92.36689758    0.05000000    0.01000000
   18.77416611   87.08180237    0.05000000    0.01000000
   18.77750015   87.02050018    0.05000000    0.01000000
   18.78083229   94.40959930    0.05000000    0.01000000
   18.78388786   89.64230347    0.05000000    0.01000000
   18.78722191   90.89129639    0.05000000    0.01000000
   18.79305458   90.89129639    0.05000000    0.01000000
   18.79722214   92.32520294    0.05000000    0.01000000
   18.80055428   97.44789886    0.05000000    0.01000000
   18.80305481   98.73329926    0.05000000    0.01000000
   18.80416679   85.90399933    0.05000000    0.01000000
   18.80722237   89.23860168    0.05000000    0.01000000
   18.81055450   83.20670319    0.05000000    0.01000000
   18.81388855  102.04199982    0.05000000    0.01000000
   18.81694603  103.19400024    0.05000000    0.01000000
   18.82027817   93.57800293    0.05000000    0.01000000
   18.82361221   94.93049622    0.05000000    0.01000000
   18.82666779   96.86869812    0.05000000    0.01000000
   18.83000183  103.57099915    0.05000000    0.01000000
   18.83583450  103.57099915    0.05000000    0.01000000
   18.85444450   91.85379791    0.05000000    0.01000000
   18.85750008   98.84159851    0.05000000    0.01000000
   18.86083412   98.01159668    0.05000000    0.01000000
   18.86388969   81.83270264    0.05000000    0.01000000
   18.86722183   85.69010162    0.05000000    0.01000000
   18.87055588   99.80269623    0.05000000    0.01000000
   18.87361145  100.87599945    0.05000000    0.01000000
   18.87888908  100.87599945    0.05000000    0.01000000
   18.88305473   92.03579712    0.05000000    0.01000000
   18.88638878   87.40760040    0.05000000    0.01000000
   18.88750076   91.88320160    0.05000000    0.01000000
   18.89027786   89.55690002    0.05000000    0.01000000
   18.89333344   91.74079895    0.05000000    0.01000000
   18.89666748   84.44280243    0.05000000    0.01000000
   18.89999962   87.73390198    0.05000000    0.01000000
   18.90305519   80.89649963    0.05000000    0.01000000
   18.90638924   90.29309845    0.05000000    0.01000000
   18.90972137   85.54209900    0.05000000    0.01000000
   18.91277695   87.92939758    0.05000000    0.01000000
   18.91611099   88.94909668    0.05000000    0.01000000
   18.92194366   88.94909668    0.05000000    0.01000000
   18.92611122   93.29460144    0.05000000    0.01000000
   18.92916679   90.21649933    0.05000000    0.01000000
   18.93249893   88.03579712    0.05000000    0.01000000
   18.93555450   86.08550262    0.05000000    0.01000000
   18.93888855   97.31069946    0.05000000    0.01000000
   18.94222069   90.29319763    0.05000000    0.01000000
   18.94527626   92.76219940    0.05000000    0.01000000
   18.94861031   91.92299652    0.05000000    0.01000000
   18.95194435   87.40190125    0.05000000    0.01000000
   18.95388985   87.07099915    0.05000000    0.01000000
   18.95555687   83.97969818    0.05000000    0.01000000
   18.95888901   84.39099884    0.05000000    0.01000000
   18.96472359   84.39099884    0.05000000    0.01000000
   18.96888924   83.93710327    0.05000000    0.01000000
   18.97194481   86.02290344    0.05000000    0.01000000
   18.97527885   94.13610077    0.05000000    0.01000000
   18.97861099   87.49649811    0.05000000    0.01000000
   18.98166656   90.39540100    0.05000000    0.01000000
   18.98500061   90.27790070    0.05000000    0.01000000
   18.98722267   87.22090149    0.05000000    0.01000000
   18.98861122   82.96849823    0.05000000    0.01000000
   18.99194527   86.79949951    0.05000000    0.01000000
   18.99500084   83.98329926    0.05000000    0.01000000
   18.99833298   83.17960358    0.05000000    0.01000000
   19.00166702   82.32009888    0.05000000    0.01000000
   19.00749969   82.32009888    0.05000000    0.01000000
   19.01166725   82.69309998    0.05000000    0.01000000
   19.01499939   77.71910095    0.05000000    0.01000000
   19.01805496   86.22769928    0.05000000    0.01000000
   19.02055550   81.75409698    0.05000000    0.01000000
   19.02166557   83.50710297    0.05000000    0.01000000
   19.02499962   84.73449707    0.05000000    0.01000000
   19.02805519   79.19509888    0.05000000    0.01000000
   19.03138924   87.61779785    0.05000000    0.01000000
   19.03472137   82.22440338    0.05000000    0.01000000
   19.03777695   81.44259644    0.05000000    0.01000000
   19.04111099   90.23059845    0.05000000    0.01000000
   19.04416656   94.60040283    0.05000000    0.01000000
   19.05027771   94.60040283    0.05000000    0.01000000
   19.05444336   85.67520142    0.05000000    0.01000000
   19.05777740   87.66750336    0.05000000    0.01000000
   19.06083298   90.12699890    0.05000000    0.01000000
   19.06416512   97.04589844    0.05000000    0.01000000
   19.06750107   87.53639984    0.05000000    0.01000000
   19.07055664   91.81950378    0.05000000    0.01000000
   19.07389069   84.04239655    0.05000000    0.01000000
   19.07722282   91.65100098    0.05000000    0.01000000
   19.08027840   92.00009918    0.05000000    0.01000000
   19.08361244  103.36299896    0.05000000    0.01000000
   19.08694458   87.08630371    0.05000000    0.01000000
   19.08750153   89.92569733    0.05000000    0.01000000
   19.09333420   89.92569733    0.05000000    0.01000000
   19.09722328   86.21269989    0.05000000    0.01000000
   19.10055542   94.59439850    0.05000000    0.01000000
   19.10388947   94.16100311    0.05000000    0.01000000
   19.10694504   96.41829681    0.05000000    0.01000000
   19.11027908   86.78299713    0.05000000    0.01000000
   19.11361122   90.59889984    0.05000000    0.01000000
   19.11666679   91.61119843    0.05000000    0.01000000
   19.12000084   84.31159973    0.05000000    0.01000000
   19.12083435  100.98200226    0.05000000    0.01000000
   19.12361145   85.94300079    0.05000000    0.01000000
   19.12694550   77.90110016    0.05000000    0.01000000
   19.13027763   86.86920166    0.05000000    0.01000000
   19.13611031   86.86920166    0.05000000    0.01000000
   19.14027786   85.30110168    0.05000000    0.01000000
   19.14333344   84.70379639    0.05000000    0.01000000
   19.14666748   88.39669800    0.05000000    0.01000000
   19.14999962   88.03289795    0.05000000    0.01000000
   19.15305519   82.38490295    0.05000000    0.01000000
   19.15416718   77.42739868    0.05000000    0.01000000
   19.15694427   86.36080170    0.05000000    0.01000000
   19.16027832   80.07520294    0.05000000    0.01000000
   19.16333389   81.00389862    0.05000000    0.01000000
   19.16666603   85.25389862    0.05000000    0.01000000
   19.17000008   88.55130005    0.05000000    0.01000000
   19.17305565   84.89140320    0.05000000    0.01000000
   19.17888832   84.89140320    0.05000000    0.01000000
   19.18305397   90.44400024    0.05000000    0.01000000
   19.18638802   89.64610291    0.05000000    0.01000000
   19.18750000   88.06189728    0.05000000    0.01000000
   19.18972206   93.13269806    0.05000000    0.01000000
   19.19305420   84.99420166    0.05000000    0.01000000
   19.19638824   91.09709930    0.05000000    0.01000000
   19.19944382   83.94069672    0.05000000    0.01000000
   19.20277786   78.41750336    0.05000000    0.01000000
   19.20611191   85.58209991    0.05000000    0.01000000
   19.20916748   78.95390320    0.05000000    0.01000000
   19.21250153   82.41649628    0.05000000    0.01000000
   19.21583366   89.75740051    0.05000000    0.01000000
   19.22166634   89.75740051    0.05000000    0.01000000
   19.22583389   90.63030243    0.05000000    0.01000000
   19.22916794   93.07189941    0.05000000    0.01000000
   19.23250008   94.02410126    0.05000000    0.01000000
   19.23555565   84.53649902    0.05000000    0.01000000
   19.23888969   89.34329987    0.05000000    0.01000000
   19.24222183   85.32180023    0.05000000    0.01000000
   19.24527740   88.22579956    0.05000000    0.01000000
   19.24861145   87.66200256    0.05000000    0.01000000
   19.25166702   90.42400360    0.05000000    0.01000000
   19.25416756   96.60089874    0.05000000    0.01000000
   19.25555611   86.54219818    0.05000000    0.01000000
   19.25888824   91.16770172    0.05000000    0.01000000
   19.26472282   91.16770172    0.05000000    0.01000000
   19.26888847   90.42099762    0.05000000    0.01000000
   19.27194405   86.33499908    0.05000000    0.01000000
   19.27527809   85.51760101    0.05000000    0.01000000
   19.27833366   83.97979736    0.05000000    0.01000000
   19.28166580   81.37339783    0.05000000    0.01000000
   19.28499985   84.11930084    0.05000000    0.01000000
   19.28750038   83.04910278    0.05000000    0.01000000
   19.28833199   85.75070190    0.05000000    0.01000000
   19.29166603   92.14170074    0.05000000    0.01000000
   19.29500008   86.23439789    0.05000000    0.01000000
   19.29805565   96.39510345    0.05000000    0.01000000
   19.30138779   86.15930176    0.05000000    0.01000000
   19.30749893   86.15930176    0.05000000    0.01000000
   19.31166649   82.80400085    0.05000000    0.01000000
   19.31472206   82.69760132    0.05000000    0.01000000
   19.31805611   86.17910004    0.05000000    0.01000000
   19.32083511   93.34310150    0.05000000    0.01000000
   19.32166672   83.88780212    0.05000000    0.01000000
   19.32500076   84.66940308    0.05000000    0.01000000
   19.32833481   88.09960175    0.05000000    0.01000000
   19.33139038   89.53170013    0.05000000    0.01000000
   19.33472252   81.54799652    0.05000000    0.01000000
   19.33805656   79.26809692    0.05000000    0.01000000
   19.34111214   80.18910217    0.05000000    0.01000000
   19.34444427   72.29910278    0.05000000    0.01000000
   19.35027885   72.29910278    0.05000000    0.01000000
   19.35444450   83.42929840    0.05000000    0.01000000
   19.35777855   81.74620056    0.05000000    0.01000000
   19.36083412   80.52400208    0.05000000    0.01000000
   19.36416626   86.47889709    0.05000000    0.01000000
   19.36750031   78.20290375    0.05000000    0.01000000
   19.37055588   79.65799713    0.05000000    0.01000000
   19.37388992   78.23709869    0.05000000    0.01000000
   19.37722206   82.37899780    0.05000000    0.01000000
   19.38027763   79.73040009    0.05000000    0.01000000
   19.38361168   77.86129761    0.05000000    0.01000000
   19.38694382   89.50879669    0.05000000    0.01000000
   19.38750076   79.22309875    0.05000000    0.01000000
   19.39305496   79.22309875    0.05000000    0.01000000
   19.39722252   89.28559875    0.05000000    0.01000000
   19.40055466   84.71150208    0.05000000    0.01000000
   19.40388870   93.41259766    0.05000000    0.01000000
   19.40694427   94.02230072    0.05000000    0.01000000
   19.41027832   91.84600067    0.05000000    0.01000000
   19.41361046   89.44049835    0.05000000    0.01000000
   19.41666603   87.72290039    0.05000000    0.01000000
   19.42000008   90.50890350    0.05000000    0.01000000
   19.42083359   87.45159912    0.05000000    0.01000000
   19.42388916   98.57620239    0.05000000    0.01000000
   19.42694473   97.62490082    0.05000000    0.01000000
   19.43027687   92.33209991    0.05000000    0.01000000
   19.43610954   92.33209991    0.05000000    0.01000000
   19.44027710   95.41239929    0.05000000    0.01000000
   19.44361115   96.10630035    0.05000000    0.01000000
   19.44666672   87.67549896    0.05000000    0.01000000
   19.45000076   97.40070343    0.05000000    0.01000000
   19.45333481  105.03800201    0.05000000    0.01000000
   19.45416832   97.21520233    0.05000000    0.01000000
   19.45694542  107.55899811    0.05000000    0.01000000
   19.46000099  107.79299927    0.05000000    0.01000000
   19.46333504  123.93800354    0.05000000    0.01000000
   19.46638870  109.40399933    0.05000000    0.01000000
   19.46972275  126.47100067    0.05000000    0.01000000
   19.47305679  112.00399780    0.05000000    0.01000000
   19.47888947  112.00399780    0.05000000    0.01000000
   19.48305511  103.31099701    0.05000000    0.01000000
   19.48666763  116.85500336    0.05000000    0.01000000
   19.48750114  126.10399628    0.05000000    0.01000000
   19.49027824  130.64300537    0.05000000    0.01000000
   19.49333382  119.00199890    0.05000000    0.01000000
   19.49666786  135.71899414    0.05000000    0.01000000
   19.49972153  145.16900635    0.05000000    0.01000000
   19.50305557  133.40400696    0.05000000    0.01000000
   19.50638962  130.35400391    0.05000000    0.01000000
   19.50972176  142.16700745    0.05000000    0.01000000
   19.51305580  132.65400696    0.05000000    0.01000000
   19.51611137  123.54699707    0.05000000    0.01000000
   19.52166557  123.54699707    0.05000000    0.01000000
   19.52583313  133.77600098    0.05000000    0.01000000
   19.52916718  130.55599976    0.05000000    0.01000000
   19.53222275  128.76300049    0.05000000    0.01000000
   19.53555489  127.27899933    0.05000000    0.01000000
   19.53861046  150.31700134    0.05000000    0.01000000
   19.54194450  133.37800598    0.05000000    0.01000000
   19.54527664  116.90399933    0.05000000    0.01000000
   19.54833221  132.09399414    0.05000000    0.01000000
   19.55166626  139.20799255    0.05000000    0.01000000
   19.55416679  146.61199951    0.05000000    0.01000000
   19.55555534  146.32299805    0.05000000    0.01000000
   19.55861092  132.77799988    0.05000000    0.01000000
   19.56444359  132.77799988    0.05000000    0.01000000
   19.56861115  125.84500122    0.05000000    0.01000000
   19.57194519  122.96199799    0.05000000    0.01000000
   19.57527924  129.41099548    0.05000000    0.01000000
   19.57833481  131.72700500    0.05000000    0.01000000
   19.58166695  130.49299622    0.05000000    0.01000000
   19.58500099  140.99899292    0.05000000    0.01000000
   19.58750153  154.42700195    0.05000000    0.01000000
   19.58861160  155.77600098    0.05000000    0.01000000
   19.59166718  156.45700073    0.05000000    0.01000000
   19.59500122  155.53799438    0.05000000    0.01000000
   19.59805679  152.54800415    0.05000000    0.01000000
   19.60138893  161.82800293    0.05000000    0.01000000
   19.60750008  161.82800293    0.05000000    0.01000000
   19.61138916  127.25499725    0.05000000    0.01000000
   19.61472321  135.59300232    0.05000000    0.01000000
   19.61805534  131.53700256    0.05000000    0.01000000
   19.62083435  142.49200439    0.05000000    0.01000000
   19.62166595  131.61599731    0.05000000    0.01000000
   19.62472153  137.00399780    0.05000000    0.01000000
   19.62805557  134.87100220    0.05000000    0.01000000
   19.63111115  134.83999634    0.05000000    0.01000000
   19.63444519  133.76800537    0.05000000    0.01000000
   19.63777733  145.56900024    0.05000000    0.01000000
   19.64083290  124.34799957    0.05000000    0.01000000
   19.64416695  130.21000671    0.05000000    0.01000000
   19.65027809  130.21000671    0.05000000    0.01000000
   19.65444374  146.17300415    0.05000000    0.01000000
   19.65749931  140.90100098    0.05000000    0.01000000
   19.66083336  148.09199524    0.05000000    0.01000000
   19.66416550  130.12399292    0.05000000    0.01000000
   19.66749954  147.07800293    0.05000000    0.01000000
   19.67083359  132.16299438    0.05000000    0.01000000
   19.67416573  131.57499695    0.05000000    0.01000000
   19.67722130  121.22699738    0.05000000    0.01000000
   19.68055534  134.81700134    0.05000000    0.01000000
   19.68361092  117.12400055    0.05000000    0.01000000
   19.68694305  126.34200287    0.05000000    0.01000000
   19.68750000  138.19200134    0.05000000    0.01000000
   19.69305420  138.19200134    0.05000000    0.01000000
   19.69722176  126.35099792    0.05000000    0.01000000
   19.70055580  111.37300110    0.05000000    0.01000000
   19.70361137  128.70300293    0.05000000    0.01000000
   19.70694542  120.68099976    0.05000000    0.01000000
   19.71000099  132.56399536    0.05000000    0.01000000
   19.71333504  124.98100281    0.05000000    0.01000000
   19.71666718  131.22000122    0.05000000    0.01000000
   19.71972275  127.21099854    0.05000000    0.01000000
   19.72083473  136.92799377    0.05000000    0.01000000
   19.72361183  129.11300659    0.05000000    0.01000000
   19.72666740  124.64600372    0.05000000    0.01000000
   19.73000145  135.59300232    0.05000000    0.01000000
   19.73583412  135.59300232    0.05000000    0.01000000
   19.73999977  131.09199524    0.05000000    0.01000000
   19.74333382  125.54599762    0.05000000    0.01000000
   19.74666786  118.64700317    0.05000000    0.01000000
   19.74972153  129.60600281    0.05000000    0.01000000
   19.75305557  130.00399780    0.05000000    0.01000000
   19.75416756  118.86699677    0.05000000    0.01000000
   19.75666618  106.91899872    0.05000000    0.01000000
   19.75972176   87.81539917    0.05000000    0.01000000
   19.76305580   86.81040192    0.05000000    0.01000000
   19.76638794   96.04789734    0.05000000    0.01000000
   19.76944351  114.23699951    0.05000000    0.01000000
   19.77277756  123.04900360    0.05000000    0.01000000
   19.77861023  123.04900360    0.05000000    0.01000000
   19.78277779  260.92001343    0.05000000    0.01000000
   19.78610992  362.82699585    0.05000000    0.01000000
   19.78750038  407.68399048    0.05000000    0.01000000
   19.78972244  120.66300201    0.05000000    0.01000000
   19.79277802   -1.00000000    0.05000000    0.01000000
   19.79611015   -1.00000000    0.05000000    0.01000000
   19.79944420   -1.00000000    0.05000000    0.01000000
   19.80277634   -1.00000000    0.05000000    0.01000000
   19.80583191   -1.00000000    0.05000000    0.01000000
   19.80916595   -1.00000000    0.05000000    0.01000000
   19.81250000   -1.00000000    0.05000000    0.01000000
   19.81555557   -1.00000000    0.05000000    0.01000000
   19.82555580   -1.00000000    0.05000000    0.01000000
   19.82888985   -1.00000000    0.05000000    0.01000000
   19.83222389   -1.00000000    0.05000000    0.01000000
   19.83527756   -1.00000000    0.05000000    0.01000000
   19.83861160   -1.00000000    0.05000000    0.01000000
   19.84166718   -1.00000000    0.05000000    0.01000000
   19.84500122   -1.00000000    0.05000000    0.01000000
   19.84833336   -1.00000000    0.05000000    0.01000000
   19.85138893   -1.00000000    0.05000000    0.01000000
   19.87888908   -1.00000000    0.05000000    0.01000000
   19.88194466   -1.00000000    0.05000000    0.01000000
   19.88527679   -1.00000000    0.05000000    0.01000000
   19.88861084   -1.00000000    0.05000000    0.01000000
   19.89194489   -1.00000000    0.05000000    0.01000000
   19.89527702   -1.00000000    0.05000000    0.01000000
   19.89833260   -1.00000000    0.05000000    0.01000000
   19.90166664   -1.00000000    0.05000000    0.01000000
   19.90499878   -1.00000000    0.05000000    0.01000000
   19.90805435   -1.00000000    0.05000000    0.01000000
   19.91138840   -1.00000000    0.05000000    0.01000000
   19.92166519   -1.00000000    0.05000000    0.01000000
   19.92499924   -1.00000000    0.05000000    0.01000000
   19.92805481   -1.00000000    0.05000000    0.01000000
   19.93138885   -1.00000000    0.05000000    0.01000000
   19.93444443   -1.00000000    0.05000000    0.01000000
   19.93777657   -1.00000000    0.05000000    0.01000000
   19.94111061   -1.00000000    0.05000000    0.01000000
   19.94416618   -1.00000000    0.05000000    0.01000000
   19.94749832   -1.00000000    0.05000000    0.01000000
   19.95083427   -1.00000000    0.05000000    0.01000000
   19.95388985   -1.00000000    0.05000000    0.01000000
   19.96444511   -1.00000000    0.05000000    0.01000000
   19.96777916   -1.00000000    0.05000000    0.01000000
   19.97083473   -1.00000000    0.05000000    0.01000000
   19.97416687   -1.00000000    0.05000000    0.01000000
   19.97722244   -1.00000000    0.05000000    0.01000000
   19.98055649   -1.00000000    0.05000000    0.01000000
   19.98388863   -1.00000000    0.05000000    0.01000000
   19.98694420   -1.00000000    0.05000000    0.01000000
   19.99055672   -1.00000000    0.05000000    0.01000000
   19.99388885   -1.00000000    0.05000000    0.01000000
   19.99722290   -1.00000000    0.05000000    0.01000000
   20.00722313   -1.00000000    0.05000000    0.01000000
   20.01055527   -1.00000000    0.05000000    0.01000000
   20.01361084   -1.00000000    0.05000000    0.01000000
   20.01694489   -1.00000000    0.05000000    0.01000000
   20.02027702   -1.00000000    0.05000000    0.01000000
   20.02388954   -1.00000000    0.05000000    0.01000000
   20.02722168   -1.00000000    0.05000000    0.01000000
   20.03027725   -1.00000000    0.05000000    0.01000000
   20.03361130   -1.00000000    0.05000000    0.01000000
   20.03694344   -1.00000000    0.05000000    0.01000000
   20.03999901   -1.00000000    0.05000000    0.01000000
   20.04999924   -1.00000000    0.05000000    0.01000000
   20.05333328   -1.00000000    0.05000000    0.01000000
   20.05694389   -1.00000000    0.05000000    0.01000000
   20.05999947   -1.00000000    0.05000000    0.01000000
   20.06333351   -1.00000000    0.05000000    0.01000000
   20.06638718   -1.00000000    0.05000000    0.01000000
   20.06972313   -1.00000000    0.05000000    0.01000000
   20.07305717   -1.00000000    0.05000000    0.01000000
   20.07611275   -1.00000000    0.05000000    0.01000000
   20.07944489   -1.00000000    0.05000000    0.01000000
   20.08277893   -1.00000000    0.05000000    0.01000000
   20.09305573   -1.00000000    0.05000000    0.01000000
   20.09611130   -1.00000000    0.05000000    0.01000000
   20.09944534   -1.00000000    0.05000000    0.01000000
   20.10250092   -1.00000000    0.05000000    0.01000000
   20.10583305   -1.00000000    0.05000000    0.01000000
   20.10916710   -1.00000000    0.05000000    0.01000000
   20.11222267   -1.00000000    0.05000000    0.01000000
   20.11555672   -1.00000000    0.05000000    0.01000000
   20.11888885   -1.00000000    0.05000000    0.01000000
   20.12249947   -1.00000000    0.05000000    0.01000000
   20.12555504   -1.00000000    0.05000000    0.01000000
   20.13583374   -1.00000000    0.05000000    0.01000000
   20.13888931   -1.00000000    0.05000000    0.01000000
   20.14222145   -1.00000000    0.05000000    0.01000000
   20.14555550   -1.00000000    0.05000000    0.01000000
   20.14861107   -1.00000000    0.05000000    0.01000000
   20.15194321   -1.00000000    0.05000000    0.01000000
   20.15555573   -1.00000000    0.05000000    0.01000000
   20.15861130   -1.00000000    0.05000000    0.01000000
   20.16194344   -1.00000000    0.05000000    0.01000000
   20.16499901   -1.00000000    0.05000000    0.01000000
   20.16833305   -1.00000000    0.05000000    0.01000000
   20.17860985   -1.00000000    0.05000000    0.01000000
   20.18194389   -1.00000000    0.05000000    0.01000000
   20.18499947   -1.00000000    0.05000000    0.01000000
   20.18888855   -1.00000000    0.05000000    0.01000000
   20.19194412   -1.00000000    0.05000000    0.01000000
   20.19527626   -1.00000000    0.05000000    0.01000000
   20.19833183   -1.00000000    0.05000000    0.01000000
   20.20166779   -1.00000000    0.05000000    0.01000000
   20.20499992   -1.00000000    0.05000000    0.01000000
