    HOUR (UT)   FLARE FACTOR    SKY TESTER    SUN TESTER
   12.22611046   -1.00000000   -1.00000000   -1.00000000
   12.24611092  188.20399475    0.00000000    0.00000000
   12.25138855  198.14999390    0.00000000    0.00000000
   12.25444412  148.01899719    0.00000000    0.00000000
   12.25777817  167.20300293    0.00000000    0.00000000
   12.26083374  166.54899597    0.00000000    0.00000000
   12.26416683  167.72000122    0.00000000    0.00000000
   12.26749992  151.33900452    0.00000000    0.00000000
   12.27055550  147.67100525    0.00000000    0.00000000
   12.27388859  144.57699585    0.00000000    0.00000000
   12.27722168  131.60400391    3.36999989    1.83000004
   12.27888870  143.71299744    3.36999989    1.83000004
   12.28083324  137.21400452    3.36999989    1.83000004
   12.28416729  111.76799774    3.36999989    1.83000004
   12.28722286  119.94699860    3.36999989    1.83000004
   12.29055595  135.09199524    3.36999989    1.83000004
   12.29388905  130.37100220    3.36999989    1.83000004
   12.29694462  132.63400269    3.36999989    1.83000004
   12.30027771  124.97799683    3.36999989    1.83000004
   12.30333328  128.52900696    3.36999989    1.83000004
   12.30666733  150.32600403    3.36999989    1.83000004
   12.31000042  132.55000305    3.36999989    1.83000004
   12.31222248  113.72699738    3.36999989    1.83000004
   12.31361103  110.80899811    3.36999989    1.83000004
   12.31694412  117.42400360    3.36999989    1.83000004
   12.31999969  152.55000305    3.36999989    1.83000004
   12.32333374  120.13200378    3.36999989    1.83000004
   12.32666683  120.76599884    3.36999989    1.83000004
   12.32972240  151.71099854    3.36999989    1.83000004
   12.33305550  130.54400635    3.36999989    1.83000004
   12.33611107  145.27299500    3.36999989    1.83000004
   12.33944416  112.93000031    3.36999989    1.83000004
   12.34277725  122.66799927    3.36999989    1.83000004
   12.34555531  102.35199738    3.36999989    1.83000004
   12.34638882  178.15800476    3.36999989    1.83000004
   12.34972191  174.15699768    3.36999989    1.83000004
   12.35277843  164.01899719    3.36999989    1.83000004
   12.35611153  129.86599731    3.36999989    1.83000004
   12.35944462  157.52799988    3.36999989    1.83000004
   12.36250019  131.53399658    3.36999989    1.83000004
   12.36583328  112.27400208    3.36999989    1.83000004
   12.36888885  163.50599670    3.36999989    1.83000004
   12.37222195  209.41999817    3.36999989    1.83000004
   12.37555599  121.19499969    3.36999989    1.83000004
   12.37861156  154.30900574    3.36999989    1.83000004
   12.37916660  166.15299988    3.36999989    1.83000004
   12.38249969  136.26100159    3.36999989    1.83000004
   12.38583279  106.12200165    3.36999989    1.83000004
   12.38888836  146.55799866    3.36999989    1.83000004
   12.39222240  128.36999512    3.36999989    1.83000004
   12.39527798  143.79600525    3.36999989    1.83000004
   12.39861107  129.34199524    3.36999989    1.83000004
   12.40194416  159.42300415    3.36999989    1.83000004
   12.40499973  145.91999817    3.36999989    1.83000004
   12.40833282  114.00599670    3.36999989    1.83000004
   12.41166592  160.11199951    3.36999989    1.83000004
   12.41249943  152.75900269    3.36999989    1.83000004
   12.41527748  142.50599670    3.36999989    1.83000004
   12.41861153  161.16900635    3.36999989    1.83000004
   12.42166710  150.67100525    3.36999989    1.83000004
   12.42500019  126.54299927    3.36999989    1.83000004
   12.42805576  116.36699677    3.36999989    1.83000004
   12.43138885  115.79499817    3.36999989    1.83000004
   12.43472195  180.00799561    3.36999989    1.83000004
   12.43777752  116.58399963    3.36999989    1.83000004
   12.44111156   97.18530273    3.36999989    1.83000004
   12.44444466  138.00900269    3.36999989    1.83000004
   12.44583321  156.47300720    3.36999989    1.83000004
   12.44805527  156.39199829    3.36999989    1.83000004
   12.45138836  181.08000183    3.36999989    1.83000004
   12.45444393  157.75500488    3.36999989    1.83000004
   12.45777798  124.56600189    3.36999989    1.83000004
   12.46083355  163.35699463    3.36999989    1.83000004
   12.46416664  147.44500732    3.36999989    1.83000004
   12.46749973  158.08599854    3.36999989    1.83000004
   12.47055531  121.72200012    3.36999989    1.83000004
   12.47388840  105.41400146    3.36999989    1.83000004
   12.47722149  104.84700012    3.36999989    1.83000004
   12.47916603  128.29299927    3.36999989    1.83000004
   12.48083305  123.06199646    3.36999989    1.83000004
   12.48416710  112.11900330    3.36999989    1.83000004
   12.48722267  111.91300201    3.36999989    1.83000004
   12.49055576  153.34199524    3.36999989    1.83000004
   12.49361134  120.86000061    3.36999989    1.83000004
   12.49694443  105.34300232    3.36999989    1.83000004
   12.50027752  111.31700134    3.36999989    1.83000004
   12.50333309  119.68299866    3.36999989    1.83000004
   12.50666714  111.50800323    3.36999989    1.83000004
   12.51000023  102.14800262    3.36999989    1.83000004
   12.51249981  103.42099762    3.36999989    1.83000004
   12.51361084  103.77100372    3.36999989    1.83000004
   12.51694393  118.59899902    3.36999989    1.83000004
   12.51999950  100.33899689    3.36999989    1.83000004
   12.52333355  121.73600006    3.36999989    1.83000004
   12.52666664  124.58300018    3.36999989    1.83000004
   12.52972221  110.92299652    3.36999989    1.83000004
   12.53305531  110.46399689    3.36999989    1.83000004
   12.53611183  121.15399933    3.36999989    1.83000004
   12.53944492  115.48300171    3.36999989    1.83000004
   12.54277802  109.65000153    3.36999989    1.83000004
   12.54583359  124.42700195    3.36999989    1.83000004
   12.54638958  137.73899841    3.36999989    1.83000004
   12.54972267  110.06099701    3.36999989    1.83000004
   12.55277824  130.50000000    3.36999989    1.83000004
   12.55611134  165.05299377    3.36999989    1.83000004
   12.55944443  119.34200287    3.36999989    1.83000004
   12.56250000  129.07499695    3.36999989    1.83000004
   12.56583309  149.78399658    3.36999989    1.83000004
   12.56916618  132.91000366    3.36999989    1.83000004
   12.57222176  117.75900269    3.36999989    1.83000004
   12.57555580  121.08899689    3.36999989    1.83000004
   12.57861137  108.11399841    3.36999989    1.83000004
   12.57916641  113.58999634    3.36999989    1.83000004
   12.58222198  141.61000061    3.36999989    1.83000004
   12.58555508  114.80699921    3.36999989    1.83000004
   12.58861065  112.76999664    3.36999989    1.83000004
   12.59194374  108.05100250    3.36999989    1.83000004
   12.59527779  107.52999878    3.36999989    1.83000004
   12.59833336  120.27899933    3.36999989    1.83000004
   12.60166740  117.96800232    3.36999989    1.83000004
   12.60500050  129.52200317    3.36999989    1.83000004
   12.60805607  109.68000031    3.36999989    1.83000004
   12.61138916  119.98899841    3.36999989    1.83000004
   12.61250019  105.54900360    3.36999989    1.83000004
   12.61500072  113.82399750    3.36999989    1.83000004
   12.61833382  108.31300354    3.36999989    1.83000004
   12.62138939  112.48300171    3.36999989    1.83000004
   12.62472248  108.62999725    3.36999989    1.83000004
   12.62805557  116.61599731    3.36999989    1.83000004
   12.63111115  116.69999695    3.36999989    1.83000004
   12.63444424  107.15200043    3.36999989    1.83000004
   12.63777733  111.55500031    3.36999989    1.83000004
   12.64083290  112.03800201    3.36999989    1.83000004
   12.64416695  117.91000366    3.36999989    1.83000004
   12.64583302  111.57800293    3.36999989    1.83000004
   12.64777756  115.12200165    3.36999989    1.83000004
   12.65111065  114.21399689    3.36999989    1.83000004
   12.65416622  108.06700134    3.36999989    1.83000004
   12.65749931  115.36599731    3.36999989    1.83000004
   12.66083336  108.90499878    3.36999989    1.83000004
   12.66388893  103.14399719    3.36999989    1.83000004
   12.66722298  111.65599823    3.36999989    1.83000004
   12.67055607  106.75299835    3.36999989    1.83000004
   12.67361164  108.95999908    3.36999989    1.83000004
   12.67694473  111.76300049    3.36999989    1.83000004
   12.67916679  105.75700378    3.36999989    1.83000004
   12.68055630  101.56999969    3.36999989    1.83000004
   12.68388939  114.25599670    3.36999989    1.83000004
   12.68694496  113.96399689    3.36999989    1.83000004
   12.69027805  113.43199921    3.36999989    1.83000004
   12.69361115  112.01000214    3.36999989    1.83000004
   12.69666672  108.13899994    3.36999989    1.83000004
   12.69999981  108.19200134    3.36999989    1.83000004
   12.70333290  109.36799622    3.36999989    1.83000004
   12.70638847  110.58699799    3.36999989    1.83000004
   12.70972157  115.02799988    3.36999989    1.83000004
   12.71277714  105.59899902    3.36999989    1.83000004
   12.71361065  109.80100250    3.36999989    1.83000004
   12.71666622  109.09200287    3.36999989    1.83000004
   12.71999931  116.95500183    3.36999989    1.83000004
   12.72333336  111.21900177    3.36999989    1.83000004
   12.72638798  112.07199860    3.36999989    1.83000004
   12.72972202  106.99299622    3.36999989    1.83000004
   12.73277760  113.04299927    3.36999989    1.83000004
   12.73611164  110.15299988    3.36999989    1.83000004
   12.73944473  110.62899780    3.36999989    1.83000004
   12.74250031  114.82599640    3.36999989    1.83000004
   12.74583340  114.37100220    3.36999989    1.83000004
   12.74638939  110.63700104    3.36999989    1.83000004
   12.74972248  114.97899628    3.36999989    1.83000004
   12.75277805  109.11000061    3.36999989    1.83000004
   12.75611115  111.22799683    3.36999989    1.83000004
   12.75944424  111.13200378    3.36999989    1.83000004
   12.76249981  107.76300049    3.36999989    1.83000004
   12.76583290  113.17400360    3.36999989    1.83000004
   12.76888847  108.20800018    3.36999989    1.83000004
   12.77222157  109.12500000    3.36999989    1.83000004
   12.77555561  114.19400024    3.36999989    1.83000004
   12.77861118  108.38400269    3.36999989    1.83000004
   12.77972221  101.97299957    3.36999989    1.83000004
   12.78249931  115.47899628    3.36999989    1.83000004
   12.78555584  112.81500244    3.36999989    1.83000004
   12.78888893  109.16899872    3.36999989    1.83000004
   12.79194450  110.77400208    3.36999989    1.83000004
   12.79527855  107.53600311    3.36999989    1.83000004
   12.79861164  105.62999725    3.36999989    1.83000004
   12.80166721  104.28399658    3.36999989    1.83000004
   12.80500031  107.48000336    3.36999989    1.83000004
   12.80833340  108.78500366    3.36999989    1.83000004
   12.81166649  114.09600067    3.36999989    1.83000004
   12.81305599  114.86299896    3.36999989    1.83000004
   12.81527805  112.19200134    3.36999989    1.83000004
   12.81833363  112.14099884    3.36999989    1.83000004
   12.82166672  111.20300293    3.36999989    1.83000004
   12.82499981  117.93399811    3.36999989    1.83000004
   12.82805538  127.67600250    3.36999989    1.83000004
   12.83138847  115.78900146    3.36999989    1.83000004
   12.83472157  116.35600281    3.36999989    1.83000004
   12.83777714  121.50900269    3.36999989    1.83000004
   12.84111118  111.24900055    3.36999989    1.83000004
   12.84416676  117.19400024    3.36999989    1.83000004
   12.84638882  123.46099854    3.36999989    1.83000004
   12.84805489  112.42500305    3.36999989    1.83000004
   12.85111141  115.41699982    3.36999989    1.83000004
   12.85444450  116.67400360    3.36999989    1.83000004
   12.85777855  121.40599823    3.36999989    1.83000004
   12.86083412  126.78900146    3.36999989    1.83000004
   12.86416721  134.52200317    3.36999989    1.83000004
   12.86750031  126.30899811    3.36999989    1.83000004
   12.87055588  128.85200500    3.36999989    1.83000004
   12.87388897  134.00399780    3.36999989    1.83000004
   12.87694454  136.55000305    3.36999989    1.83000004
   12.87972260  119.23799896    3.36999989    1.83000004
   12.88083363  123.19799805    3.36999989    1.83000004
   12.88388920  125.51799774    3.36999989    1.83000004
   12.88722229  117.70700073    3.36999989    1.83000004
   12.89055538  139.74699402    3.36999989    1.83000004
   12.89361095  114.40000153    3.36999989    1.83000004
   12.89694405  107.87599945    3.36999989    1.83000004
   12.90027714  114.79100037    3.36999989    1.83000004
   12.90333271  110.75800323    3.36999989    1.83000004
   12.90666676  112.42400360    3.36999989    1.83000004
   12.90999985  114.76699829    3.36999989    1.83000004
   12.91305542  110.36799622    3.36999989    1.83000004
   12.91361046  107.67800140    3.36999989    1.83000004
   12.91666698  111.95800018    3.36999989    1.83000004
   12.92000008  114.66500092    3.36999989    1.83000004
   12.92333412  109.31500244    3.36999989    1.83000004
   12.92638874  116.27999878    3.36999989    1.83000004
   12.92972279  110.29199982    3.36999989    1.83000004
   12.93277836  107.49500275    3.36999989    1.83000004
   12.93611145  106.42800140    3.36999989    1.83000004
   12.93944454  114.48799896    3.36999989    1.83000004
   12.94250011  116.65100098    3.36999989    1.83000004
   12.94583321  117.06600189    3.36999989    1.83000004
   12.94638920  113.66400146    3.36999989    1.83000004
   12.94944477  108.72699738    3.36999989    1.83000004
   12.95249939  111.04000092    3.36999989    1.83000004
   12.95583344  110.97899628    3.36999989    1.83000004
   12.95916653  117.06300354    3.36999989    1.83000004
   12.96222210  118.32199860    3.36999989    1.83000004
   12.96555519  111.60500336    3.36999989    1.83000004
   12.96888828  117.99400330    3.36999989    1.83000004
   12.97194386  110.52799988    3.36999989    1.83000004
   12.97527695  112.29100037    3.36999989    1.83000004
   12.97833252  108.81500244    3.36999989    1.83000004
   12.97972202  110.91300201    3.36999989    1.83000004
   12.98222160  111.21800232    3.36999989    1.83000004
   12.98527813  122.49700165    3.36999989    1.83000004
   12.98861122  141.30000305    3.36999989    1.83000004
   12.99194431  141.17500305    3.36999989    1.83000004
   12.99499989  119.40899658    3.36999989    1.83000004
   12.99833393  115.72699738    3.36999989    1.83000004
   13.00138855  114.17900085    3.36999989    1.83000004
   13.00472260  112.28500366    3.36999989    1.83000004
   13.00805569  120.51599884    3.36999989    1.83000004
   13.01111126  113.79499817    3.36999989    1.83000004
   13.01305580  117.42500305    3.36999989    1.83000004
   13.01500034  126.28600311    3.36999989    1.83000004
   13.01805496  116.19599915    3.36999989    1.83000004
   13.02138901  117.15899658    3.36999989    1.83000004
   13.02472210  115.37699890    3.36999989    1.83000004
   13.02777767  107.26799774    3.36999989    1.83000004
   13.03111076  113.58699799    3.36999989    1.83000004
   13.03444481  114.65100098    3.36999989    1.83000004
   13.03750038  118.14099884    3.36999989    1.83000004
   13.04111195  140.39799500    3.36999989    1.83000004
   13.04444504  134.54699707    3.36999989    1.83000004
   13.04638958  127.69999695    3.36999989    1.83000004
   13.04805565  108.80000305    3.36999989    1.83000004
   13.05111122  110.50399780    3.36999989    1.83000004
   13.05444431  133.40299988    3.36999989    1.83000004
   13.05777836  106.79799652    3.36999989    1.83000004
   13.06083393  113.54399872    3.36999989    1.83000004
   13.06416702  120.09400177    3.36999989    1.83000004
   13.06750011  111.24800110    3.36999989    1.83000004
   13.07083321  113.97799683    3.36999989    1.83000004
   13.07388878  114.89700317    3.36999989    1.83000004
   13.07722187  111.50299835    3.36999989    1.83000004
   13.07972240  108.67099762    3.36999989    1.83000004
   13.08083344  113.08799744    3.36999989    1.83000004
   13.08388901  111.60800171    3.36999989    1.83000004
   13.08722210  115.52600098    3.36999989    1.83000004
   13.09055519  109.11799622    3.36999989    1.83000004
   13.09361076  113.55799866    3.36999989    1.83000004
   13.09694386  109.25499725    3.36999989    1.83000004
   13.10000038  118.86000061    3.36999989    1.83000004
   13.10333347  109.54499817    3.36999989    1.83000004
   13.10666752  119.77100372    3.36999989    1.83000004
   13.10972214  113.81700134    3.36999989    1.83000004
   13.11305618  119.38300323    3.36999989    1.83000004
   13.11361122  117.87000275    3.36999989    1.83000004
   13.11666679  138.48100281    3.36999989    1.83000004
   13.11999989  114.97299957    3.36999989    1.83000004
   13.12333393  122.50900269    3.36999989    1.83000004
   13.12638855  115.01799774    3.36999989    1.83000004
   13.12972260  108.85500336    3.36999989    1.83000004
   13.13305569  113.88800049    3.36999989    1.83000004
   13.13611126  106.88200378    3.36999989    1.83000004
   13.13944435  102.05899811    3.36999989    1.83000004
   13.14249992  103.44599915    3.36999989    1.83000004
   13.14583302  115.09700012    3.36999989    1.83000004
   13.14638901  108.18900299    3.36999989    1.83000004
   13.14944458  108.39299774    3.36999989    1.83000004
   13.15249920  109.69999695    3.36999989    1.83000004
   13.15583324  141.91499329    3.36999989    1.83000004
   13.15916634  108.93000031    3.36999989    1.83000004
   13.16249943  109.33799744    3.36999989    1.83000004
   13.16555500  106.88099670    3.36999989    1.83000004
   13.16888905  110.88400269    3.36999989    1.83000004
   13.17194462  110.99600220    3.36999989    1.83000004
   13.17527771  111.37999725    3.36999989    1.83000004
   13.17861176  112.61900330    3.36999989    1.83000004
   13.17972279  137.64399719    3.36999989    1.83000004
   13.18222237  110.58499908    3.36999989    1.83000004
   13.18527794  106.85700226    3.36999989    1.83000004
   13.18861103  112.08000183    3.36999989    1.83000004
   13.19194412  106.70500183    3.36999989    1.83000004
   13.19499969  111.78199768    3.36999989    1.83000004
   13.19833374  107.68099976    3.36999989    1.83000004
   13.20166683  112.55999756    3.36999989    1.83000004
   13.20472240  113.84899902    3.36999989    1.83000004
   13.20805550  113.16000366    3.36999989    1.83000004
   13.21111107  113.94200134    3.36999989    1.83000004
   13.21305561  114.61699677    3.36999989    1.83000004
   13.21500015  117.27500153    3.36999989    1.83000004
   13.21805477  110.66000366    3.36999989    1.83000004
   13.22138882  119.69799805    3.36999989    1.83000004
   13.22472191  112.98400116    3.36999989    1.83000004
   13.22777748  111.57800293    3.36999989    1.83000004
   13.23111057  108.69200134    3.36999989    1.83000004
   13.23444462  111.59500122    3.36999989    1.83000004
   13.23750019  114.46900177    3.36999989    1.83000004
   13.24083328  109.63999939    3.36999989    1.83000004
   13.24416733  109.62500000    3.36999989    1.83000004
   13.26222229  104.15899658    3.36999989    1.83000004
   13.26388931  105.88200378    3.36999989    1.83000004
   13.26722240  106.74900055    3.36999989    1.83000004
   13.27055550  114.19699860    3.36999989    1.83000004
   13.27388859  113.40599823    3.36999989    1.83000004
   13.27694416  108.04000092    3.36999989    1.83000004
   13.28027725  110.96299744    3.36999989    1.83000004
   13.28361130  114.70300293    3.36999989    1.83000004
   13.28666687  107.37899780    3.36999989    1.83000004
   13.29000092  113.02600098    3.36999989    1.83000004
   13.29361153  114.85299683    3.36999989    1.83000004
   13.29555607  107.02500153    3.36999989    1.83000004
   13.29722309  115.76300049    3.36999989    1.83000004
   13.30027771  107.37699890    3.36999989    1.83000004
   13.30361176  107.11100006    3.36999989    1.83000004
   13.30694485  109.08100128    3.36999989    1.83000004
   13.31000042  107.28600311    3.36999989    1.83000004
   13.31333351  112.84200287    3.36999989    1.83000004
   13.31666660  113.51100159    3.36999989    1.83000004
   13.31972218  113.77300262    3.36999989    1.83000004
   13.32305527  107.97000122    3.36999989    1.83000004
   13.32611084  114.94000244    3.36999989    1.83000004
   13.32888889  107.42199707    3.36999989    1.83000004
   13.32999992  113.00199890    3.36999989    1.83000004
   13.33305550  108.93399811    3.36999989    1.83000004
   13.33638859  109.76699829    3.36999989    1.83000004
   13.33972168  111.82700348    3.36999989    1.83000004
   13.34277725  102.81800079    3.36999989    1.83000004
   13.34611034  111.35700226    3.36999989    1.83000004
   13.34944439  113.26399994    3.36999989    1.83000004
   13.35249996  111.26399994    3.36999989    1.83000004
   13.35583401  112.36000061    3.36999989    1.83000004
   13.35916710  109.51599884    3.36999989    1.83000004
   13.36250019  112.31500244    3.36999989    1.83000004
   13.36277771  106.77999878    3.36999989    1.83000004
   13.36611176  113.62699890    3.36999989    1.83000004
   13.36944485  107.42500305    3.36999989    1.83000004
   13.37250042  112.15699768    3.36999989    1.83000004
   13.37583351  111.25599670    3.36999989    1.83000004
   13.37916660  107.95999908    3.36999989    1.83000004
   13.38222218  107.55300140    3.36999989    1.83000004
   13.38555527  109.51999664    3.36999989    1.83000004
   13.38861084  117.84700012    3.36999989    1.83000004
   13.39194393  109.56700134    3.36999989    1.83000004
   13.39527798  106.64099884    3.36999989    1.83000004
   13.39583302  111.01000214    3.36999989    1.83000004
   13.39861107  111.64700317    3.36999989    1.83000004
   13.40194416  109.40899658    3.36999989    1.83000004
   13.40527725  107.13500214    3.36999989    1.83000004
   13.40833282  106.67700195    3.36999989    1.83000004
   13.41166592  109.20400238    3.36999989    1.83000004
   13.41472149  103.34100342    3.36999989    1.83000004
   13.41805553  109.66899872    3.36999989    1.83000004
   13.42138958  109.46099854    3.36999989    1.83000004
   13.42444515  109.26499939    3.36999989    1.83000004
   13.42777824  108.77799988    3.36999989    1.83000004
   13.42916679  109.67700195    3.36999989    1.83000004
   13.43138885  111.48999786    3.36999989    1.83000004
   13.43472195  110.48699951    3.36999989    1.83000004
   13.43805599  111.20500183    3.36999989    1.83000004
   13.44111156  112.71900177    3.36999989    1.83000004
   13.44444466  109.75199890    3.36999989    1.83000004
   13.44750023  108.72000122    3.36999989    1.83000004
   13.45083332  110.23000336    3.36999989    1.83000004
   13.45416641  110.41899872    3.36999989    1.83000004
   13.45722198  109.58000183    3.36999989    1.83000004
   13.46055508  111.95099640    3.36999989    1.83000004
   13.46249962  108.08999634    3.36999989    1.83000004
   13.46416664  109.37200165    3.36999989    1.83000004
   13.46749973  109.60299683    3.36999989    1.83000004
   13.47055531  107.76999664    3.36999989    1.83000004
   13.47388840  112.08300018    3.36999989    1.83000004
   13.47722149  111.37599945    3.36999989    1.83000004
   13.48027706  107.85199738    3.36999989    1.83000004
   13.48361111  109.40499878    3.36999989    1.83000004
   13.48694515  104.23400116    3.36999989    1.83000004
   13.49000072  108.06500244    3.36999989    1.83000004
   13.49333382  111.58599854    3.36999989    1.83000004
   13.49583340  108.92600250    3.36999989    1.83000004
   13.49694443  108.91200256    3.36999989    1.83000004
   13.50027752  107.45400238    3.36999989    1.83000004
   13.50361156  108.16899872    3.36999989    1.83000004
   13.50666714  107.22499847    3.36999989    1.83000004
   13.51000023  109.32599640    3.36999989    1.83000004
   13.51333332  108.23100281    3.36999989    1.83000004
   13.51638889  108.00399780    3.36999989    1.83000004
   13.51972198  111.44000244    3.36999989    1.83000004
   13.52277756  112.45200348    3.36999989    1.83000004
   13.52611065  110.39900208    3.36999989    1.83000004
   13.52916622  102.73400116    3.36999989    1.83000004
   13.52999973  110.04900360    3.36999989    1.83000004
   13.53333378  102.67800140    3.36999989    1.83000004
   13.53666687  106.43299866    3.36999989    1.83000004
   13.53972244  108.32399750    3.36999989    1.83000004
   13.54305553  109.96499634    3.36999989    1.83000004
   13.54611111  108.63300323    3.36999989    1.83000004
   13.54944515  107.86699677    3.36999989    1.83000004
   13.55277824  109.09500122    3.36999989    1.83000004
   13.55583382  112.89600372    3.36999989    1.83000004
   13.55916691  113.67700195    3.36999989    1.83000004
   13.56250000  108.50800323    3.36999989    1.83000004
   13.56277752  105.87000275    3.36999989    1.83000004
   13.56611156  114.50099945    3.36999989    1.83000004
   13.56944466  105.27400208    3.36999989    1.83000004
   13.57250023  111.12100220    3.36999989    1.83000004
   13.57583332  109.60099792    3.36999989    1.83000004
   13.57888889  105.26499939    3.36999989    1.83000004
   13.58222198  112.70999908    3.36999989    1.83000004
   13.58555508  110.34999847    3.36999989    1.83000004
   13.58888817  107.98300171    3.36999989    1.83000004
   13.59194374  103.47100067    3.36999989    1.83000004
   13.59527779  103.29799652    3.36999989    1.83000004
   13.59583282  106.92199707    3.36999989    1.83000004
   13.59861088  109.05500031    3.36999989    1.83000004
   13.60194492  106.76999664    3.36999989    1.83000004
   13.60527802  106.96299744    3.36999989    1.83000004
   13.60833359  106.06300354    3.36999989    1.83000004
   13.61166668  105.28399658    3.36999989    1.83000004
   13.61500072  105.59899902    3.36999989    1.83000004
   13.61805534  109.53800201    3.36999989    1.83000004
   13.62138939  106.68499756    3.36999989    1.83000004
   13.62444496  103.37100220    3.36999989    1.83000004
   13.62777805  107.30599976    3.36999989    1.83000004
   13.62916660  107.52300262    3.36999989    1.83000004
   13.63138866  102.81900024    3.36999989    1.83000004
   13.63472176  101.19599915    3.36999989    1.83000004
   13.63805580  103.62699890    3.36999989    1.83000004
   13.64111137  103.99700165    3.36999989    1.83000004
   13.64444447  103.40899658    3.36999989    1.83000004
   13.64750004  101.88099670    3.36999989    1.83000004
   13.65083313  102.10500336    3.36999989    1.83000004
   13.65416622  108.71700287    3.36999989    1.83000004
   13.65722179  102.39399719    3.36999989    1.83000004
   13.66055489  110.00599670    3.36999989    1.83000004
   13.66249943  108.63200378    3.36999989    1.83000004
   13.66416645  101.48699951    3.36999989    1.83000004
   13.66750050  102.91200256    3.36999989    1.83000004
   13.67083359  102.97499847    3.36999989    1.83000004
   13.67388916  110.50299835    3.36999989    1.83000004
   13.67722225  107.99800110    3.36999989    1.83000004
   13.68055630  106.19100189    3.36999989    1.83000004
   13.68361092  103.47399902    3.36999989    1.83000004
   13.68694496  108.82399750    3.36999989    1.83000004
   13.69000053  107.51699829    3.36999989    1.83000004
   13.69333363  105.39700317    3.36999989    1.83000004
   13.69583321  102.51799774    3.36999989    1.83000004
   13.69694424  110.72499847    3.36999989    1.83000004
   13.70027733  106.72100067    3.36999989    1.83000004
   13.70361137  109.59700012    3.36999989    1.83000004
   13.70666695  105.32800293    3.36999989    1.83000004
   13.71000004  102.80500031    3.36999989    1.83000004
   13.71305561  104.74199677    3.36999989    1.83000004
   13.71638870  107.65799713    3.36999989    1.83000004
   13.71972179  103.60299683    3.36999989    1.83000004
   13.72277737  107.59200287    3.36999989    1.83000004
   13.72611046  116.52799988    3.36999989    1.83000004
   13.72916603  101.80300140    3.36999989    1.83000004
   13.72972202  107.31600189    3.36999989    1.83000004
   13.73305511  128.21099854    3.36999989    1.83000004
   13.73638916  104.65699768    3.36999989    1.83000004
   13.73944473  114.36699677    3.36999989    1.83000004
   13.74277782  106.49600220    3.36999989    1.83000004
   13.74611092  102.37799835    3.36999989    1.83000004
   13.74916649  106.59600067    3.36999989    1.83000004
   13.75249958  103.16400146    3.36999989    1.83000004
   13.75583363  105.89900208    3.36999989    1.83000004
   13.75888920   99.85620117    3.36999989    1.83000004
   13.76222229  107.11299896    3.36999989    1.83000004
   13.76277733  101.25499725    3.36999989    1.83000004
   13.76611137  101.78500366    3.36999989    1.83000004
   13.76916599  103.16300201    3.36999989    1.83000004
   13.77250004  103.21199799    3.36999989    1.83000004
   13.77555561  105.15699768    3.36999989    1.83000004
   13.77888870   98.79820251    3.36999989    1.83000004
   13.78222179  103.77500153    3.36999989    1.83000004
   13.78527832  105.16200256    3.36999989    1.83000004
   13.78861141  102.14499664    3.36999989    1.83000004
   13.79194450  102.50099945    3.36999989    1.83000004
   13.79500008  111.76599884    3.36999989    1.83000004
   13.79611111  103.05200195    3.36999989    1.83000004
   13.79888916  103.07399750    3.36999989    1.83000004
   13.80194473  105.94400024    3.36999989    1.83000004
   13.80527782  105.53700256    3.36999989    1.83000004
   13.80861092  105.38600159    3.36999989    1.83000004
   13.81166649  110.56099701    3.36999989    1.83000004
   13.81500053  101.94300079    3.36999989    1.83000004
   13.81805515  108.80799866    3.36999989    1.83000004
   13.82138920  106.78500366    3.36999989    1.83000004
   13.82472229  102.24099731    3.36999989    1.83000004
   13.82777786  105.44000244    3.36999989    1.83000004
   13.82944393  111.30999756    3.36999989    1.83000004
   13.83166695  105.78299713    3.36999989    1.83000004
   13.83472157  104.57700348    3.36999989    1.83000004
   13.83805561  103.66400146    3.36999989    1.83000004
   13.84138870  106.68199921    3.36999989    1.83000004
   13.84444427  105.24600220    3.36999989    1.83000004
   13.84777737  102.64800262    3.36999989    1.83000004
   13.85083389  102.60099792    3.36999989    1.83000004
   13.85416698  102.88200378    3.36999989    1.83000004
   13.85750008  103.14600372    3.36999989    1.83000004
   13.86055565  104.90100098    3.36999989    1.83000004
   13.86277771   98.65239716    3.36999989    1.83000004
   13.86444473   99.21209717    3.36999989    1.83000004
   13.86750031  122.77400208    3.36999989    1.83000004
   13.87083340  213.94700623    3.36999989    1.83000004
   13.87416649  223.29299927    3.36999989    1.83000004
   13.87722206  159.39599609    3.36999989    1.83000004
   13.88055611  173.56399536    3.36999989    1.83000004
   13.88361073  141.02900696    3.36999989    1.83000004
   13.88694477  137.39300537    3.36999989    1.83000004
   13.89027786  140.83999634    3.36999989    1.83000004
   13.89333344  116.85500336    3.36999989    1.83000004
   13.89611053  121.09200287    3.36999989    1.83000004
   13.89722252  113.48999786    3.36999989    1.83000004
   13.90027714  103.03600311    3.36999989    1.83000004
   13.90361118  107.51599884    3.36999989    1.83000004
   13.90694427  103.37300110    3.36999989    1.83000004
   13.91027737  100.75399780    3.36999989    1.83000004
   13.91333294  101.87100220    3.36999989    1.83000004
   13.91666698  105.55999756    3.36999989    1.83000004
   13.92000008   99.03869629    3.36999989    1.83000004
   13.92305565  102.49900055    3.36999989    1.83000004
   13.92638874  103.05000305    3.36999989    1.83000004
   13.92944431  102.46099854    3.36999989    1.83000004
   13.93000031   99.40170288    3.36999989    1.83000004
   13.93333340   98.67160034    3.36999989    1.83000004
   13.93666649  102.89399719    3.36999989    1.83000004
   13.93972206  101.86299896    3.36999989    1.83000004
   13.94305515   99.51249695    3.36999989    1.83000004
   13.94611073  101.08000183    3.36999989    1.83000004
   13.94944477  105.74900055    3.36999989    1.83000004
   13.95277786  102.79000092    3.36999989    1.83000004
   13.95583344  103.83399963    3.36999989    1.83000004
   13.95916653  102.50299835    3.36999989    1.83000004
   13.96249962  103.50299835    3.36999989    1.83000004
   13.96305561  101.09500122    3.36999989    1.83000004
   13.96611118  108.15499878    3.36999989    1.83000004
   13.96916580  105.44899750    3.36999989    1.83000004
   13.97249985  102.13400269    3.36999989    1.83000004
   13.97583294  103.13899994    3.36999989    1.83000004
   13.97888851  107.06999969    3.36999989    1.83000004
   13.98222160   98.72609711    3.36999989    1.83000004
   13.98527813  103.97499847    3.36999989    1.83000004
   13.98861122  104.00399780    3.36999989    1.83000004
   13.99194431  102.17900085    3.36999989    1.83000004
   13.99499989  100.51599884    3.36999989    1.83000004
   13.99638939  104.22799683    3.36999989    1.83000004
   13.99888897  106.25399780    3.36999989    1.83000004
   14.00194454  103.68800354    3.36999989    1.83000004
   14.00527763  100.90499878    3.36999989    1.83000004
   14.00861073  101.00000000    3.36999989    1.83000004
   14.01166630  105.59200287    3.36999989    1.83000004
   14.01500034  107.77600098    3.36999989    1.83000004
   14.01833344   98.92810059    3.36999989    1.83000004
   14.02138901  102.81099701    3.36999989    1.83000004
   14.02472210  104.30300140    3.36999989    1.83000004
   14.02777767  102.18699646    3.36999989    1.83000004
   14.02972221  102.31400299    3.36999989    1.83000004
   14.03166676  103.20200348    3.36999989    1.83000004
   14.03472233  102.36299896    3.36999989    1.83000004
   14.03805637  100.31300354    3.36999989    1.83000004
   14.04138947  107.22299957    3.36999989    1.83000004
   14.04444504  106.53800201    3.36999989    1.83000004
   14.04777813  100.92900085    3.36999989    1.83000004
   14.05111122  106.83899689    3.36999989    1.83000004
   14.05416679  102.78700256    3.36999989    1.83000004
   14.05749989  105.10800171    3.36999989    1.83000004
   14.06055546  104.80500031    3.36999989    1.83000004
   14.06305599  106.82599640    3.36999989    1.83000004
   14.06444454   99.84110260    3.36999989    1.83000004
   14.06750011  101.18000031    3.36999989    1.83000004
   14.07083321  103.44699860    3.36999989    1.83000004
   14.07416630  101.95700073    3.36999989    1.83000004
   14.07722187  100.01200104    3.36999989    1.83000004
   14.08055592  102.68299866    3.36999989    1.83000004
   14.08388901   97.35530090    3.36999989    1.83000004
   14.08694458  101.84999847    3.36999989    1.83000004
   14.09027767  101.63200378    3.36999989    1.83000004
   14.09361076   96.70030212    3.36999989    1.83000004
   14.09638882  100.94100189    3.36999989    1.83000004
   14.09722233   98.66699982    3.36999989    1.83000004
   14.10027790   98.16760254    3.36999989    1.83000004
   14.10361195   96.39399719    3.36999989    1.83000004
   14.10694504  103.13899994    3.36999989    1.83000004
   14.11000061  104.96900177    3.36999989    1.83000004
   14.11333370   99.78540039    3.36999989    1.83000004
   14.11666679  101.31800079    3.36999989    1.83000004
   14.11972237   98.73329926    3.36999989    1.83000004
   14.12305546  100.93800354    3.36999989    1.83000004
   14.12611103   98.71990204    3.36999989    1.83000004
   14.12944412  100.16400146    3.36999989    1.83000004
   14.13000011  100.29499817    3.36999989    1.83000004
   14.13333321   97.85310364    3.36999989    1.83000004
   14.13638878  101.53800201    3.36999989    1.83000004
   14.13972187  101.78199768    3.36999989    1.83000004
   14.14305496   99.06919861    3.36999989    1.83000004
   14.14611053   98.65260315    3.36999989    1.83000004
   14.14944458  105.01499939    3.36999989    1.83000004
   14.15249920  102.36799622    3.36999989    1.83000004
   14.15583324   98.78299713    3.36999989    1.83000004
   14.15916634   97.82740021    3.36999989    1.83000004
   14.16222191   97.92659760    3.36999989    1.83000004
   14.16333294  105.25800323    3.36999989    1.83000004
   14.16611099   99.05049896    3.36999989    1.83000004
   14.16916656   98.96929932    3.36999989    1.83000004
   14.17250061   98.77899933    3.36999989    1.83000004
   14.17583370  103.38500214    3.36999989    1.83000004
   14.17888927  103.58300018    3.36999989    1.83000004
   14.18222237   98.44400024    3.36999989    1.83000004
   14.18527794   96.54959869    3.36999989    1.83000004
   14.18861103  102.05599976    3.36999989    1.83000004
   14.19194412   97.36920166    3.36999989    1.83000004
   14.19499969   96.58889771    3.36999989    1.83000004
   14.19666672  102.01399994    3.36999989    1.83000004
   14.19888878  100.24900055    3.36999989    1.83000004
   14.20194435   98.37460327    3.36999989    1.83000004
   14.20527744  102.21499634    3.36999989    1.83000004
   14.20861053  104.23600006    3.36999989    1.83000004
   14.21166611  130.55200195    3.36999989    1.83000004
   14.21500015  100.28700256    3.36999989    1.83000004
   14.21833324  112.07599640    3.36999989    1.83000004
   14.22138882  139.12100220    3.36999989    1.83000004
   14.22472191  121.34100342    3.36999989    1.83000004
   14.22777748  123.59300232    3.36999989    1.83000004
   14.22999954  121.87599945    3.36999989    1.83000004
   14.23166656  126.46399689    3.36999989    1.83000004
   14.23472214  117.84700012    3.36999989    1.83000004
   14.23805618  112.32199860    3.36999989    1.83000004
   14.24138927   99.48149872    3.36999989    1.83000004
   14.24444485  110.18800354    3.36999989    1.83000004
   14.24777794  103.70400238    3.36999989    1.83000004
   14.25111103  101.28399658    3.36999989    1.83000004
   14.25416660  101.37400055    3.36999989    1.83000004
   14.25749969   97.74680328    3.36999989    1.83000004
   14.26083374  102.07800293    3.36999989    1.83000004
   14.27888870  102.34999847    3.36999989    1.83000004
   14.28055573   97.67910004    3.36999989    1.83000004
   14.28361130   97.93630219    3.36999989    1.83000004
   14.28694534   99.94940186    3.36999989    1.83000004
   14.29027843  100.77100372    3.36999989    1.83000004
   14.29333401  101.16400146    3.36999989    1.83000004
   14.29666710   98.36720276    3.36999989    1.83000004
   14.30000019  102.31300354    3.36999989    1.83000004
   14.30305576   95.93039703    3.36999989    1.83000004
   14.30638885   99.24030304    3.36999989    1.83000004
   14.30944443   99.07279968    3.36999989    1.83000004
   14.31222248  105.07399750    3.36999989    1.83000004
   14.31305599  101.99299622    3.36999989    1.83000004
   14.31638908   98.04170227    3.36999989    1.83000004
   14.31972218  102.31099701    3.36999989    1.83000004
   14.32277775  102.87999725    3.36999989    1.83000004
   14.32611084  102.84700012    3.36999989    1.83000004
   14.32916641  101.97799683    3.36999989    1.83000004
   14.33249950  104.88500214    3.36999989    1.83000004
   14.33583260  101.48699951    3.36999989    1.83000004
   14.33888817   97.52539825    3.36999989    1.83000004
   14.34222221  101.85600281    3.36999989    1.83000004
   14.34555531  102.14299774    3.36999989    1.83000004
   14.34611034   95.38410187    3.36999989    1.83000004
   14.34916592   98.49440002    3.36999989    1.83000004
   14.35249996  101.56300354    3.36999989    1.83000004
   14.35583401  104.32299805    3.36999989    1.83000004
   14.35888958  101.05400085    3.36999989    1.83000004
   14.36222267  101.63500214    3.36999989    1.83000004
   14.36555576  102.84700012    3.36999989    1.83000004
   14.36888885   99.81390381    3.36999989    1.83000004
   14.37194443  100.91799927    3.36999989    1.83000004
   14.37527752   98.96450043    3.36999989    1.83000004
   14.37861156  100.72000122    3.36999989    1.83000004
   14.37916660  104.35600281    3.36999989    1.83000004
   14.38194466  100.26200104    3.36999989    1.83000004
   14.38527775  101.88600159    3.36999989    1.83000004
   14.38833332  100.55100250    3.36999989    1.83000004
   14.39166641   96.95700073    3.36999989    1.83000004
   14.39499950  105.76999664    3.36999989    1.83000004
   14.39805508  102.43699646    3.36999989    1.83000004
   14.40138817   99.09149933    3.36999989    1.83000004
   14.40472221   94.87380219    3.36999989    1.83000004
   14.40777779   95.49189758    3.36999989    1.83000004
   14.41111088   98.75920105    3.36999989    1.83000004
   14.41249943  103.34899902    3.36999989    1.83000004
   14.41472149   98.69069672    3.36999989    1.83000004
   14.41805553   98.56459808    3.36999989    1.83000004
   14.42111111   99.51779938    3.36999989    1.83000004
   14.42444515   98.27429962    3.36999989    1.83000004
   14.42777824  101.79399872    3.36999989    1.83000004
   14.43111134   96.25659943    3.36999989    1.83000004
   14.43416691   96.49610138    3.36999989    1.83000004
   14.43750000   96.37300110    3.36999989    1.83000004
   14.44055557   98.27420044    3.36999989    1.83000004
   14.44388866   96.65049744    3.36999989    1.83000004
   14.44583321   99.70739746    3.36999989    1.83000004
   14.44750023  101.04499817    3.36999989    1.83000004
   14.45083332   99.57990265    3.36999989    1.83000004
   14.45388889   95.95200348    3.36999989    1.83000004
   14.45722198   98.91040039    3.36999989    1.83000004
   14.46055508   98.36219788    3.36999989    1.83000004
   14.46361065   96.85949707    3.36999989    1.83000004
   14.46694374   97.28079987    3.36999989    1.83000004
   14.47027779   97.45999908    3.36999989    1.83000004
   14.47333336   98.26300049    3.36999989    1.83000004
   14.47666645   96.36209869    3.36999989    1.83000004
   14.47916603   96.08840179    3.36999989    1.83000004
   14.48027706   95.99990082    3.36999989    1.83000004
   14.48361111   92.42310333    3.36999989    1.83000004
   14.48666668   97.88590240    3.36999989    1.83000004
   14.49000072  100.09700012    3.36999989    1.83000004
   14.49333382   98.48660278    3.36999989    1.83000004
   14.49638939   97.45839691    3.36999989    1.83000004
   14.49972248   97.68969727    3.36999989    1.83000004
   14.50305557   96.67839813    3.36999989    1.83000004
   14.50611115   97.87090302    3.36999989    1.83000004
   14.50944424   99.61489868    3.36999989    1.83000004
   14.51249981  101.08699799    3.36999989    1.83000004
   14.51305580   98.91490173    3.36999989    1.83000004
   14.51638889   96.19400024    3.36999989    1.83000004
   14.51944447   98.36949921    3.36999989    1.83000004
   14.52305508  101.43900299    3.36999989    1.83000004
   14.52638817   99.65059662    3.36999989    1.83000004
   14.52972221  102.04299927    3.36999989    1.83000004
   14.53305531   98.92359924    3.36999989    1.83000004
   14.53611183   95.81620026    3.36999989    1.83000004
   14.53944492   98.98359680    3.36999989    1.83000004
   14.54277802   98.09059906    3.36999989    1.83000004
   14.54583359  101.82700348    3.36999989    1.83000004
   14.54611111   98.22360229    3.36999989    1.83000004
   14.54944515   97.10820007    3.36999989    1.83000004
   14.55277824   96.76039886    3.36999989    1.83000004
   14.55583382  101.20700073    3.36999989    1.83000004
   14.55916691  100.21600342    3.36999989    1.83000004
   14.56222248   97.55269623    3.36999989    1.83000004
   14.56555557   94.64389801    3.36999989    1.83000004
   14.56888866   96.63369751    3.36999989    1.83000004
   14.57194424   95.46309662    3.36999989    1.83000004
   14.57527733   94.77050018    3.36999989    1.83000004
   14.57833290   98.65589905    3.36999989    1.83000004
   14.57916641   98.26059723    3.36999989    1.83000004
   14.58194447   96.36440277    3.36999989    1.83000004
   14.58527756   98.59490204    3.36999989    1.83000004
   14.58861065   98.45020294    3.36999989    1.83000004
   14.59166622   98.32730103    3.36999989    1.83000004
   14.59499931   98.92819977    3.36999989    1.83000004
   14.59805489   94.70899963    3.36999989    1.83000004
   14.60138893   96.69989777    3.36999989    1.83000004
   14.60472298  109.58100128    3.36999989    1.83000004
   14.60777855   98.07820129    3.36999989    1.83000004
   14.61111164   97.56800079    3.36999989    1.83000004
   14.61250019   98.37760162    3.36999989    1.83000004
   14.61472225   96.51529694    3.36999989    1.83000004
   14.61805534  100.97799683    3.36999989    1.83000004
   14.62138939   98.27899933    3.36999989    1.83000004
   14.62444496   97.52200317    3.36999989    1.83000004
   14.62777805   94.61779785    3.36999989    1.83000004
   14.63083363   98.42489624    3.36999989    1.83000004
   14.63416672  119.99199677    3.36999989    1.83000004
   14.63749981  108.13800049    3.36999989    1.83000004
   14.64055538  108.99900055    3.36999989    1.83000004
   14.64388847  108.49900055    3.36999989    1.83000004
   14.64583302  151.49000549    3.36999989    1.83000004
   14.64750004  149.47399902    3.36999989    1.83000004
   14.65083313  193.68600464    3.36999989    1.83000004
   14.65416622  171.04200745    3.36999989    1.83000004
   14.65722179  177.31900024    3.36999989    1.83000004
   14.66055489  145.03100586    3.36999989    1.83000004
   14.66361046  139.83299255    3.36999989    1.83000004
   14.66694450  170.37100220    3.36999989    1.83000004
   14.67027855  142.07400513    3.36999989    1.83000004
   14.67333412  141.50599670    3.36999989    1.83000004
   14.67666721  145.12600708    3.36999989    1.83000004
   14.67916679  138.41600037    3.36999989    1.83000004
   14.68027782  107.81800079    3.36999989    1.83000004
   14.68361092  147.70300293    3.36999989    1.83000004
   14.68694496  140.67599487    3.36999989    1.83000004
   14.69000053  149.88699341    3.36999989    1.83000004
   14.69333363  121.29699707    3.36999989    1.83000004
   14.69638920  146.97999573    3.36999989    1.83000004
   14.69972229  152.74400330    3.36999989    1.83000004
   14.70305538  137.66499329    3.36999989    1.83000004
   14.70611095  139.32000732    3.36999989    1.83000004
   14.70972157  126.36000061    3.36999989    1.83000004
   14.71249962  149.58500671    3.36999989    1.83000004
   14.71305561  119.03299713    3.36999989    1.83000004
   14.71638870  112.48100281    3.36999989    1.83000004
   14.71972179  105.81900024    3.36999989    1.83000004
   14.72277737  122.23999786    3.36999989    1.83000004
   14.72611046  125.32499695    3.36999989    1.83000004
   14.72944355  130.46299744    3.36999989    1.83000004
   14.73249912  119.24099731    3.36999989    1.83000004
   14.73583317  139.49600220    3.36999989    1.83000004
   14.73916721  125.68299866    3.36999989    1.83000004
   14.74222279  135.54100037    3.36999989    1.83000004
   14.74555588  145.77999878    3.36999989    1.83000004
   14.74611092  139.97399902    3.36999989    1.83000004
   14.74972248  132.02000427    3.36999989    1.83000004
   14.75277805  132.79699707    3.36999989    1.83000004
   14.75611115  124.91999817    3.36999989    1.83000004
   14.75916672  127.46099854    3.36999989    1.83000004
   14.76249981  129.61199951    3.36999989    1.83000004
   14.76583290  129.03300476    3.36999989    1.83000004
   14.76888847  116.97000122    3.36999989    1.83000004
   14.77222157  118.59600067    3.36999989    1.83000004
   14.77555561  117.26399994    3.36999989    1.83000004
   14.77861118  107.20899963    3.36999989    1.83000004
   14.77944374  116.44400024    3.36999989    1.83000004
   14.78249931  109.20300293    3.36999989    1.83000004
   14.78555584  145.09800720    3.36999989    1.83000004
   14.78888893  119.85199738    3.36999989    1.83000004
   14.79194450   98.11830139    3.36999989    1.83000004
   14.79527855  117.88600159    3.36999989    1.83000004
   14.79861164  117.35099792    3.36999989    1.83000004
   14.80166721  112.62500000    3.36999989    1.83000004
   14.80500031  123.38600159    3.36999989    1.83000004
   14.80833340  133.18400574    3.36999989    1.83000004
   14.81138897  118.33100128    3.36999989    1.83000004
   14.81277752  122.93900299    3.36999989    1.83000004
   14.81500053  121.37000275    3.36999989    1.83000004
   14.81833363  106.76999664    3.36999989    1.83000004
   14.82166672  126.08000183    3.36999989    1.83000004
   14.82472229  123.41100311    3.36999989    1.83000004
   14.82805538   93.20800018    3.36999989    1.83000004
   14.83138847  103.76399994    3.36999989    1.83000004
   14.83444405   97.95800018    3.36999989    1.83000004
   14.83777714  123.82900238    3.36999989    1.83000004
   14.84083271  129.42500305    3.36999989    1.83000004
   14.84416676  115.95200348    3.36999989    1.83000004
   14.84611034  108.99299622    3.36999989    1.83000004
   14.84805489  124.03800201    3.36999989    1.83000004
   14.85111141   96.30039978    3.36999989    1.83000004
   14.85444450  119.46199799    3.36999989    1.83000004
   14.85750008   94.80709839    3.36999989    1.83000004
   14.86083412  106.98999786    3.36999989    1.83000004
   14.86416721  130.24600220    3.36999989    1.83000004
   14.86722279  137.18200684    3.36999989    1.83000004
   14.87055588  100.08300018    3.36999989    1.83000004
   14.87388897   97.08370209    3.36999989    1.83000004
   14.87694454  128.57800293    3.36999989    1.83000004
   14.87944412  130.55099487    3.36999989    1.83000004
   14.88055611  109.61100006    3.36999989    1.83000004
   14.88388920   99.59709930    3.36999989    1.83000004
   14.88722229  122.08100128    3.36999989    1.83000004
   14.89027786  116.27999878    3.36999989    1.83000004
   14.89361095  101.04599762    3.36999989    1.83000004
   14.89694405  116.69200134    3.36999989    1.83000004
   14.89999962  108.96499634    3.36999989    1.83000004
   14.90333271  121.06999969    3.36999989    1.83000004
   14.90638828  111.16999817    3.36999989    1.83000004
   14.90972137  103.08399963    3.36999989    1.83000004
   14.91277695  129.15199280    3.36999989    1.83000004
   14.91333294  107.00099945    3.36999989    1.83000004
   14.91666698  142.89900208    3.36999989    1.83000004
   14.92000008  132.98399353    3.36999989    1.83000004
   14.92305565  114.48799896    3.36999989    1.83000004
   14.92638874  107.99299622    3.36999989    1.83000004
   14.92972279  102.15499878    3.36999989    1.83000004
   14.93277836  100.84100342    3.36999989    1.83000004
   14.93611145  135.09199524    3.36999989    1.83000004
   14.93944454  132.88900757    3.36999989    1.83000004
   14.94250011  116.00199890    3.36999989    1.83000004
   14.94583321  120.75900269    3.36999989    1.83000004
   14.94638920  109.86799622    3.36999989    1.83000004
   14.94972229  114.16000366    3.36999989    1.83000004
   14.95277786  116.13200378    3.36999989    1.83000004
   14.95611095  115.99299622    3.36999989    1.83000004
   14.95916653  131.21400452    3.36999989    1.83000004
   14.96249962  124.26300049    3.36999989    1.83000004
   14.96583271  117.82700348    3.36999989    1.83000004
   14.96888828  113.98200226    3.36999989    1.83000004
   14.97222137  124.24299622    3.36999989    1.83000004
   14.97555542  125.38999939    3.36999989    1.83000004
   14.97861099  111.70300293    3.36999989    1.83000004
   14.97972202  122.55799866    3.36999989    1.83000004
   14.98249912  150.71499634    3.36999989    1.83000004
   14.98555565  118.87999725    3.36999989    1.83000004
   14.98888874  123.25299835    3.36999989    1.83000004
   14.99194431  121.44300079    3.36999989    1.83000004
   14.99527836  107.84999847    3.36999989    1.83000004
   14.99861145   92.49279785    3.36999989    1.83000004
   15.00166702   93.74440002    3.36999989    1.83000004
   15.00500011  101.57099915    3.36999989    1.83000004
   15.00833321  126.26100159    3.36999989    1.83000004
   15.01138878  106.42600250    3.36999989    1.83000004
   15.01305580  120.34100342    3.36999989    1.83000004
   15.01527786   99.00869751    3.36999989    1.83000004
   15.01833344   95.71179962    3.36999989    1.83000004
   15.02166653  110.33899689    3.36999989    1.83000004
   15.02499962  111.17199707    3.36999989    1.83000004
   15.02805519  105.10500336    3.36999989    1.83000004
   15.03138828   94.71769714    3.36999989    1.83000004
   15.03444481   95.67929840    3.36999989    1.83000004
   15.03777790   91.56900024    3.36999989    1.83000004
   15.04111195   96.51640320    3.36999989    1.83000004
   15.04416752  107.85800171    3.36999989    1.83000004
   15.04638958  103.18900299    3.36999989    1.83000004
   15.04805565  110.76399994    3.36999989    1.83000004
   15.05111122   97.96839905    3.36999989    1.83000004
   15.05444431   94.24089813    3.36999989    1.83000004
   15.05749989   94.78690338    3.36999989    1.83000004
   15.06083393   96.29689789    3.36999989    1.83000004
   15.06416702  105.63200378    3.36999989    1.83000004
   15.06722260   99.59069824    3.36999989    1.83000004
   15.07055569   99.31970215    3.36999989    1.83000004
   15.07388878   98.10710144    3.36999989    1.83000004
   15.07694435   97.81510162    3.36999989    1.83000004
   15.07972240   98.70839691    3.36999989    1.83000004
   15.08083344   95.96130371    3.36999989    1.83000004
   15.08388901  115.12000275    3.36999989    1.83000004
   15.08722210   96.89099884    3.36999989    1.83000004
   15.09055519  124.52300262    3.36999989    1.83000004
   15.09388828  115.18699646    3.36999989    1.83000004
   15.09694386   95.33020020    3.36999989    1.83000004
   15.10027790  110.12000275    3.36999989    1.83000004
   15.10361195   98.88120270    3.36999989    1.83000004
   15.10666752  100.69899750    3.36999989    1.83000004
   15.11000061  107.84300232    3.36999989    1.83000004
   15.11305618  105.15799713    3.36999989    1.83000004
   15.11361122  112.42800140    3.36999989    1.83000004
   15.11666679  102.96700287    3.36999989    1.83000004
   15.11999989  102.56600189    3.36999989    1.83000004
   15.12305546  100.82099915    3.36999989    1.83000004
   15.12638855  101.33200073    3.36999989    1.83000004
   15.12972260  105.32700348    3.36999989    1.83000004
   15.13277817  105.80200195    3.36999989    1.83000004
   15.13611126  114.69999695    3.36999989    1.83000004
   15.13944435  106.58100128    3.36999989    1.83000004
   15.14249992  118.68900299    3.36999989    1.83000004
   15.14583302   99.86370087    3.36999989    1.83000004
   15.14638901   94.84120178    3.36999989    1.83000004
   15.14944458  111.22799683    3.36999989    1.83000004
   15.15249920  104.98300171    3.36999989    1.83000004
   15.15583324  106.84799957    3.36999989    1.83000004
   15.15916634   96.88619995    3.36999989    1.83000004
   15.16222191  104.75299835    3.36999989    1.83000004
   15.16555500   98.58390045    3.36999989    1.83000004
   15.16861153   97.00340271    3.36999989    1.83000004
   15.17194462  103.23000336    3.36999989    1.83000004
   15.17527771  110.96700287    3.36999989    1.83000004
   15.17833328  100.44000244    3.36999989    1.83000004
   15.17972279  104.51399994    3.36999989    1.83000004
   15.18222237   96.23020172    3.36999989    1.83000004
   15.18527794   90.32949829    3.36999989    1.83000004
   15.18861103  103.98699951    3.36999989    1.83000004
   15.19194412   99.20279694    3.36999989    1.83000004
   15.19499969   97.90740204    3.36999989    1.83000004
   15.19833374   98.72740173    3.36999989    1.83000004
   15.20166683   93.87650299    3.36999989    1.83000004
   15.20472240  103.12999725    3.36999989    1.83000004
   15.20805550   98.17089844    3.36999989    1.83000004
   15.21111107   98.41870117    3.36999989    1.83000004
   15.21305561  100.85099792    3.36999989    1.83000004
   15.21500015   95.45790100    3.36999989    1.83000004
   15.21805477   97.27120209    3.36999989    1.83000004
   15.22138882   98.72059631    3.36999989    1.83000004
   15.22472191  102.13200378    3.36999989    1.83000004
   15.22777748   96.13970184    3.36999989    1.83000004
   15.23111057   99.89360046    3.36999989    1.83000004
   15.23444462  101.61399841    3.36999989    1.83000004
   15.23750019   98.65529633    3.36999989    1.83000004
   15.24083328  100.32599640    3.36999989    1.83000004
   15.24388885  100.58000183    3.36999989    1.83000004
   15.24638939  101.43599701    3.36999989    1.83000004
   15.24777794   99.68399811    3.36999989    1.83000004
   15.25083351  100.34300232    3.36999989    1.83000004
   15.25416660   97.83339691    3.36999989    1.83000004
   15.25749969  103.01799774    3.36999989    1.83000004
   15.26055527  101.55000305    3.36999989    1.83000004
   15.26388931   98.93260193    3.36999989    1.83000004
   15.26694393   97.32420349    3.36999989    1.83000004
   15.27027798  102.93900299    3.36999989    1.83000004
   15.27361107  108.23200226    3.36999989    1.83000004
   15.27666664  102.08200073    3.36999989    1.83000004
   15.29555607   99.44259644    3.36999989    1.83000004
   15.29638958   99.38330078    3.36999989    1.83000004
   15.29972267   96.36710358    3.36999989    1.83000004
   15.30305576  108.97899628    3.36999989    1.83000004
   15.30611134  125.24400330    3.36999989    1.83000004
   15.30944443  103.67600250    3.36999989    1.83000004
   15.31250000  110.38600159    3.36999989    1.83000004
   15.31583309  135.04100037    3.36999989    1.83000004
   15.31916618  122.51599884    3.36999989    1.83000004
   15.32222176   94.17089844    3.36999989    1.83000004
   15.32555580  112.32800293    3.36999989    1.83000004
   15.32861137  126.26699829    3.36999989    1.83000004
   15.32916641  125.30100250    3.36999989    1.83000004
   15.33249950   98.75640106    3.36999989    1.83000004
   15.33555508  117.92400360    3.36999989    1.83000004
   15.33888817  119.00399780    3.36999989    1.83000004
   15.34222221  135.26800537    3.36999989    1.83000004
   15.34527779  106.68000031    3.36999989    1.83000004
   15.34861088  129.05000305    3.36999989    1.83000004
   15.35194492  100.88800049    3.36999989    1.83000004
   15.35500050  100.00800323    3.36999989    1.83000004
   15.35833359   97.99569702    3.36999989    1.83000004
   15.36138916   97.50810242    3.36999989    1.83000004
   15.36222267   98.43160248    3.36999989    1.83000004
   15.36500072   99.86979675    3.36999989    1.83000004
   15.36833382   97.18289948    3.36999989    1.83000004
   15.37166691   97.05429840    3.36999989    1.83000004
   15.37472248   98.52660370    3.36999989    1.83000004
   15.37805557  100.37599945    3.36999989    1.83000004
   15.38111115  100.95800018    3.36999989    1.83000004
   15.38444424  103.94599915    3.36999989    1.83000004
   15.38777733  102.15299988    3.36999989    1.83000004
   15.39083290  100.75199890    3.36999989    1.83000004
   15.39416695   96.84909821    3.36999989    1.83000004
   15.39555550   96.57759857    3.36999989    1.83000004
   15.39777756   97.54419708    3.36999989    1.83000004
   15.40111065   96.44760132    3.36999989    1.83000004
   15.40444374   97.28399658    3.36999989    1.83000004
   15.40749931   96.83959961    3.36999989    1.83000004
   15.41083336   99.17980194    3.36999989    1.83000004
   15.41388893   98.59390259    3.36999989    1.83000004
   15.41722298   95.41570282    3.36999989    1.83000004
   15.42055607  103.05500031    3.36999989    1.83000004
   15.42361164  103.38800049    3.36999989    1.83000004
   15.42694473  100.81300354    3.36999989    1.83000004
   15.42888927  100.04000092    3.36999989    1.83000004
   15.43055630   99.64800262    3.36999989    1.83000004
   15.43388939   98.00740051    3.36999989    1.83000004
   15.43722248   99.52519989    3.36999989    1.83000004
   15.44027805  105.52700043    3.36999989    1.83000004
   15.44361115   99.74160004    3.36999989    1.83000004
   15.44694424   95.59839630    3.36999989    1.83000004
   15.44999981   94.20169830    3.36999989    1.83000004
   15.45333290   99.58239746    3.36999989    1.83000004
   15.45666695  100.37400055    3.36999989    1.83000004
   15.45972157  102.34400177    3.36999989    1.83000004
   15.46222210   98.03309631    3.36999989    1.83000004
   15.46333313   98.95410156    3.36999989    1.83000004
   15.46666622  101.72100067    3.36999989    1.83000004
   15.46999931   99.26589966    3.36999989    1.83000004
   15.47305489   97.71340179    3.36999989    1.83000004
   15.47638798  100.76999664    3.36999989    1.83000004
   15.47944355  100.55999756    3.36999989    1.83000004
   15.48277760  111.58300018    3.36999989    1.83000004
   15.48611164  106.08300018    3.36999989    1.83000004
   15.48916721  122.13400269    3.36999989    1.83000004
   15.49250031  122.79100037    3.36999989    1.83000004
   15.49555588  118.31999969    3.36999989    1.83000004
   15.49611092  110.48000336    3.36999989    1.83000004
   15.49944496  122.06400299    3.36999989    1.83000004
   15.50277805  114.55599976    3.36999989    1.83000004
   15.50583363  109.63800049    3.36999989    1.83000004
   15.50916672  115.68199921    3.36999989    1.83000004
   15.51222229   96.68650055    3.36999989    1.83000004
   15.51555538  106.57900238    3.36999989    1.83000004
   15.51888847  113.97599792    3.36999989    1.83000004
   15.52194405  110.77300262    3.36999989    1.83000004
   15.52527714  100.86499786    3.36999989    1.83000004
   15.52861118  105.51799774    3.36999989    1.83000004
   15.52916622  101.98000336    3.36999989    1.83000004
   15.53249931  104.19999695    3.36999989    1.83000004
   15.53555584  102.88300323    3.36999989    1.83000004
   15.53888893  112.40000153    3.36999989    1.83000004
   15.54222298  110.29799652    3.36999989    1.83000004
   15.54527855  109.70999908    3.36999989    1.83000004
   15.54861164  103.92199707    3.36999989    1.83000004
   15.55166721  103.93900299    3.36999989    1.83000004
   15.55500031  103.15899658    3.36999989    1.83000004
   15.55833340  106.64600372    3.36999989    1.83000004
   15.56138897  104.37599945    3.36999989    1.83000004
   15.56250000  106.69200134    3.36999989    1.83000004
   15.56500053  104.34100342    3.36999989    1.83000004
   15.56833363   99.10559845    3.36999989    1.83000004
   15.57166672   97.66419983    3.36999989    1.83000004
   15.57472229  110.89399719    3.36999989    1.83000004
   15.57805538  107.01799774    3.36999989    1.83000004
   15.58138847  103.45999908    3.36999989    1.83000004
   15.58444405  100.07599640    3.36999989    1.83000004
   15.58777714   95.60389709    3.36999989    1.83000004
   15.59083271   99.38649750    3.36999989    1.83000004
   15.59416676  103.91000366    3.36999989    1.83000004
   15.59583282  100.08999634    3.36999989    1.83000004
   15.59777737   92.92140198    3.36999989    1.83000004
   15.60111141  103.62999725    3.36999989    1.83000004
   15.60444450  115.00499725    3.36999989    1.83000004
   15.60750008   96.79989624    3.36999989    1.83000004
   15.61083412  100.14700317    3.36999989    1.83000004
   15.61416721   95.05239868    3.36999989    1.83000004
   15.61750031  106.65599823    3.36999989    1.83000004
   15.62055588   99.16230011    3.36999989    1.83000004
   15.62388897  109.63999939    3.36999989    1.83000004
   15.62694454   99.56230164    3.36999989    1.83000004
   15.62916660  104.96499634    3.36999989    1.83000004
   15.63055611   93.14420319    3.36999989    1.83000004
   15.63388920  108.59700012    3.36999989    1.83000004
   15.63722229  101.52200317    3.36999989    1.83000004
   15.64027786  107.05400085    3.36999989    1.83000004
   15.64361095  105.02999878    3.36999989    1.83000004
   15.64694405  103.21700287    3.36999989    1.83000004
   15.64999962  110.68499756    3.36999989    1.83000004
   15.65333271  109.92800140    3.36999989    1.83000004
   15.65638828  105.45800018    3.36999989    1.83000004
   15.65972137   98.14320374    3.36999989    1.83000004
   15.66249943  106.95400238    3.36999989    1.83000004
   15.66333294  108.69999695    3.36999989    1.83000004
   15.66666698  107.01499939    3.36999989    1.83000004
   15.67000008  103.19100189    3.36999989    1.83000004
   15.67305565  100.99700165    3.36999989    1.83000004
   15.67638874  102.27500153    3.36999989    1.83000004
   15.67972279  101.47000122    3.36999989    1.83000004
   15.68277836  101.91100311    3.36999989    1.83000004
   15.68611145  101.20800018    3.36999989    1.83000004
   15.68916702  100.77200317    3.36999989    1.83000004
   15.69250011   94.70469666    3.36999989    1.83000004
   15.69583321  102.96800232    3.36999989    1.83000004
   15.69611073   99.54840088    3.36999989    1.83000004
   15.69944477  101.96099854    3.36999989    1.83000004
   15.70277786   97.72650146    3.36999989    1.83000004
   15.70583344  101.87799835    3.36999989    1.83000004
   15.70916653  104.37100220    3.36999989    1.83000004
   15.71249962  103.04699707    3.36999989    1.83000004
   15.71555519   99.84729767    3.36999989    1.83000004
   15.71888828  106.57800293    3.36999989    1.83000004
   15.72222137   99.89279938    3.36999989    1.83000004
   15.72527695  103.33200073    3.36999989    1.83000004
   15.72861099  102.07299805    3.36999989    1.83000004
   15.72916603  107.63500214    3.36999989    1.83000004
   15.73194408  101.88500214    3.36999989    1.83000004
   15.73527813   97.09850311    3.36999989    1.83000004
   15.73861122  102.84899902    3.36999989    1.83000004
   15.74166679  107.23899841    3.36999989    1.83000004
   15.74499989  104.14299774    3.36999989    1.83000004
   15.74833393  104.93800354    3.36999989    1.83000004
   15.75138855  108.62599945    3.36999989    1.83000004
   15.75472260  104.34799957    3.36999989    1.83000004
   15.75805569  103.67600250    3.36999989    1.83000004
   15.76111126  109.19599915    3.36999989    1.83000004
   15.76249981  106.34300232    3.36999989    1.83000004
   15.76500034  105.22599792    3.36999989    1.83000004
   15.76833344  106.68900299    3.36999989    1.83000004
   15.77138901  102.63600159    3.36999989    1.83000004
   15.77472210  105.57499695    3.36999989    1.83000004
   15.77805519  101.59300232    3.36999989    1.83000004
   15.78111076  112.66300201    3.36999989    1.83000004
   15.78444481   99.58100128    3.36999989    1.83000004
   15.78750038  103.41699982    3.36999989    1.83000004
   15.79083347  105.41100311    3.36999989    1.83000004
   15.79416752  102.47100067    3.36999989    1.83000004
   15.79583359  105.26300049    3.36999989    1.83000004
   15.79750061  104.14600372    3.36999989    1.83000004
   15.80083370  100.27500153    3.36999989    1.83000004
   15.80416679  107.49400330    3.36999989    1.83000004
   15.80722237  102.68000031    3.36999989    1.83000004
   15.81055546   96.51830292    3.36999989    1.83000004
   15.81388950  107.95099640    3.36999989    1.83000004
   15.81694412  102.37000275    3.36999989    1.83000004
   15.82027817  102.79799652    3.36999989    1.83000004
   15.82333374   99.45400238    3.36999989    1.83000004
   15.82666683  108.89600372    3.36999989    1.83000004
   15.82916641   94.94609833    3.36999989    1.83000004
   15.83027744   96.94370270    3.36999989    1.83000004
   15.83361053  105.16400146    3.36999989    1.83000004
   15.83694458  101.48999786    3.36999989    1.83000004
   15.84000015  103.27899933    3.36999989    1.83000004
   15.84333324  105.08399963    3.36999989    1.83000004
   15.84666634  103.88700104    3.36999989    1.83000004
   15.84972191  100.91999817    3.36999989    1.83000004
   15.85305595  102.69699860    3.36999989    1.83000004
   15.85611153  105.54299927    3.36999989    1.83000004
   15.85944462  106.28299713    3.36999989    1.83000004
   15.86250019  110.50399780    3.36999989    1.83000004
   15.86305618  109.52400208    3.36999989    1.83000004
   15.86638927  109.17500305    3.36999989    1.83000004
   15.86972237  104.16400146    3.36999989    1.83000004
   15.87305546   93.83889771    3.36999989    1.83000004
   15.87638855  103.94699860    3.36999989    1.83000004
   15.87944412  104.88500214    3.36999989    1.83000004
   15.88277817  106.47799683    3.36999989    1.83000004
   15.88583279  104.63899994    3.36999989    1.83000004
   15.88916683  104.32700348    3.36999989    1.83000004
   15.89249992  103.29799652    3.36999989    1.83000004
   15.89555550   93.44480133    3.36999989    1.83000004
   15.89611053   96.12560272    3.36999989    1.83000004
   15.89944458  107.86799622    3.36999989    1.83000004
   15.90277767  105.96399689    3.36999989    1.83000004
   15.90583324  104.42099762    3.36999989    1.83000004
   15.90916634  105.58499908    3.36999989    1.83000004
   15.91249943  107.37599945    3.36999989    1.83000004
   15.91555500   99.18830109    3.36999989    1.83000004
   15.91888905  108.16000366    3.36999989    1.83000004
   15.92194462   99.81659698    3.36999989    1.83000004
   15.92527771  101.77600098    3.36999989    1.83000004
   15.92861176  101.13300323    3.36999989    1.83000004
   15.92944431   98.84960175    3.36999989    1.83000004
   15.93222237  103.54799652    3.36999989    1.83000004
   15.93555546   96.14240265    3.36999989    1.83000004
   15.93861103  102.81400299    3.36999989    1.83000004
   15.94194412  114.10600281    3.36999989    1.83000004
   15.94527817  105.81600189    3.36999989    1.83000004
   15.94833374  106.86599731    3.36999989    1.83000004
   15.95166683  101.08300018    3.36999989    1.83000004
   15.95472240  102.64299774    3.36999989    1.83000004
   15.95805550  103.26000214    3.36999989    1.83000004
   15.96138859  107.56400299    3.36999989    1.83000004
   15.96277714  101.92900085    3.36999989    1.83000004
   15.96500015   98.77539825    3.36999989    1.83000004
   15.96833324   99.45719910    3.36999989    1.83000004
   15.97138882  106.98799896    3.36999989    1.83000004
   15.97472191  104.25199890    3.36999989    1.83000004
   15.97805500  108.60399628    3.36999989    1.83000004
   15.98111057  103.30200195    3.36999989    1.83000004
   15.98444462  103.02100372    3.36999989    1.83000004
   15.98750019   99.18830109    3.36999989    1.83000004
   15.99083328  100.15799713    3.36999989    1.83000004
   15.99416733  108.06900024    3.36999989    1.83000004
   15.99611092   98.60820007    3.36999989    1.83000004
   15.99777794  108.42400360    3.36999989    1.83000004
   16.00138855  102.87699890    3.36999989    1.83000004
   16.00444412  104.36000061    3.36999989    1.83000004
   16.00777817  106.96099854    3.36999989    1.83000004
   16.01111031  103.73100281    3.36999989    1.83000004
   16.01416588  101.44400024    3.36999989    1.83000004
   16.01749992  105.24400330    3.36999989    1.83000004
   16.02083397  103.05899811    3.36999989    1.83000004
   16.02388954  102.97000122    3.36999989    1.83000004
   16.02722168   99.11669922    3.36999989    1.83000004
   16.02944374  100.43000031    3.36999989    1.83000004
   16.03083229  103.75700378    3.36999989    1.83000004
   16.03416634  101.44699860    3.36999989    1.83000004
   16.03722191   98.58599854    3.36999989    1.83000004
   16.04055595  106.11499786    3.36999989    1.83000004
   16.04361153  101.82399750    3.36999989    1.83000004
   16.04694366   99.85820007    3.36999989    1.83000004
   16.05027771  103.69699860    3.36999989    1.83000004
   16.05333328  100.02400208    3.36999989    1.83000004
   16.05666542  105.94599915    3.36999989    1.83000004
   16.05999947  103.18399811    3.36999989    1.83000004
   16.06277657  107.09500122    3.36999989    1.83000004
   16.06361008  112.66999817    3.36999989    1.83000004
   16.06694603  109.89800262    3.36999989    1.83000004
   16.07000160  100.58499908    3.36999989    1.83000004
   16.07333374  116.29900360    3.36999989    1.83000004
   16.07638931  108.05200195    3.36999989    1.83000004
   16.07972336  109.58599854    3.36999989    1.83000004
   16.08305550  107.09300232    3.36999989    1.83000004
   16.08611107  109.18199921    3.36999989    1.83000004
   16.08944511  105.88999939    3.36999989    1.83000004
   16.09277916  104.97499847    3.36999989    1.83000004
   16.09583473  102.43399811    3.36999989    1.83000004
   16.09638977  103.55000305    3.36999989    1.83000004
   16.09972191  111.71399689    3.36999989    1.83000004
   16.10277748  104.62400055    3.36999989    1.83000004
   16.10611153  100.28500366    3.36999989    1.83000004
   16.10944557  106.49700165    3.36999989    1.83000004
   16.11250114  105.34999847    3.36999989    1.83000004
   16.11583328  106.68399811    3.36999989    1.83000004
   16.11916733  109.40699768    3.36999989    1.83000004
   16.12222290  100.56300354    3.36999989    1.83000004
   16.12555504  101.14900208    3.36999989    1.83000004
   16.12888908  106.84899902    3.36999989    1.83000004
   16.12972260  102.68299866    3.36999989    1.83000004
   16.13249969  104.84999847    3.36999989    1.83000004
   16.13555527  112.68199921    3.36999989    1.83000004
   16.13888931  106.24600220    3.36999989    1.83000004
   16.14222145  102.63200378    3.36999989    1.83000004
   16.14527702  106.07099915    3.36999989    1.83000004
   16.14861107  105.74600220    3.36999989    1.83000004
   16.15194321  105.73500061    3.36999989    1.83000004
   16.15499878  104.87699890    3.36999989    1.83000004
   16.15833282   99.28710175    3.36999989    1.83000004
   16.16138840  110.50099945    3.36999989    1.83000004
   16.16333389  101.20999908    3.36999989    1.83000004
   16.16555595  105.35399628    3.36999989    1.83000004
   16.16860962   96.06099701    3.36999989    1.83000004
   16.17194366  104.31199646    3.36999989    1.83000004
   16.17499924  107.23000336    3.36999989    1.83000004
   16.17833328  101.70899963    3.36999989    1.83000004
   16.18166542  107.87999725    3.36999989    1.83000004
   16.18472099  106.65200043    3.36999989    1.83000004
   16.18805504  105.58999634    3.36999989    1.83000004
   16.19138718  100.92900085    3.36999989    1.83000004
   16.19444275  108.99700165    3.36999989    1.83000004
   16.19638824  103.87799835    3.36999989    1.83000004
   16.19805527  106.12999725    3.36999989    1.83000004
   16.20111275  105.47100067    3.36999989    1.83000004
   16.20444489  109.98200226    3.36999989    1.83000004
   16.20777893  106.47000122    3.36999989    1.83000004
   16.21083450  103.79000092    3.36999989    1.83000004
   16.21416664  102.57700348    3.36999989    1.83000004
   16.21750069  103.36799622    3.36999989    1.83000004
   16.22055626  104.84899902    3.36999989    1.83000004
   16.22389030  106.79799652    3.36999989    1.83000004
   16.22722244   90.81539917    3.36999989    1.83000004
   16.22972298  114.30599976    3.36999989    1.83000004
   16.23083305  107.98600006    3.36999989    1.83000004
   16.23416710  105.49600220    3.36999989    1.83000004
   16.23722267  108.76499939    3.36999989    1.83000004
   16.24055672  105.06999969    3.36999989    1.83000004
   16.24361229   98.37190247    3.36999989    1.83000004
   16.24694443  104.36599731    3.36999989    1.83000004
   16.25027847  112.81600189    3.36999989    1.83000004
   16.25333405  110.00800323    3.36999989    1.83000004
   16.25666618   99.90010071    3.36999989    1.83000004
   16.26000023  107.52799988    3.36999989    1.83000004
   16.26305580  102.46700287    3.36999989    1.83000004
   16.26361084  106.43800354    3.36999989    1.83000004
   16.26694489  102.06900024    3.36999989    1.83000004
   16.27000046   99.97029877    3.36999989    1.83000004
   16.27333260  110.18499756    3.36999989    1.83000004
   16.27638817  100.29499817    3.36999989    1.83000004
   16.27972221  106.52300262    3.36999989    1.83000004
   16.28305435  104.61799622    3.36999989    1.83000004
   16.28610992   97.11209869    3.36999989    1.83000004
   16.28944397  102.87699890    3.36999989    1.83000004
   16.29277802  100.54799652    3.36999989    1.83000004
   16.31194305  100.38500214    3.36999989    1.83000004
   16.31250000  101.49500275    3.36999989    1.83000004
   16.31583214  100.96399689    3.36999989    1.83000004
   16.31888962  106.29499817    3.36999989    1.83000004
   16.32222366  104.53199768    3.36999989    1.83000004
   16.32555580  102.91899872    3.36999989    1.83000004
   16.32861137  104.15599823    3.36999989    1.83000004
   16.33194542  102.24400330    3.36999989    1.83000004
   16.33500099  102.04499817    3.36999989    1.83000004
   16.33833313   97.11979675    3.36999989    1.83000004
   16.34166718  102.40200043    3.36999989    1.83000004
   16.34472275  103.44300079    3.36999989    1.83000004
   16.34527779   98.94529724    3.36999989    1.83000004
   16.34833336  102.97699738    3.36999989    1.83000004
   16.35166740  101.33399963    3.36999989    1.83000004
   16.35472298  104.12000275    3.36999989    1.83000004
   16.35805511  103.27100372    3.36999989    1.83000004
   16.36111069  103.83100128    3.36999989    1.83000004
   16.36444473  110.04499817    3.36999989    1.83000004
   16.36777878   95.28359985    3.36999989    1.83000004
   16.37083435  105.15699768    3.36999989    1.83000004
   16.37416649  106.52300262    3.36999989    1.83000004
   16.37750053  101.00099945    3.36999989    1.83000004
   16.37888908  108.99600220    3.36999989    1.83000004
   16.38111115  106.15499878    3.36999989    1.83000004
   16.38444519  102.73699951    3.36999989    1.83000004
   16.38750076  110.47299957    3.36999989    1.83000004
   16.39083290  104.49400330    3.36999989    1.83000004
   16.39416695  104.58399963    3.36999989    1.83000004
   16.39722252  110.37599945    3.36999989    1.83000004
   16.40055466  107.61000061    3.36999989    1.83000004
   16.40388870  104.12899780    3.36999989    1.83000004
   16.40694427  109.49500275    3.36999989    1.83000004
   16.41027832  103.10099792    3.36999989    1.83000004
   16.41222191  108.07399750    3.36999989    1.83000004
   16.41388893  104.61199951    3.36999989    1.83000004
   16.41722107  101.95099640    3.36999989    1.83000004
   16.42055511   98.23079681    3.36999989    1.83000004
   16.42361069  110.38300323    3.36999989    1.83000004
   16.42694473  109.41500092    3.36999989    1.83000004
   16.43000031  111.65100098    3.36999989    1.83000004
   16.43333244  107.11199951    3.36999989    1.83000004
   16.43666649  109.09200287    3.36999989    1.83000004
   16.43972206  108.81600189    3.36999989    1.83000004
   16.44305420  138.82899475    3.36999989    1.83000004
   16.44527626  134.79499817    3.36999989    1.83000004
   16.44666672  152.07499695    3.36999989    1.83000004
   16.45000076  208.97099304    3.36999989    1.83000004
   16.45333481  168.39799500    3.36999989    1.83000004
   16.45639038  153.58099365    3.36999989    1.83000004
   16.45972252  184.14799500    3.36999989    1.83000004
   16.46277809  112.73100281    3.36999989    1.83000004
   16.46611214  168.75599670    3.36999989    1.83000004
   16.46944427  276.41900635    3.36999989    1.83000004
   16.47249985  298.95999146    3.36999989    1.83000004
   16.47583389  230.23199463    3.36999989    1.83000004
   16.47888947  181.32800293    3.36999989    1.83000004
   16.47944450  237.29699707    3.36999989    1.83000004
   16.48277855  243.67399597    3.36999989    1.83000004
   16.48583412  231.53100586    3.36999989    1.83000004
   16.48944473  251.42399597    3.36999989    1.83000004
   16.49250031  200.69500732    3.36999989    1.83000004
   16.49583435  290.42800903    3.36999989    1.83000004
   16.49916649  237.17599487    3.36999989    1.83000004
   16.50222206  173.12100220    3.36999989    1.83000004
   16.50555611  228.67100525    3.36999989    1.83000004
   16.50861168  214.57099915    3.36999989    1.83000004
   16.51194382  348.28201294    3.36999989    1.83000004
   16.51250076  329.93798828    3.36999989    1.83000004
   16.51583290  399.82000732    3.36999989    1.83000004
   16.51888847  438.09100342    3.36999989    1.83000004
   16.52111053  430.20800781    3.36999989    1.83000004
   16.52222252  451.97500610    3.36999989    1.83000004
   16.52361107  394.08499146    3.36999989    1.83000004
   16.52499962  425.80999756    3.36999989    1.83000004
   16.52638817  417.81201172    3.36999989    1.83000004
   16.52777672  330.98498535    3.36999989    1.83000004
   16.52805519  228.67100525    3.36999989    1.83000004
   16.52805519  214.57099915    3.36999989    1.83000004
   16.52805519  348.28201294    3.36999989    1.83000004
   16.52833366  399.82000732    3.36999989    1.83000004
   16.52833366  438.09100342    3.36999989    1.83000004
   16.52861023  200.69500732    3.36999989    1.83000004
   16.52861023  290.42800903    3.36999989    1.83000004
   16.52861023  237.17599487    3.36999989    1.83000004
   16.52888870  173.12100220    3.36999989    1.83000004
   16.52944374  414.65100098    3.36999989    1.83000004
   16.53138924  402.62200928    3.36999989    1.83000004
   16.53277779  396.82699585    3.36999989    1.83000004
   16.53416634  355.78900146    3.36999989    1.83000004
   16.53555489  414.72601318    3.36999989    1.83000004
   16.53694344  394.84899902    3.36999989    1.83000004
   16.53833199  385.79199219    3.36999989    1.83000004
   16.53972244  399.01400757    3.36999989    1.83000004
   16.54111099  373.33300781    3.36999989    1.83000004
   16.54249954  367.40701294    3.36999989    1.83000004
   16.54388809  356.36099243    3.36999989    1.83000004
   16.54527664  370.55200195    3.36999989    1.83000004
   16.54666710  323.87500000    3.36999989    1.83000004
   16.54666710  414.65100098    3.36999989    1.83000004
   16.54722214  329.87799072    3.36999989    1.83000004
   16.55055428  342.32901001    3.36999989    1.83000004
   16.55388832  296.11499023    3.36999989    1.83000004
   16.55694389  313.95800781    3.36999989    1.83000004
   16.56027794  318.01901245    3.36999989    1.83000004
   16.56333351  321.27398682    3.36999989    1.83000004
   16.56750107  321.27398682    3.36999989    1.83000004
   16.57166672  272.44500732    3.36999989    1.83000004
   16.57500076  263.98599243    3.36999989    1.83000004
   16.57805634  258.91799927    3.36999989    1.83000004
   16.58055687  263.57699585    3.36999989    1.83000004
   16.58166695  248.97399902    3.36999989    1.83000004
   16.58500099  217.31900024    3.36999989    1.83000004
   16.58833313  220.50399780    3.36999989    1.83000004
   16.59138870  228.84800720    3.36999989    1.83000004
   16.59472275  204.11399841    3.36999989    1.83000004
   16.59805679  191.58200073    3.36999989    1.83000004
   16.60111237  202.48899841    3.36999989    1.83000004
   16.60444450  164.08500671    3.36999989    1.83000004
   16.61055565  164.08500671    3.36999989    1.83000004
   16.61444473  160.61500549    3.36999989    1.83000004
   16.61777878  162.99600220    3.36999989    1.83000004
   16.62111092  162.43200684    3.36999989    1.83000004
   16.62416649  159.16600037    3.36999989    1.83000004
   16.62750053  168.89599609    3.36999989    1.83000004
   16.63083267  155.95500183    3.36999989    1.83000004
   16.63388824  126.25399780    3.36999989    1.83000004
   16.63722229  145.61500549    3.36999989    1.83000004
   16.64055634  157.12199402    3.36999989    1.83000004
   16.64361191  146.61900330    3.36999989    1.83000004
   16.64694405  123.25000000    3.36999989    1.83000004
   16.64749908  132.82800293    3.36999989    1.83000004
   16.65333366  132.82800293    3.36999989    1.83000004
   16.65749931  112.61000061    3.36999989    1.83000004
   16.66055489  161.02000427    3.36999989    1.83000004
   16.66388893   99.81500244    3.36999989    1.83000004
   16.66722107  131.97399902    3.36999989    1.83000004
   16.67027664  101.54299927    3.36999989    1.83000004
   16.67361069  138.27499390    3.36999989    1.83000004
   16.67694473  103.80500031    3.36999989    1.83000004
   16.68000031  124.12500000    3.36999989    1.83000004
   16.68083191  119.43499756    3.36999989    1.83000004
   16.68361092  108.07499695    3.36999989    1.83000004
   16.68694305  122.99700165    3.36999989    1.83000004
   16.69027710  103.93399811    3.36999989    1.83000004
   16.69610977  103.93399811    3.36999989    1.83000004
   16.70027924  103.42199707    3.36999989    1.83000004
   16.70361137  108.87300110    3.36999989    1.83000004
   16.70666695  107.85600281    3.36999989    1.83000004
   16.71000099  104.42099762    3.36999989    1.83000004
   16.71305656  107.83499908    3.36999989    1.83000004
   16.71416664  106.08599854    3.36999989    1.83000004
   16.71694565  113.40499878    3.36999989    1.83000004
   16.72000122  110.79699707    3.36999989    1.83000004
   16.72333336  105.36199951    3.36999989    1.83000004
   16.72666740  108.92600250    3.36999989    1.83000004
   16.72972298  107.72299957    3.36999989    1.83000004
   16.73305511  106.48600006    3.36999989    1.83000004
   16.73888969  106.48600006    3.36999989    1.83000004
   16.74305534  106.02899933    3.36999989    1.83000004
   16.74638939  130.53199768    3.36999989    1.83000004
   16.74749947  104.22000122    3.36999989    1.83000004
   16.75000000  105.87899780    3.36999989    1.83000004
   16.75333405  104.02600098    3.36999989    1.83000004
   16.75666618  102.18199921    3.36999989    1.83000004
   16.75972176  105.13200378    3.36999989    1.83000004
   16.76305580  101.21299744    3.36999989    1.83000004
   16.76638794  104.09500122    3.36999989    1.83000004
   16.76944351  102.66300201    3.36999989    1.83000004
   16.77277756  105.17900085    3.36999989    1.83000004
   16.77583313  101.38899994    3.36999989    1.83000004
   16.78194427  101.38899994    3.36999989    1.83000004
   16.78583336  104.02999878    3.36999989    1.83000004
   16.78916550  102.18800354    3.36999989    1.83000004
   16.79249954  104.49600220    3.36999989    1.83000004
   16.79555511   99.21649933    3.36999989    1.83000004
   16.79888916  102.86399841    3.36999989    1.83000004
   16.80222130  107.32700348    3.36999989    1.83000004
   16.80527687  107.12200165    3.36999989    1.83000004
   16.80861092  102.40200043    3.36999989    1.83000004
   16.81166649  111.00399780    3.36999989    1.83000004
   16.81416512  104.09200287    3.36999989    1.83000004
   16.81527710  104.07700348    3.36999989    1.83000004
   16.81861115  102.79499817    3.36999989    1.83000004
   16.82472229  102.79499817    3.36999989    1.83000004
   16.82888985  101.62000275    3.36999989    1.83000004
   16.83222389  104.00599670    3.36999989    1.83000004
   16.83555603  100.30400085    3.36999989    1.83000004
   16.83861160   99.64759827    3.36999989    1.83000004
   16.84194565   99.79029846    3.36999989    1.83000004
   16.84500122  105.81099701    3.36999989    1.83000004
   16.84749985  106.62699890    3.36999989    1.83000004
   16.84889030  101.10299683    3.36999989    1.83000004
   16.85222244  105.84100342    3.36999989    1.83000004
   16.85527802  106.12699890    3.36999989    1.83000004
   16.85861206  105.69899750    3.36999989    1.83000004
   16.86166763  108.15899658    3.36999989    1.83000004
   16.86777878  108.15899658    3.36999989    1.83000004
   16.87166595  104.38500214    3.36999989    1.83000004
   16.87500000  104.89800262    3.36999989    1.83000004
   16.87833405   98.58519745    3.36999989    1.83000004
   16.88083267  102.50199890    3.36999989    1.83000004
   16.88166618  101.62599945    3.36999989    1.83000004
   16.88500023  101.42099762    3.36999989    1.83000004
   16.88833237  106.14099884    3.36999989    1.83000004
   16.89166641  105.09500122    3.36999989    1.83000004
   16.89500046  106.60399628    3.36999989    1.83000004
   16.89805603  103.65599823    3.36999989    1.83000004
   16.90138817  103.53700256    3.36999989    1.83000004
   16.90444374  104.15499878    3.36999989    1.83000004
   16.91027832  104.15499878    3.36999989    1.83000004
   16.91444397  109.66699982    3.36999989    1.83000004
   16.91777802  108.96700287    3.36999989    1.83000004
   16.92083359  103.50499725    3.36999989    1.83000004
   16.92416573  111.15599823    3.36999989    1.83000004
   16.92749977  107.31099701    3.36999989    1.83000004
   16.93055534  105.29599762    3.36999989    1.83000004
   16.93388748  107.56700134    3.36999989    1.83000004
   16.93722153  103.21800232    3.36999989    1.83000004
   16.94027710  106.81400299    3.36999989    1.83000004
   16.94361115  107.65799713    3.36999989    1.83000004
   16.94666672  102.48699951    3.36999989    1.83000004
   16.94749832  105.60800171    3.36999989    1.83000004
   16.95305634  105.60800171    3.36999989    1.83000004
   16.95722389   99.46060181    3.36999989    1.83000004
   16.96055603  108.08699799    3.36999989    1.83000004
   16.96389008  108.27500153    3.36999989    1.83000004
   16.96694565  107.31900024    3.36999989    1.83000004
   16.97027779  103.35600281    3.36999989    1.83000004
   16.97333336  101.51200104    3.36999989    1.83000004
   16.97666740  100.66300201    3.36999989    1.83000004
   16.98000145  108.70500183    3.36999989    1.83000004
   16.98083305  104.48799896    3.36999989    1.83000004
   16.98361206  106.29499817    3.36999989    1.83000004
   16.98666763  114.70500183    3.36999989    1.83000004
   16.98999977   96.96679688    3.36999989    1.83000004
   16.99611092   96.96679688    3.36999989    1.83000004
   17.00027847  108.37100220    3.36999989    1.83000004
   17.00333405  110.95999908    3.36999989    1.83000004
   17.00666618  108.50199890    3.36999989    1.83000004
   17.00972176  102.96099854    3.36999989    1.83000004
   17.01305580  106.00499725    3.36999989    1.83000004
   17.01416588  104.72899628    3.36999989    1.83000004
   17.01666641  108.38600159    3.36999989    1.83000004
   17.02000046  109.16200256    3.36999989    1.83000004
   17.02333260  108.71399689    3.36999989    1.83000004
   17.02638817  108.94999695    3.36999989    1.83000004
   17.02972221  111.53399658    3.36999989    1.83000004
   17.03305435  111.26999664    3.36999989    1.83000004
   17.03888893  111.26999664    3.36999989    1.83000004
   17.04305458  111.57099915    3.36999989    1.83000004
   17.04638863  105.73300171    3.36999989    1.83000004
   17.04749870  107.38099670    3.36999989    1.83000004
   17.04999924  105.77999878    3.36999989    1.83000004
   17.05305481  106.13400269    3.36999989    1.83000004
   17.05638885  107.28700256    3.36999989    1.83000004
   17.05944443  104.25299835    3.36999989    1.83000004
   17.06277657  104.37799835    3.36999989    1.83000004
   17.06611061  105.07900238    3.36999989    1.83000004
   17.06916809  124.69699860    3.36999989    1.83000004
   17.07250023  106.47499847    3.36999989    1.83000004
   17.07555580  107.54499817    3.36999989    1.83000004
   17.08166695  107.54499817    3.36999989    1.83000004
   17.08583450  116.44499969    3.36999989    1.83000004
   17.08916664   97.68470001    3.36999989    1.83000004
   17.09222221   95.84400177    3.36999989    1.83000004
   17.09555626  116.18699646    3.36999989    1.83000004
   17.09889030  110.51599884    3.36999989    1.83000004
   17.10194397  108.86699677    3.36999989    1.83000004
   17.10527802  103.66999817    3.36999989    1.83000004
   17.10861206  107.08699799    3.36999989    1.83000004
   17.11166763  119.86299896    3.36999989    1.83000004
   17.11416626  120.58799744    3.36999989    1.83000004
   17.11555672  122.14700317    3.36999989    1.83000004
   17.11861038  105.22100067    3.36999989    1.83000004
   17.12444496  105.22100067    3.36999989    1.83000004
   17.12861061  109.06500244    3.36999989    1.83000004
   17.13194466  102.02999878    3.36999989    1.83000004
   17.13527679  115.16300201    3.36999989    1.83000004
   17.13833237  109.41600037    3.36999989    1.83000004
   17.14166641  104.10299683    3.36999989    1.83000004
   17.14500046  106.13899994    3.36999989    1.83000004
   17.14749908  115.33699799    3.36999989    1.83000004
   17.14861107  108.16300201    3.36999989    1.83000004
   17.15166664  100.48999786    3.36999989    1.83000004
   17.15499878  110.94999695    3.36999989    1.83000004
   17.15805435  111.09100342    3.36999989    1.83000004
   17.16138840  109.90399933    3.36999989    1.83000004
   17.16749954  109.90399933    3.36999989    1.83000004
   17.17166519  103.80300140    3.36999989    1.83000004
   17.17472076  106.73400116    3.36999989    1.83000004
   17.17805481  115.18199921    3.36999989    1.83000004
   17.18083191  110.35399628    3.36999989    1.83000004
   17.18166542  110.38300323    3.36999989    1.83000004
   17.18472099  109.82199860    3.36999989    1.83000004
   17.18805504  111.81800079    3.36999989    1.83000004
   17.19111061  103.35399628    3.36999989    1.83000004
   17.19444275  112.65499878    3.36999989    1.83000004
   17.19777679  113.80100250    3.36999989    1.83000004
   17.20083427  106.12100220    3.36999989    1.83000004
   17.20416832  101.94200134    3.36999989    1.83000004
   17.21027946  101.94200134    3.36999989    1.83000004
   17.21444511  106.35399628    3.36999989    1.83000004
   17.21777916  107.80400085    3.36999989    1.83000004
   17.22083473  105.55100250    3.36999989    1.83000004
   17.22416687  104.06500244    3.36999989    1.83000004
   17.22750092  114.01799774    3.36999989    1.83000004
   17.23055649  115.57599640    3.36999989    1.83000004
   17.23388863  111.16999817    3.36999989    1.83000004
   17.23694420  116.19899750    3.36999989    1.83000004
   17.24027824  118.88300323    3.36999989    1.83000004
   17.24361229  133.58299255    3.36999989    1.83000004
   17.24666786  142.07200623    3.36999989    1.83000004
   17.24749947  133.32899475    3.36999989    1.83000004
   17.25305557  133.32899475    3.36999989    1.83000004
   17.25722313  125.91600037    3.36999989    1.83000004
   17.26055527  145.38000488    3.36999989    1.83000004
   17.26361084  132.15899658    3.36999989    1.83000004
   17.26694489  132.01100159    3.36999989    1.83000004
   17.27027702  128.17199707    3.36999989    1.83000004
   17.27333260  120.90499878    3.36999989    1.83000004
   17.27666664  134.17599487    3.36999989    1.83000004
   17.27972221  127.68199921    3.36999989    1.83000004
   17.28083229  123.86100006    3.36999989    1.83000004
   17.28361130  125.85600281    3.36999989    1.83000004
   17.28666687  130.89199829    3.36999989    1.83000004
   17.28999901  133.30900574    3.36999989    1.83000004
   17.29583359  133.30900574    3.36999989    1.83000004
   17.29999924  123.94999695    3.36999989    1.83000004
   17.30333328  116.28399658    3.36999989    1.83000004
   17.30638885  116.93099976    3.36999989    1.83000004
   17.30972099  134.31599426    3.36999989    1.83000004
   17.32916832  104.98600006    3.36999989    1.83000004
   17.32972336  114.73799896    3.36999989    1.83000004
   17.33277893  122.62000275    3.36999989    1.83000004
   17.33889008  122.62000275    3.36999989    1.83000004
   17.34277916  107.08300018    3.36999989    1.83000004
   17.34611130  111.43499756    3.36999989    1.83000004
   17.34944534  105.86399841    3.36999989    1.83000004
   17.35250092  121.63899994    3.36999989    1.83000004
   17.35583305  112.49800110    3.36999989    1.83000004
   17.35916710  118.52799988    3.36999989    1.83000004
   17.36222267  103.77700043    3.36999989    1.83000004
   17.36277771   95.55100250    3.36999989    1.83000004
   17.36611176  114.94799805    3.36999989    1.83000004
   17.36944389  115.05899811    3.36999989    1.83000004
   17.37249947  125.40000153    3.36999989    1.83000004
   17.37583351  102.56099701    3.36999989    1.83000004
   17.38194466  102.56099701    3.36999989    1.83000004
   17.38583374  102.82800293    3.36999989    1.83000004
   17.38916588  109.60800171    3.36999989    1.83000004
   17.39249992  103.94300079    3.36999989    1.83000004
   17.39555550  106.57700348    3.36999989    1.83000004
   17.39611053  102.72899628    3.36999989    1.83000004
   17.39916611  108.10600281    3.36999989    1.83000004
   17.40250015  107.29100037    3.36999989    1.83000004
   17.40555573  102.80000305    3.36999989    1.83000004
   17.40888786  107.51799774    3.36999989    1.83000004
   17.41222191  105.37799835    3.36999989    1.83000004
   17.41527748  106.59700012    3.36999989    1.83000004
   17.41860962  111.36599731    3.36999989    1.83000004
   17.42444420  111.36599731    3.36999989    1.83000004
   17.42860985  110.74400330    3.36999989    1.83000004
   17.42944336  104.32399750    3.36999989    1.83000004
   17.43222237  110.25000000    3.36999989    1.83000004
   17.43555450  110.90799713    3.36999989    1.83000004
   17.43861008  120.17400360    3.36999989    1.83000004
   17.44194412  118.73999786    3.36999989    1.83000004
   17.44527626  108.20700073    3.36999989    1.83000004
   17.44833183  108.46800232    3.36999989    1.83000004
   17.45166779  110.81600189    3.36999989    1.83000004
   17.45472336  101.28900146    3.36999989    1.83000004
   17.45805550  101.64800262    3.36999989    1.83000004
   17.46138954  104.26499939    3.36999989    1.83000004
   17.46277809  107.17900085    3.36999989    1.83000004
   17.46722221  107.17900085    3.36999989    1.83000004
   17.47138977  105.76499939    3.36999989    1.83000004
   17.47472191  105.45800018    3.36999989    1.83000004
   17.47777748  111.02100372    3.36999989    1.83000004
   17.48111153  108.90699768    3.36999989    1.83000004
   17.48444557  103.64399719    3.36999989    1.83000004
   17.48777771  103.75099945    3.36999989    1.83000004
   17.49083328  106.40399933    3.36999989    1.83000004
   17.49416733  104.02600098    3.36999989    1.83000004
   17.49611092   98.94370270    3.36999989    1.83000004
   17.49777794  104.51599884    3.36999989    1.83000004
   17.50111198  110.43599701    3.36999989    1.83000004
   17.50416756  108.05400085    3.36999989    1.83000004
   17.51027870  108.05400085    3.36999989    1.83000004
   17.51416588  104.54499817    3.36999989    1.83000004
   17.51749992  107.02400208    3.36999989    1.83000004
   17.52083397  110.74299622    3.36999989    1.83000004
   17.52388954  117.18199921    3.36999989    1.83000004
   17.52722168  103.64399719    3.36999989    1.83000004
   17.52944374  136.74699402    3.36999989    1.83000004
   17.53083229  154.06700134    3.36999989    1.83000004
   17.53416634  200.91799927    3.36999989    1.83000004
   17.53722191  176.72300720    3.36999989    1.83000004
   17.54055595  199.26600647    3.36999989    1.83000004
   17.54388809  190.49299622    3.36999989    1.83000004
   17.54694366  203.95500183    3.36999989    1.83000004
   17.55305481  203.95500183    3.36999989    1.83000004
   17.55722237  172.23800659    3.36999989    1.83000004
   17.56027794  151.54800415    3.36999989    1.83000004
   17.56277657  189.36700439    3.36999989    1.83000004
   17.56388855  150.26699829    3.36999989    1.83000004
   17.56722260  186.06100464    3.36999989    1.83000004
   17.57055664  155.63600159    3.36999989    1.83000004
   17.57361221  154.52400208    3.36999989    1.83000004
   17.57694626  133.04400635    3.36999989    1.83000004
   17.58000183  164.76899719    3.36999989    1.83000004
   17.58333397  173.53399658    3.36999989    1.83000004
   17.58666801  161.47300720    3.36999989    1.83000004
   17.58972359  173.87300110    3.36999989    1.83000004
   17.59583473  173.87300110    3.36999989    1.83000004
   17.60000038  128.38200378    3.36999989    1.83000004
   17.60333443  137.11000061    3.36999989    1.83000004
   17.60639000  110.47399902    3.36999989    1.83000004
   17.60972214  100.70300293    3.36999989    1.83000004
   17.61305618  154.32099915    3.36999989    1.83000004
   17.61611176  157.60800171    3.36999989    1.83000004
   17.61944389  175.70500183    3.36999989    1.83000004
   17.62249947  164.95300293    3.36999989    1.83000004
   17.62583351  178.58599854    3.36999989    1.83000004
   17.62916756  119.15799713    3.36999989    1.83000004
   17.63083267  182.40800476    3.36999989    1.83000004
   17.63305473  155.10000610    3.36999989    1.83000004
   17.63861084  155.10000610    3.36999989    1.83000004
   17.64277840  118.92099762    3.36999989    1.83000004
   17.64611053  146.62300110    3.36999989    1.83000004
   17.64916611  122.09999847    3.36999989    1.83000004
   17.65250015  138.30299377    3.36999989    1.83000004
   17.65583229  150.78399658    3.36999989    1.83000004
   17.65888786  152.89199829    3.36999989    1.83000004
   17.66222191  160.11500549    3.36999989    1.83000004
   17.66416550  151.97200012    3.36999989    1.83000004
   17.66583252  138.52900696    3.36999989    1.83000004
   17.66916656  152.52900696    3.36999989    1.83000004
   17.67222214  163.74299622    3.36999989    1.83000004
   17.67555428  146.63400269    3.36999989    1.83000004
   17.68166542  146.63400269    3.36999989    1.83000004
   17.68555450  148.57499695    3.36999989    1.83000004
   17.68888855  156.81199646    3.36999989    1.83000004
   17.69222069  129.63299561    3.36999989    1.83000004
   17.69527626  125.53199768    3.36999989    1.83000004
   17.69777679  152.57400513    3.36999989    1.83000004
   17.69916534  126.70600128    3.36999989    1.83000004
   17.70222282  134.01899719    3.36999989    1.83000004
   17.70555687  140.51499939    3.36999989    1.83000004
   17.70888901  112.50700378    3.36999989    1.83000004
   17.71194458  126.85800171    3.36999989    1.83000004
   17.71527863  137.06700134    3.36999989    1.83000004
   17.71861076  134.29400635    3.36999989    1.83000004
   17.72444534  134.29400635    3.36999989    1.83000004
   17.72861099  139.88600159    3.36999989    1.83000004
   17.73111153  144.34199524    3.36999989    1.83000004
   17.73222351  147.67599487    3.36999989    1.83000004
   17.73527718  104.88500214    3.36999989    1.83000004
   17.73861122  123.64600372    3.36999989    1.83000004
   17.74194527  135.38299561    3.36999989    1.83000004
   17.74500084  130.12199402    3.36999989    1.83000004
   17.74833298  132.04299927    3.36999989    1.83000004
   17.75166702  117.45400238    3.36999989    1.83000004
   17.75499916  114.50900269    3.36999989    1.83000004
   17.75805473  123.43499756    3.36999989    1.83000004
   17.76138878  112.56999969    3.36999989    1.83000004
   17.76722145  112.56999969    3.36999989    1.83000004
   17.77138901  117.91999817    3.36999989    1.83000004
   17.77472115  118.92900085    3.36999989    1.83000004
   17.77777672  126.43299866    3.36999989    1.83000004
   17.78111076  131.56399536    3.36999989    1.83000004
   17.78444481  121.88099670    3.36999989    1.83000004
   17.78750038  133.52999878    3.36999989    1.83000004
   17.79083252  145.91600037    3.36999989    1.83000004
   17.79388809  168.81100464    3.36999989    1.83000004
   17.79722214  160.72599792    3.36999989    1.83000004
   17.79805565  141.71699524    3.36999989    1.83000004
   17.80083275  129.52299500    3.36999989    1.83000004
   17.80416679  161.89799500    3.36999989    1.83000004
   17.80999947  161.89799500    3.36999989    1.83000004
   17.81416512  197.36700439    3.36999989    1.83000004
   17.81750107  185.72000122    3.36999989    1.83000004
   17.82055664  178.35000610    3.36999989    1.83000004
   17.82389069  211.47799683    3.36999989    1.83000004
   17.82722282  219.54100037    3.36999989    1.83000004
   17.83027840  219.22000122    3.36999989    1.83000004
   17.83139038  177.15699768    3.36999989    1.83000004
   17.83388901  214.01699829    3.36999989    1.83000004
   17.83722305  222.49499512    3.36999989    1.83000004
   17.84027863  181.30400085    3.36999989    1.83000004
   17.84361267  206.52999878    3.36999989    1.83000004
   17.84694481  187.34700012    3.36999989    1.83000004
   17.85305595  187.34700012    3.36999989    1.83000004
   17.85694504  210.27799988    3.36999989    1.83000004
   17.86027908  192.46400452    3.36999989    1.83000004
   17.86361122  197.39399719    3.36999989    1.83000004
   17.86499977  204.18800354    3.36999989    1.83000004
   17.86722183  205.97799683    3.36999989    1.83000004
   17.87027740  211.48699951    3.36999989    1.83000004
   17.87361145  219.06599426    3.36999989    1.83000004
   17.87694550  205.20700073    3.36999989    1.83000004
   17.88000107  191.16999817    3.36999989    1.83000004
   17.88333321  200.52200317    3.36999989    1.83000004
   17.88638878  201.96600342    3.36999989    1.83000004
   17.88972282  192.23199463    3.36999989    1.83000004
   17.89583397  192.23199463    3.36999989    1.83000004
   17.89999962  196.66999817    3.36999989    1.83000004
   17.90305519  198.73500061    3.36999989    1.83000004
   17.90638924  205.32299805    3.36999989    1.83000004
   17.90944481  194.33799744    3.36999989    1.83000004
   17.91305542  192.04499817    3.36999989    1.83000004
   17.91638756  200.94999695    3.36999989    1.83000004
   17.91972160  181.44799805    3.36999989    1.83000004
   17.92277718  181.42799377    3.36999989    1.83000004
   17.92611122  207.16700745    3.36999989    1.83000004
   17.92916679  204.29400635    3.36999989    1.83000004
   17.93166542  185.90299988    3.36999989    1.83000004
   17.93305397  197.31100464    3.36999989    1.83000004
   17.93861008  197.31100464    3.36999989    1.83000004
   17.94277763  205.81500244    3.36999989    1.83000004
   17.94610977  167.48899841    3.36999989    1.83000004
   17.94916534  186.56599426    3.36999989    1.83000004
   17.95250130  194.52799988    3.36999989    1.83000004
   17.95555687  165.59899902    3.36999989    1.83000004
   17.95888901  184.88200378    3.36999989    1.83000004
   17.96222305  171.57600403    3.36999989    1.83000004
   17.96500015  199.39500427    3.36999989    1.83000004
   17.96583366  174.03300476    3.36999989    1.83000004
   17.96888924  185.82200623    3.36999989    1.83000004
   17.97222328  185.14399719    3.36999989    1.83000004
   17.97555542  176.68899536    3.36999989    1.83000004
   17.98139000  176.68899536    3.36999989    1.83000004
   17.98555565  193.26100159    3.36999989    1.83000004
   17.98888969  178.98199463    3.36999989    1.83000004
   17.99194527  190.47799683    3.36999989    1.83000004
   17.99527740  185.88000488    3.36999989    1.83000004
   17.99833298  191.70100403    3.36999989    1.83000004
   17.99888992  170.53100586    3.36999989    1.83000004
   18.00194359  196.48399353    3.36999989    1.83000004
   18.00527763  170.44599915    3.36999989    1.83000004
   18.00861168  190.69500732    3.36999989    1.83000004
   18.01166725  203.03399658    3.36999989    1.83000004
   18.01499939  163.23399353    3.36999989    1.83000004
   18.01805496  200.03900146    3.36999989    1.83000004
   18.02444458  200.03900146    3.36999989    1.83000004
   18.02833366  183.28100586    3.36999989    1.83000004
   18.03166580  202.03300476    3.36999989    1.83000004
   18.03222275  173.13200378    3.36999989    1.83000004
   18.03527641  208.36999512    3.36999989    1.83000004
   18.03861046  176.96099854    3.36999989    1.83000004
   18.04194450  180.23300171    3.36999989    1.83000004
   18.04500008  194.74299622    3.36999989    1.83000004
   18.04833221  186.56799316    3.36999989    1.83000004
   18.05138779  183.33599854    3.36999989    1.83000004
   18.05472183  198.56300354    3.36999989    1.83000004
   18.05805397  188.35899353    3.36999989    1.83000004
   18.06110954  199.13200378    3.36999989    1.83000004
   18.06722260  199.13200378    3.36999989    1.83000004
   18.07139015  180.24699402    3.36999989    1.83000004
   18.07444572  166.52699280    3.36999989    1.83000004
   18.07777786  168.63099670    3.36999989    1.83000004
   18.08111191  191.16799927    3.36999989    1.83000004
   18.08416748  162.85000610    3.36999989    1.83000004
   18.08750153  186.08700562    3.36999989    1.83000004
   18.09083366  157.62399292    3.36999989    1.83000004
   18.09388924  184.19099426    3.36999989    1.83000004
   18.09722328  157.90100098    3.36999989    1.83000004
   18.09833336  180.13699341    3.36999989    1.83000004
   18.10083389  164.67300415    3.36999989    1.83000004
   18.10388947  171.58900452    3.36999989    1.83000004
   18.11000061  171.58900452    3.36999989    1.83000004
   18.11416626  178.40100098    3.36999989    1.83000004
   18.11722183  176.05900574    3.36999989    1.83000004
   18.12055588  153.86199951    3.36999989    1.83000004
   18.12388992  196.89900208    3.36999989    1.83000004
   18.12722206  157.02600098    3.36999989    1.83000004
   18.13055611  181.82299805    3.36999989    1.83000004
   18.13166618  159.69099426    3.36999989    1.83000004
   18.13416672  172.15499878    3.36999989    1.83000004
   18.13722229  158.99499512    3.36999989    1.83000004
   18.14055634  159.22399902    3.36999989    1.83000004
   18.14388847  146.96000671    3.36999989    1.83000004
   18.14694405  173.81100464    3.36999989    1.83000004
   18.15277672  173.81100464    3.36999989    1.83000004
   18.15694427  130.89500427    3.36999989    1.83000004
   18.16027832  136.11599731    3.36999989    1.83000004
   18.16333389  154.86000061    3.36999989    1.83000004
   18.16527748  153.17399597    3.36999989    1.83000004
   18.16722107  134.79600525    3.36999989    1.83000004
   18.17027664  141.48800659    3.36999989    1.83000004
   18.17361069  157.54200745    3.36999989    1.83000004
   18.17694473  129.58299255    3.36999989    1.83000004
   18.18000031  151.27299500    3.36999989    1.83000004
   18.18333244  151.77600098    3.36999989    1.83000004
   18.18638802  138.92100525    3.36999989    1.83000004
   18.18972206  156.70500183    3.36999989    1.83000004
   18.19555473  156.70500183    3.36999989    1.83000004
   18.19972038  146.35000610    3.36999989    1.83000004
   18.20305634  143.19200134    3.36999989    1.83000004
   18.20639038  152.00500488    3.36999989    1.83000004
   18.20944595  137.73699951    3.36999989    1.83000004
   18.21277809  145.89100647    3.36999989    1.83000004
   18.21583366  127.19100189    3.36999989    1.83000004
   18.21916771  136.46299744    3.36999989    1.83000004
   18.22249985  141.05000305    3.36999989    1.83000004
   18.22555542  156.81700134    3.36999989    1.83000004
   18.22888947  148.17900085    3.36999989    1.83000004
   18.23194504  154.00999451    3.36999989    1.83000004
   18.23250008  124.31800079    3.36999989    1.83000004
   18.23861122  124.31800079    3.36999989    1.83000004
   18.24277878  145.04699707    3.36999989    1.83000004
   18.24583435  154.45899963    3.36999989    1.83000004
   18.24916649  143.25599670    3.36999989    1.83000004
   18.25250053  146.02699280    3.36999989    1.83000004
   18.25555611  140.32000732    3.36999989    1.83000004
   18.25888824  127.16699982    3.36999989    1.83000004
   18.26222229  137.09899902    3.36999989    1.83000004
   18.26527786  133.72000122    3.36999989    1.83000004
   18.26583290  132.06700134    3.36999989    1.83000004
   18.26888847  134.43400574    3.36999989    1.83000004
   18.27222252  135.71699524    3.36999989    1.83000004
   18.27527809  126.73100281    3.36999989    1.83000004
   18.28138924  126.73100281    3.36999989    1.83000004
   18.28555489  136.27499390    3.36999989    1.83000004
   18.28888893  125.75399780    3.36999989    1.83000004
   18.29222107  127.93900299    3.36999989    1.83000004
   18.29527664  132.04100037    3.36999989    1.83000004
   18.29861069  130.92399597    3.36999989    1.83000004
   18.29916573  126.95200348    3.36999989    1.83000004
   18.30222130  131.73899841    3.36999989    1.83000004
   18.30555534  122.09300232    3.36999989    1.83000004
   18.30861092  131.84399414    3.36999989    1.83000004
   18.31194305  126.93199921    3.36999989    1.83000004
   18.31527710  117.96399689    3.36999989    1.83000004
   18.31833458  128.04600525    3.36999989    1.83000004
   18.32416725  128.04600525    3.36999989    1.83000004
   18.32833481  122.12999725    3.36999989    1.83000004
   18.34638977  118.80000305    3.36999989    1.83000004
   18.34805679  118.83399963    3.36999989    1.83000004
   18.35138893  118.74500275    3.36999989    1.83000004
   18.35472298  119.78299713    3.36999989    1.83000004
   18.35777855  124.51300049    3.36999989    1.83000004
   18.36111069  123.56900024    3.36999989    1.83000004
   18.36722183  123.56900024    3.36999989    1.83000004
   18.37138939  119.56099701    3.36999989    1.83000004
   18.37472153  128.94200134    3.36999989    1.83000004
   18.37777710  116.17900085    3.36999989    1.83000004
   18.37972260  121.26899719    3.36999989    1.83000004
   18.38166618  126.88300323    3.36999989    1.83000004
   18.38472176  122.13800049    3.36999989    1.83000004
   18.38805580  122.15499878    3.36999989    1.83000004
   18.39111137  117.82399750    3.36999989    1.83000004
   18.39444351  118.74700165    3.36999989    1.83000004
   18.39777756  119.11900330    3.36999989    1.83000004
   18.40083313  122.49600220    3.36999989    1.83000004
   18.40416718  122.65699768    3.36999989    1.83000004
   18.40999985  122.65699768    3.36999989    1.83000004
   18.41416550  129.53399658    3.36999989    1.83000004
   18.41749954  124.11000061    3.36999989    1.83000004
   18.42083359  119.88800049    3.36999989    1.83000004
   18.42388916  119.90699768    3.36999989    1.83000004
   18.42722130  113.65499878    3.36999989    1.83000004
   18.43027687  112.28199768    3.36999989    1.83000004
   18.43361092  120.04799652    3.36999989    1.83000004
   18.43694305  118.25299835    3.36999989    1.83000004
   18.44027710  109.25399780    3.36999989    1.83000004
   18.44361115  120.42600250    3.36999989    1.83000004
   18.44638824  119.63800049    3.36999989    1.83000004
   18.44722176  113.53399658    3.36999989    1.83000004
   18.45305634  113.53399658    3.36999989    1.83000004
   18.45722389  113.76300049    3.36999989    1.83000004
   18.46027946  118.37599945    3.36999989    1.83000004
   18.46361160  115.24400330    3.36999989    1.83000004
   18.46666718  114.24800110    3.36999989    1.83000004
   18.47000122  112.46099854    3.36999989    1.83000004
   18.47333336  119.61000061    3.36999989    1.83000004
   18.47638893  124.72799683    3.36999989    1.83000004
   18.47972298  115.54299927    3.36999989    1.83000004
   18.48027802  111.49199677    3.36999989    1.83000004
   18.48333359  110.89600372    3.36999989    1.83000004
   18.48666763  107.98300171    3.36999989    1.83000004
   18.48972321  118.67099762    3.36999989    1.83000004
   18.49583435  118.67099762    3.36999989    1.83000004
   18.50000000  111.54699707    3.36999989    1.83000004
   18.50333405  115.46600342    3.36999989    1.83000004
   18.50638962  113.54499817    3.36999989    1.83000004
   18.50972176  112.20800018    3.36999989    1.83000004
   18.51277733  113.06600189    3.36999989    1.83000004
   18.51333427  110.40899658    3.36999989    1.83000004
   18.51666641  114.71499634    3.36999989    1.83000004
   18.52000046  114.44400024    3.36999989    1.83000004
   18.52305603  113.71399689    3.36999989    1.83000004
   18.52638817  107.14800262    3.36999989    1.83000004
   18.52972221  105.42299652    3.36999989    1.83000004
   18.53277779  116.64499664    3.36999989    1.83000004
   18.53861046  116.64499664    3.36999989    1.83000004
   18.54277802  111.31900024    3.36999989    1.83000004
   18.54611015  107.07700348    3.36999989    1.83000004
   18.54722214  108.86900330    3.36999989    1.83000004
   18.54999924  108.91799927    3.36999989    1.83000004
   18.55333328  115.94300079    3.36999989    1.83000004
   18.55638885  108.40299988    3.36999989    1.83000004
   18.55972099  114.59400177    3.36999989    1.83000004
   18.56305504  111.03399658    3.36999989    1.83000004
   18.56611061  114.05400085    3.36999989    1.83000004
   18.56944466  109.18900299    3.36999989    1.83000004
   18.57277870  111.32800293    3.36999989    1.83000004
   18.57583427  112.90200043    3.36999989    1.83000004
   18.58139038  112.90200043    3.36999989    1.83000004
   18.58555603  112.01699829    3.36999989    1.83000004
   18.58889008  112.78399658    3.36999989    1.83000004
   18.59222221  112.03199768    3.36999989    1.83000004
   18.59527779  106.07800293    3.36999989    1.83000004
   18.59861183  111.63099670    3.36999989    1.83000004
   18.60194397  115.56400299    3.36999989    1.83000004
   18.60499954  112.39399719    3.36999989    1.83000004
   18.60833359  107.85900116    3.36999989    1.83000004
   18.61166763  108.53600311    3.36999989    1.83000004
   18.61333466  105.62799835    3.36999989    1.83000004
   18.61527824  110.11199951    3.36999989    1.83000004
   18.61861038  107.45099640    3.36999989    1.83000004
   18.62444496  107.45099640    3.36999989    1.83000004
   18.62861061  112.99400330    3.36999989    1.83000004
   18.63166618  105.87699890    3.36999989    1.83000004
   18.63500023  113.19100189    3.36999989    1.83000004
   18.63833237  109.99500275    3.36999989    1.83000004
   18.64138794  107.06800079    3.36999989    1.83000004
   18.64472198  109.50700378    3.36999989    1.83000004
   18.64694405  109.35900116    3.36999989    1.83000004
   18.64833260  107.41500092    3.36999989    1.83000004
   18.65166664  108.74600220    3.36999989    1.83000004
   18.65499878  105.84700012    3.36999989    1.83000004
   18.65805435  109.38899994    3.36999989    1.83000004
   18.66138840  109.43800354    3.36999989    1.83000004
   18.66722107  109.43800354    3.36999989    1.83000004
   18.67138863  110.81300354    3.36999989    1.83000004
   18.67444420  108.35299683    3.36999989    1.83000004
   18.67777634  106.45800018    3.36999989    1.83000004
   18.68000031  107.10700226    3.36999989    1.83000004
   18.68138885  109.72599792    3.36999989    1.83000004
   18.68472099  110.33000183    3.36999989    1.83000004
   18.68777657  113.36399841    3.36999989    1.83000004
   18.69111061  112.11199951    3.36999989    1.83000004
   18.69444275  109.88899994    3.36999989    1.83000004
   18.69749832  109.41600037    3.36999989    1.83000004
   18.70083427  109.91600037    3.36999989    1.83000004
   18.70416832  105.41000366    3.36999989    1.83000004
   18.71000099  105.41000366    3.36999989    1.83000004
   18.71416664  106.19300079    3.36999989    1.83000004
   18.71750069  108.84100342    3.36999989    1.83000004
   18.72055626  107.25099945    3.36999989    1.83000004
   18.72389030  110.72200012    3.36999989    1.83000004
   18.72694588  105.28399658    3.36999989    1.83000004
   18.73027802  107.78199768    3.36999989    1.83000004
   18.73361206  102.92400360    3.36999989    1.83000004
   18.73666763   99.55439758    3.36999989    1.83000004
   18.73999977  105.78399658    3.36999989    1.83000004
   18.74333382  107.30500031    3.36999989    1.83000004
   18.74638939  106.00000000    3.36999989    1.83000004
   18.74694443  107.92400360    3.36999989    1.83000004
   18.75277710  107.92400360    3.36999989    1.83000004
   18.75694466  106.33300018    3.36999989    1.83000004
   18.76027870  109.13999939    3.36999989    1.83000004
   18.76361084  111.76000214    3.36999989    1.83000004
   18.76694489  109.29499817    3.36999989    1.83000004
   18.77000046  102.17299652    3.36999989    1.83000004
   18.77333260  105.49199677    3.36999989    1.83000004
   18.77666664  101.68800354    3.36999989    1.83000004
   18.77972221  104.12599945    3.36999989    1.83000004
   18.78027725  104.78099823    3.36999989    1.83000004
   18.78333282  109.56600189    3.36999989    1.83000004
   18.78666687  106.34200287    3.36999989    1.83000004
   18.78972244  105.14099884    3.36999989    1.83000004
   18.79583359  105.14099884    3.36999989    1.83000004
   18.79972076  105.77899933    3.36999989    1.83000004
   18.80305481  111.18599701    3.36999989    1.83000004
   18.80638885  111.56500244    3.36999989    1.83000004
   18.80944443  106.01799774    3.36999989    1.83000004
   18.81277657  109.76799774    3.36999989    1.83000004
   18.81361008  112.19999695    3.36999989    1.83000004
   18.81638718  110.83499908    3.36999989    1.83000004
   18.81972313  107.11799622    3.36999989    1.83000004
   18.82277870  109.78700256    3.36999989    1.83000004
   18.82611275  109.38200378    3.36999989    1.83000004
   18.82916832  105.85800171    3.36999989    1.83000004
   18.83250046  115.35800171    3.36999989    1.83000004
   18.83861160  115.35800171    3.36999989    1.83000004
   18.84277916  114.26599884    3.36999989    1.83000004
   18.84583473  110.11499786    3.36999989    1.83000004
   18.84694481  105.46499634    3.36999989    1.83000004
   18.84944534  109.63999939    3.36999989    1.83000004
   18.85277748  108.04100037    3.36999989    1.83000004
   18.85583305  108.19599915    3.36999989    1.83000004
   18.85916710  107.17099762    3.36999989    1.83000004
   18.86222267  109.41300201    3.36999989    1.83000004
   18.86555672  111.92800140    3.36999989    1.83000004
   18.86888885  113.92299652    3.36999989    1.83000004
   18.87194443  115.74700165    3.36999989    1.83000004
   18.87527847  108.38099670    3.36999989    1.83000004
   18.88138962  108.38099670    3.36999989    1.83000004
   18.88555527  109.41799927    3.36999989    1.83000004
   18.88888931  109.45500183    3.36999989    1.83000004
   18.89194489  109.13600159    3.36999989    1.83000004
   18.89527702  111.66300201    3.36999989    1.83000004
   18.89861107  110.28700256    3.36999989    1.83000004
   18.90166664  106.99500275    3.36999989    1.83000004
   18.90499878  107.56199646    3.36999989    1.83000004
   18.90833282  111.16899872    3.36999989    1.83000004
   18.91138840  106.92099762    3.36999989    1.83000004
   18.91361046  107.68099976    3.36999989    1.83000004
   18.91499901  110.71900177    3.36999989    1.83000004
   18.91833305  107.57800293    3.36999989    1.83000004
   18.92416573  107.57800293    3.36999989    1.83000004
   18.92833328  108.55500031    3.36999989    1.83000004
   18.93166542  114.31800079    3.36999989    1.83000004
   18.93472099  108.75299835    3.36999989    1.83000004
   18.93805504  109.76499939    3.36999989    1.83000004
   18.94138718  112.72200012    3.36999989    1.83000004
   18.94444275  109.68099976    3.36999989    1.83000004
   18.94694328  113.15499878    3.36999989    1.83000004
   18.94805527  107.34999847    3.36999989    1.83000004
   18.95138931  112.39499664    3.36999989    1.83000004
   18.95444489  114.88899994    3.36999989    1.83000004
   18.95777893  114.68800354    3.36999989    1.83000004
   18.96083450  111.34999847    3.36999989    1.83000004
   18.96722221  111.34999847    3.36999989    1.83000004
   18.97138977  114.18299866    3.36999989    1.83000004
   18.97444534  112.60600281    3.36999989    1.83000004
   18.97777748  109.27400208    3.36999989    1.83000004
   18.98027802  116.55000305    3.36999989    1.83000004
   18.98139000  112.72399902    3.36999989    1.83000004
   18.98472214  109.46600342    3.36999989    1.83000004
   18.98777771  114.33300018    3.36999989    1.83000004
   18.99111176  110.85099792    3.36999989    1.83000004
   18.99444389  115.56600189    3.36999989    1.83000004
   18.99749947  114.07099915    3.36999989    1.83000004
   19.00083351  112.26499939    3.36999989    1.83000004
   19.00416756  113.89800262    3.36999989    1.83000004
   19.01000023  113.89800262    3.36999989    1.83000004
   19.01416588  110.72799683    3.36999989    1.83000004
   19.01749992  111.31800079    3.36999989    1.83000004
   19.02055550  115.24600220    3.36999989    1.83000004
   19.02388954  113.83300018    3.36999989    1.83000004
   19.02694511  110.17500305    3.36999989    1.83000004
   19.03027725  109.77500153    3.36999989    1.83000004
   19.03361130  116.26699829    3.36999989    1.83000004
   19.03666687  108.54299927    3.36999989    1.83000004
   19.03999901  110.38300323    3.36999989    1.83000004
   19.04333305  111.35600281    3.36999989    1.83000004
   19.04638863  110.42500305    3.36999989    1.83000004
   19.04694366  109.71299744    3.36999989    1.83000004
   19.05277634  109.71299744    3.36999989    1.83000004
   19.05694389  105.23100281    3.36999989    1.83000004
   19.06027794  105.94200134    3.36999989    1.83000004
   19.06333351  110.38600159    3.36999989    1.83000004
   19.06666756  108.91600037    3.36999989    1.83000004
   19.06972313  108.74099731    3.36999989    1.83000004
   19.07305717  108.71299744    3.36999989    1.83000004
   19.07638931  108.07800293    3.36999989    1.83000004
   19.07944489  106.44100189    3.36999989    1.83000004
   19.08027840  108.75099945    3.36999989    1.83000004
   19.08305550  114.89900208    3.36999989    1.83000004
   19.08638954  121.26599884    3.36999989    1.83000004
   19.08944511  123.91500092    3.36999989    1.83000004
   19.09555626  123.91500092    3.36999989    1.83000004
   19.09972191  131.37699890    3.36999989    1.83000004
   19.10305595  127.16899872    3.36999989    1.83000004
   19.10611153  135.74499512    3.36999989    1.83000004
   19.10944557  117.74900055    3.36999989    1.83000004
   19.11277771  136.76699829    3.36999989    1.83000004
   19.11361122  150.02400208    3.36999989    1.83000004
   19.11638832  143.70700073    3.36999989    1.83000004
   19.11972237  109.70400238    3.36999989    1.83000004
   19.12277794  117.53500366    3.36999989    1.83000004
   19.12611198  107.62400055    3.36999989    1.83000004
   19.12944412  109.66200256    3.36999989    1.83000004
   19.13249969  114.22899628    3.36999989    1.83000004
   19.13861084  114.22899628    3.36999989    1.83000004
   19.14249992  111.73899841    3.36999989    1.83000004
   19.14583397  107.91899872    3.36999989    1.83000004
   19.14694405  112.26200104    3.36999989    1.83000004
   19.14944458  109.82299805    3.36999989    1.83000004
   19.15277672  114.18900299    3.36999989    1.83000004
   19.15583229  109.15899658    3.36999989    1.83000004
   19.15916634  111.73000336    3.36999989    1.83000004
   19.16250038  111.76200104    3.36999989    1.83000004
   19.16555595  112.22799683    3.36999989    1.83000004
   19.16888809  110.23200226    3.36999989    1.83000004
   19.17194366  109.50399780    3.36999989    1.83000004
   19.17527771  114.62500000    3.36999989    1.83000004
   19.18138885  114.62500000    3.36999989    1.83000004
   19.18555450  109.91200256    3.36999989    1.83000004
   19.18861008  110.62200165    3.36999989    1.83000004
   19.19194412  114.61100006    3.36999989    1.83000004
   19.19527626  115.85500336    3.36999989    1.83000004
   19.19833183  112.07299805    3.36999989    1.83000004
   19.20166779  111.95099640    3.36999989    1.83000004
   19.20472336  113.59700012    3.36999989    1.83000004
   19.20805550  110.14700317    3.36999989    1.83000004
   19.21138954  110.92600250    3.36999989    1.83000004
   19.21361160  113.79900360    3.36999989    1.83000004
   19.21500015  108.86199951    3.36999989    1.83000004
   19.21833420  104.60600281    3.36999989    1.83000004
   19.22416687  104.60600281    3.36999989    1.83000004
   19.22833443  110.43000031    3.36999989    1.83000004
   19.23166656  109.01200104    3.36999989    1.83000004
   19.23472214  109.04599762    3.36999989    1.83000004
   19.23805618  110.94799805    3.36999989    1.83000004
   19.24111176  110.07599640    3.36999989    1.83000004
   19.24444389  107.86799622    3.36999989    1.83000004
   19.24694443  120.32900238    3.36999989    1.83000004
   19.24805641  110.61699677    3.36999989    1.83000004
   19.25138855  112.92099762    3.36999989    1.83000004
   19.25444412  109.46700287    3.36999989    1.83000004
   19.25777817  110.07599640    3.36999989    1.83000004
   19.26111031  113.11499786    3.36999989    1.83000004
   19.26694489  113.11499786    3.36999989    1.83000004
   19.27111053  118.48600006    3.36999989    1.83000004
   19.27444458  113.50800323    3.36999989    1.83000004
   19.27777672  116.97899628    3.36999989    1.83000004
   19.28027725  112.97599792    3.36999989    1.83000004
   19.28138924  111.11499786    3.36999989    1.83000004
   19.28472137  109.51799774    3.36999989    1.83000004
   19.28777695  109.45200348    3.36999989    1.83000004
   19.29111099  113.65299988    3.36999989    1.83000004
   19.29444313  112.50000000    3.36999989    1.83000004
   19.29749870  112.81199646    3.36999989    1.83000004
   19.30083275  112.25000000    3.36999989    1.83000004
   19.30416679  110.32800293    3.36999989    1.83000004
   19.30999947  110.32800293    3.36999989    1.83000004
   19.31388855  113.01499939    3.36999989    1.83000004
   19.31722260  110.13400269    3.36999989    1.83000004
   19.32055664  111.67700195    3.36999989    1.83000004
   19.32361221  108.73000336    3.36999989    1.83000004
   19.32694626  107.83699799    3.36999989    1.83000004
   19.33027840  111.27999878    3.36999989    1.83000004
   19.33333397  110.90599823    3.36999989    1.83000004
   19.33666801  113.26899719    3.36999989    1.83000004
   19.33972359  115.83100128    3.36999989    1.83000004
   19.34305573  114.23699951    3.36999989    1.83000004
   19.34638977  113.06900024    3.36999989    1.83000004
   19.36361122  110.93499756    3.36999989    1.83000004
   19.36777878  110.93499756    3.36999989    1.83000004
   19.37194443  111.62100220    3.36999989    1.83000004
   19.37527847  121.78900146    3.36999989    1.83000004
   19.37833405  111.26200104    3.36999989    1.83000004
   19.38166618  116.87000275    3.36999989    1.83000004
   19.38472176  118.78299713    3.36999989    1.83000004
   19.38805580  129.86500549    3.36999989    1.83000004
   19.39138794  169.28399658    3.36999989    1.83000004
   19.39444351  180.40699768    3.36999989    1.83000004
   19.39694405  221.65699768    3.36999989    1.83000004
   19.39805603  213.19500732    3.36999989    1.83000004
   19.40138817  209.16099548    3.36999989    1.83000004
   19.40472221  198.30099487    3.36999989    1.83000004
   19.41055489  198.30099487    3.36999989    1.83000004
   19.41472244  186.79899597    3.36999989    1.83000004
   19.41805458  224.12800598    3.36999989    1.83000004
   19.42111015  206.05900574    3.36999989    1.83000004
   19.42444420  223.19500732    3.36999989    1.83000004
   19.42777634  214.53100586    3.36999989    1.83000004
   19.43027687  215.91200256    3.36999989    1.83000004
   19.43111038  223.07499695    3.36999989    1.83000004
   19.43444443  194.95899963    3.36999989    1.83000004
   19.43777657  191.97999573    3.36999989    1.83000004
   19.44083214  192.26600647    3.36999989    1.83000004
   19.44416618  189.86199951    3.36999989    1.83000004
   19.44749832  191.55599976    3.36999989    1.83000004
   19.45361137  191.55599976    3.36999989    1.83000004
   19.45777893  138.47799683    3.36999989    1.83000004
   19.46083450  134.34700012    3.36999989    1.83000004
   19.46361160  147.63900757    3.36999989    1.83000004
   19.46444511  139.23899841    3.36999989    1.83000004
   19.46777916  140.70799255    3.36999989    1.83000004
   19.47111130  134.76800537    3.36999989    1.83000004
   19.47416687  128.42300415    3.36999989    1.83000004
   19.47750092  129.95300293    3.36999989    1.83000004
   19.48083305  131.16700745    3.36999989    1.83000004
