    HOUR (UT)   FLARE FACTOR    SKY TESTER    SUN TESTER
   11.22277737   -1.00000000   -1.00000000   -1.00000000
   11.25694466  665.11798096    4.90999985    1.76999998
   11.26305580  658.44299316    4.90999985    1.76999998
   11.26555538  640.55297852    4.90999985    1.76999998
   11.26638889  588.63299561    4.90999985    1.78999996
   11.26777744  627.50897217    4.90999985    1.78999996
   11.26916599  616.66900635    4.90999985    1.78999996
   11.27055550  649.60601807    4.90999985    1.78999996
   11.27194405  643.98901367    4.90999985    1.78999996
   11.27333355  593.30102539    4.90999985    1.78999996
   11.27472210  619.74700928    4.90999985    1.78999996
   11.27611065  571.42498779    4.90999985    1.78999996
   11.27750015  567.19702148    4.90999985    1.78999996
   11.27888870  588.68103027    4.90999985    1.78999996
   11.28027725  541.34899902    4.90999985    1.78999996
   11.28166676  596.07299805    4.90999985    1.78999996
   11.28305531  588.73602295    4.90999985    1.80999994
   11.28444481  539.89898682    4.90999985    1.80999994
   11.28583336  530.59497070    4.90999985    1.80999994
   11.28722286  575.91601563    4.90999985    1.80999994
   11.28861141  556.77502441    4.90999985    1.80999994
   11.29000092  564.35498047    4.90999985    1.80999994
   11.29138947  506.85699463    4.90999985    1.80999994
   11.29277802  564.24298096    4.90999985    1.80999994
   11.29416752  554.57800293    4.90999985    1.80999994
   11.29555607  168.79100037    4.90999985    1.80999994
   11.29583359  658.44299316    4.90999985    1.76999998
   11.29638958  385.84698486    4.90999985    1.80999994
   11.29944515  528.29101563    4.90999985    1.80999994
   11.30166721  536.47198486    4.90999985    1.80999994
   11.30277824  524.73297119    4.90999985    1.80999994
   11.30416679  536.15997314    4.90999985    1.83000004
   11.30555534  540.83801270    4.90999985    1.83000004
   11.30694485  527.06201172    4.90999985    1.83000004
   11.30833340  528.79699707    4.90999985    1.83000004
   11.30972195  543.80700684    4.90999985    1.83000004
   11.31111145  532.56402588    4.90999985    1.83000004
   11.31250000  528.97698975    4.90999985    1.83000004
   11.31388950  483.82199097    4.90999985    1.83000004
   11.31527805  534.74298096    4.90999985    1.83000004
   11.31666660  521.94799805    4.90999985    1.85000002
   11.31805515  518.82299805    4.90999985    1.85000002
   11.31944466  533.68902588    4.90999985    1.85000002
   11.32083321  529.81097412    4.90999985    1.85000002
   11.32222176  518.84997559    4.90999985    1.85000002
   11.32361126  516.07202148    4.90999985    1.85000002
   11.32499981  530.67102051    4.90999985    1.85000002
   11.32638836  529.68597412    4.90999985    1.85000002
   11.32777786  513.09399414    4.90999985    1.85000002
   11.32916641  525.28302002    4.90999985    1.85000002
   11.33055592  526.76202393    4.90999985    1.85000002
   11.33194447  519.85198975    4.90999985    1.85000002
   11.33333302  505.73300171    4.90999985    1.85000002
   11.33472157  505.52801514    4.90999985    1.85000002
   11.33611107  469.49499512    4.90999985    1.85000002
   11.33749962  489.47399902    4.90999985    1.85000002
   11.33888817  494.14300537    4.90999985    1.85000002
   11.34027767  454.89801025    4.90999985    1.86000001
   11.34166622  496.91000366    4.90999985    1.86000001
   11.34305477  517.62597656    4.90999985    1.86000001
   11.34444427  502.51300049    4.90999985    1.86000001
   11.34583282  483.36700439    4.90999985    1.86000001
   11.34722233  482.33499146    4.90999985    1.86000001
   11.34861088  458.32101440    4.90999985    1.86000001
   11.35000038  470.62399292    4.90999985    1.86000001
   11.35138893  479.86199951    4.90999985    1.86000001
   11.35277843  467.10598755    4.90999985    1.86000001
   11.35416698  458.82400513    4.90999985    1.86000001
   11.35555553  474.46701050    4.90999985    1.86000001
   11.35694504  490.62701416    4.90999985    1.86000001
   11.35833359  459.83200073    4.90999985    1.86000001
   11.35972214  426.40499878    4.90999985    1.86000001
   11.36111164  457.61599731    4.90999985    1.88000000
   11.36250019  456.67098999    4.90999985    1.88000000
   11.36388969  464.80200195    4.90999985    1.88000000
   11.36527824  450.17001343    4.90999985    1.88000000
   11.36666679  454.63000488    4.90999985    1.88000000
   11.36805534  450.87298584    4.90999985    1.88000000
   11.36944485  458.89099121    4.90999985    1.88000000
   11.37083340  442.39300537    4.90999985    1.88000000
   11.37222195  435.47601318    4.90999985    1.88000000
   11.37361145  462.60598755    4.90999985    1.88000000
   11.37500000  450.51300049    4.90999985    1.88000000
   11.37638855  420.39898682    4.90999985    1.88000000
   11.37777805  438.01098633    4.90999985    1.89999998
   11.37916660  423.12399292    4.90999985    1.89999998
   11.38055611  429.76599121    4.90999985    1.89999998
   11.38194466  451.79998779    4.90999985    1.89999998
   11.38333321  440.42098999    4.90999985    1.89999998
   11.38472176  427.99200439    4.90999985    1.89999998
   11.38611126  427.45300293    4.90999985    1.89999998
   11.38749981  432.71499634    4.90999985    1.89999998
   11.38888836  433.04098511    4.90999985    1.89999998
   11.39027786  412.96301270    4.90999985    1.89999998
   11.39166641  424.90701294    4.90999985    1.91999996
   11.39305496  429.09899902    4.90999985    1.91999996
   11.39444447  434.94699097    4.90999985    1.91999996
   11.39583302  413.26098633    4.90999985    1.91999996
   11.39722252  432.18200684    4.90999985    1.91999996
   11.39861107  417.61700439    4.90999985    1.91999996
   11.39999962  419.28399658    4.90999985    1.91999996
   11.40138817  403.38699341    4.90999985    1.91999996
   11.40277767  430.42599487    4.90999985    1.91999996
   11.40416622  435.76199341    4.90999985    1.94000006
   11.40555477  415.63000488    4.90999985    1.91999996
   11.40694427  432.57299805    4.90999985    1.91999996
   11.40833282  415.98800659    4.90999985    1.91999996
   11.40972137  411.93798828    4.90999985    1.91999996
   11.41111088  423.33599854    4.90999985    1.91999996
   11.41249943  416.34201050    4.90999985    1.91999996
   11.41388893  386.55398560    4.90999985    1.91999996
   11.41527748  426.82400513    4.90999985    1.91999996
   11.41666698  411.05599976    4.90999985    1.94000006
   11.41805553  411.77999878    4.90999985    1.94000006
   11.41944504  407.17898560    4.90999985    1.94000006
   11.42083359  414.18099976    4.90999985    1.94000006
   11.42222214  405.55499268    4.90999985    1.94000006
   11.42361164  414.29598999    4.90999985    1.94000006
   11.42500019  407.48999023    4.90999985    1.94000006
   11.42638874  420.16299438    4.90999985    1.94000006
   11.42777824  401.92898560    4.90999985    1.94000006
   11.42916679  397.89999390    4.90999985    1.94000006
   11.43055630  389.31399536    4.90999985    1.94000006
   11.43194485  404.34799194    4.90999985    1.94000006
   11.43333340  409.54998779    4.90999985    1.94000006
   11.43472195  396.28201294    4.90999985    1.96000004
   11.43611145  398.66799927    4.90999985    1.94000006
   11.43750000  388.47100830    4.90999985    1.96000004
   11.43888855  411.63500977    4.90999985    1.96000004
   11.44027805  396.35699463    4.90999985    1.96000004
   11.44166660  366.89401245    4.90999985    1.96000004
   11.44305515  402.29699707    4.90999985    1.96000004
   11.44444466  375.37600708    4.90999985    1.96000004
   11.44583321  382.51901245    4.90999985    1.96000004
   11.44722271  392.96398926    4.90999985    1.96000004
   11.44861126  391.74200439    4.90999985    1.96000004
   11.44999981  372.77700806    4.90999985    1.96000004
   11.45138836  381.57901001    4.90999985    1.96000004
   11.45277786  400.49499512    4.90999985    1.96000004
   11.45416641  354.42098999    4.90999985    1.96000004
   11.45555496  372.02499390    4.90999985    1.96000004
   11.45694447  393.93301392    4.90999985    1.98000002
   11.45833302  358.66598511    4.90999985    1.98000002
   11.45972157  363.51300049    4.90999985    1.98000002
   11.46111107  380.75299072    4.90999985    1.98000002
   11.46249962  367.09698486    4.90999985    1.98000002
   11.46388912  378.14898682    4.90999985    1.98000002
   11.46527767  362.31698608    4.90999985    1.98000002
   11.46666622  361.99700928    4.90999985    1.98000002
   11.46805477  368.87399292    4.90999985    1.98000002
   11.46944427  377.81600952    4.90999985    1.98000002
   11.47083282  367.20401001    4.90999985    1.98000002
   11.47222137  363.29098511    4.90999985    1.98000002
   11.47361088  381.06298828    4.90999985    1.98000002
   11.47499943  366.96899414    4.90999985    1.98000002
   11.47638798  374.16000366    4.90999985    1.98000002
   11.47777748  359.72198486    4.90999985    1.98000002
   11.47916603  366.17300415    4.90999985    1.98000002
   11.48055553  372.73300171    4.90999985    1.98000002
   11.48194408  361.42199707    4.90999985    1.98000002
   11.48333359  350.97601318    4.90999985    2.00000000
   11.48472214  354.70999146    4.90999985    1.98000002
   11.48611164  370.28100586    4.90999985    1.98000002
   11.48750019  358.49600220    4.90999985    2.00000000
   11.48888874  369.80300903    4.90999985    2.00000000
   11.49027824  347.13900757    4.90999985    2.00000000
   11.49055576  385.84698486    4.90999985    1.80999994
   11.49055576  528.29101563    4.90999985    1.80999994
   11.49111176  366.13900757    4.90999985    2.00000000
   11.49444485  360.47299194    4.90999985    2.00000000
   11.49750042  360.22000122    4.90999985    2.00000000
   11.50083351  369.86401367    4.90999985    2.00000000
   11.50416660  351.27700806    4.90999985    2.00000000
   11.50749969  367.63101196    4.90999985    2.00000000
   11.51166630  367.63101196    4.90999985    2.00000000
   11.51583290  345.39199829    4.90999985    2.01999998
   11.51888847  337.15100098    4.90999985    2.01999998
   11.52222157  354.30099487    4.90999985    2.01999998
   11.52416611  339.26098633    4.90999985    2.01999998
   11.52583313  339.34100342    4.90999985    2.01999998
   11.52916622  336.57800293    4.90999985    2.01999998
   11.53222179  338.01199341    4.90999985    2.03999996
   11.53555584  330.08898926    4.90999985    2.01999998
   11.53888893  333.43301392    4.90999985    2.03999996
   11.54194450  345.86099243    4.90999985    2.03999996
   11.54527855  342.29699707    4.90999985    2.03999996
   11.54833412  329.83300781    4.90999985    2.03999996
   11.55444431  329.83300781    4.90999985    2.03999996
   11.55861092  322.73901367    4.90999985    2.03999996
   11.56166649  336.51599121    4.90999985    2.03999996
   11.56500053  329.28799438    4.90999985    2.05999994
   11.56833363  321.74200439    4.90999985    2.05999994
   11.57138920  346.86599731    4.90999985    2.05999994
   11.57472229  331.75900269    4.90999985    2.05999994
   11.57805538  314.98999023    4.90999985    2.05999994
   11.58111095  323.37200928    4.90999985    2.05999994
   11.58444405  336.85598755    4.90999985    2.05999994
   11.58749962  315.27700806    4.90999985    2.07999992
   11.59083271  315.66101074    4.90999985    2.07999992
   11.59138870  338.98901367    4.90999985    2.07999992
   11.59722233  338.98901367    4.90999985    2.07999992
   11.60138893  321.40701294    4.90999985    2.07999992
   11.60472298  318.17001343    4.90999985    2.07999992
   11.60777855  312.56100464    4.90999985    2.09999990
   11.61111164  314.02398682    4.90999985    2.07999992
   11.61444473  324.70401001    4.90999985    2.07999992
   11.61750031  314.86898804    4.90999985    2.07999992
   11.62083340  293.26800537    4.90999985    2.09999990
   11.62388897  309.30801392    4.90999985    2.09999990
   11.62472248  311.60501099    4.90999985    2.09999990
   11.62777805  314.05700684    4.90999985    2.09999990
   11.63083363  300.89898682    4.90999985    2.09999990
   11.63416672  306.28799438    4.90999985    2.09999990
   11.64000034  306.28799438    4.90999985    2.09999990
   11.64416695  303.24600220    4.90999985    2.11999989
   11.64750004  305.47000122    4.90999985    2.11999989
   11.65083313  307.19699097    4.90999985    2.11999989
   11.65388870  312.01699829    4.90999985    2.11999989
   11.65722179  298.00500488    4.90999985    2.13000011
   11.65805531  288.85998535    4.90999985    2.11999989
   11.66083336  279.11499023    4.90999985    2.11999989
   11.66388893  282.22500610    4.90999985    2.11999989
   11.66722298  288.80700684    4.90999985    2.13000011
   11.67055607  290.75601196    4.90999985    2.13000011
   11.67361164  275.08700562    4.90999985    2.13000011
   11.67694473  283.59899902    4.90999985    2.13000011
   11.68305588  283.59899902    4.90999985    2.13000011
   11.68722248  284.33401489    4.90999985    2.13000011
   11.69027805  274.95800781    4.90999985    2.13000011
   11.69138908  281.51098633    4.90999985    2.15000010
   11.69416714  277.77801514    4.90999985    2.13000011
   11.69722271  267.28601074    4.90999985    2.15000010
   11.70055580  280.47900391    4.90999985    2.15000010
   11.70388889  288.85400391    4.90999985    2.15000010
   11.70694447  280.17599487    4.90999985    2.15000010
   11.71027756  269.73001099    4.90999985    2.15000010
   11.71333313  273.15899658    4.90999985    2.17000008
   11.71666622  275.00601196    4.90999985    2.15000010
   11.71999931  257.46798706    4.90999985    2.17000008
   11.72583294  257.46798706    4.90999985    2.15000010
   11.72999954  265.20300293    4.90999985    2.17000008
   11.73305511  259.54299927    4.90999985    2.15000010
   11.73638916  273.31600952    4.90999985    2.17000008
   11.73972225  274.02301025    4.90999985    2.17000008
   11.74277782  266.90100098    4.90999985    2.17000008
   11.74611092  273.11199951    4.90999985    2.17000008
   11.74944496  260.21301270    4.90999985    2.17000008
   11.75249958  269.45800781    4.90999985    2.17000008
   11.75583363  259.75799561    4.90999985    2.19000006
   11.75805569  255.43299866    4.90999985    2.17000008
   11.75944424  258.44100952    4.90999985    2.17000008
   11.76249981  282.83700562    4.90999985    2.19000006
   11.76861095  282.83700562    4.90999985    2.19000006
   11.77277756  258.94500732    4.90999985    2.19000006
   11.77611065  263.41699219    4.90999985    2.19000006
   11.77916622  265.71398926    4.90999985    2.19000006
   11.78249931  268.98400879    4.90999985    2.19000006
   11.78583336  267.82101440    4.90999985    2.19000006
   11.78888893  259.42001343    4.90999985    2.21000004
   11.79138947  269.99798584    4.90999985    2.21000004
   11.79277802  253.41700745    4.90999985    2.21000004
   11.79583359  259.51599121    4.90999985    2.21000004
   11.79916668  269.53900146    4.90999985    2.19000006
   11.80249977  258.98800659    4.90999985    2.21000004
   11.80555534  261.70800781    4.90999985    2.21000004
   11.81138897  261.70800781    4.90999985    2.21000004
   11.81555557  260.19500732    4.90999985    2.21000004
   11.81888866  256.80700684    4.90999985    2.21000004
   11.82222176  242.31799316    4.90999985    2.21000004
   11.82472229  249.41700745    4.90999985    2.23000002
   11.82583332  246.85499573    4.90999985    2.21000004
   11.82888889  257.79400635    4.90999985    2.23000002
   11.83222198  262.98599243    4.90999985    2.23000002
   11.83555508  254.69299316    4.90999985    2.23000002
   11.83861065  259.23300171    4.90999985    2.23000002
   11.84194374  249.16999817    4.90999985    2.23000002
   11.84527779  232.22999573    4.90999985    2.23000002
   11.84833336  251.87699890    4.90999985    2.23000002
   11.85444450  251.87699890    4.90999985    2.23000002
   11.85861111  233.36999512    4.90999985    2.25000000
   11.86166668  230.72000122    4.90999985    2.25000000
   11.86500072  235.66600037    4.90999985    2.25000000
   11.86805534  234.44599915    4.90999985    2.23000002
   11.87138939  229.69400024    4.90999985    2.25000000
   11.87472248  232.81500244    4.90999985    2.25000000
   11.87777805  231.61799622    4.90999985    2.25000000
   11.88111115  234.64599609    4.90999985    2.25000000
   11.88444424  228.49200439    4.90999985    2.25000000
   11.88749981  224.16000366    4.90999985    2.25000000
   11.89083290  222.93200684    4.90999985    2.25000000
   11.89138889  220.84100342    4.90999985    2.25000000
   11.89722252  220.84100342    4.90999985    2.25000000
   11.90138817  227.80299377    4.90999985    2.25000000
   11.90444374  227.84899902    4.90999985    2.26999998
   11.90777779  238.35600281    4.90999985    2.25000000
   11.91111088  232.73399353    4.90999985    2.26999998
   11.91444397  230.50599670    4.90999985    2.26999998
   11.91750050  214.54800415    4.90999985    2.26999998
   11.92083359  224.59500122    4.90999985    2.26999998
   11.92388916  201.32600403    4.90999985    2.26999998
   11.92472267  234.25700378    4.90999985    2.26999998
   11.92777824  209.80299377    4.90999985    2.28999996
   11.93083382  228.62899780    4.90999985    2.28999996
   11.93416691  211.08900452    4.90999985    2.28999996
   11.94000053  211.08900452    4.90999985    2.28999996
   11.94416714  217.53500366    4.90999985    2.28999996
   11.94750023  210.00399780    4.90999985    2.28999996
   11.95055580  222.75999451    4.90999985    2.28999996
   11.95388889  214.77699280    4.90999985    2.28999996
   11.95722198  190.55499268    4.90999985    2.28999996
   11.95805550  216.06500244    4.90999985    2.28999996
   11.96083355  203.71699524    4.90999985    2.28999996
   11.96388912  216.91299438    4.90999985    2.30999994
   11.96722221  216.06700134    4.90999985    2.28999996
   11.97055531  219.77000427    4.90999985    2.30999994
   11.97361088  232.45199585    4.90999985    2.30999994
   11.97694397  230.35499573    4.90999985    2.30999994
   11.98277760  230.35499573    4.90999985    2.30999994
   11.98694515  200.29400635    4.90999985    2.30999994
   11.99027824  219.77900696    4.90999985    2.30999994
   11.99138927  193.60899353    4.90999985    2.30999994
   11.99388885  213.19200134    4.90999985    2.30999994
   11.99694443  222.63099670    4.90999985    2.30999994
   12.00027752  219.89399719    4.90999985    2.30999994
   12.00361156  183.32899475    4.90999985    2.32999992
   12.00666714  211.98300171    4.90999985    2.32999992
   12.01000023  203.14900208    4.90999985    2.32999992
   12.01333332  202.99099731    4.90999985    2.30999994
   12.01638889  203.07699585    4.90999985    2.30999994
   12.01972198  209.30700684    4.90999985    2.32999992
   12.02583313  209.30700684    4.90999985    2.32999992
   12.02999973  201.70599365    4.90999985    2.32999992
   12.03305531  214.89199829    4.90999985    2.32999992
   12.03638935  208.81700134    4.90999985    2.32999992
   12.03944492  218.65499878    4.90999985    2.32999992
   12.04277802  195.80799866    4.90999985    2.32999992
   12.04611111  204.82099915    4.90999985    2.34999990
   12.04916668  194.63900757    4.90999985    2.34999990
   12.05249977  196.08799744    4.90999985    2.32999992
   12.05583382  182.16299438    4.90999985    2.32999992
   12.05805588  187.51400757    4.90999985    2.32999992
   12.05944443  175.57499695    4.90999985    2.32999992
   12.06277752  202.62800598    4.90999985    2.32999992
   12.06861115  202.62800598    4.90999985    2.34999990
   12.07277775  192.55799866    4.90999985    2.34999990
   12.07583332  193.35200500    4.90999985    2.34999990
   12.07916641  210.95100403    4.90999985    2.34999990
   12.08249950  212.12100220    4.90999985    2.34999990
   12.08555508  196.88600159    4.90999985    2.34999990
   12.08888817  191.74600220    4.90999985    2.36999989
   12.09138870  199.51499939    4.90999985    2.34999990
   12.09249973  189.50000000    4.90999985    2.34999990
   12.09583282  202.43099976    4.90999985    2.34999990
   12.09888840  180.14799500    4.90999985    2.34999990
   12.10222244  195.88299561    4.90999985    2.36999989
   12.10527802  192.63200378    4.90999985    2.34999990
   12.11138916  192.63200378    4.90999985    2.34999990
   12.11555576  181.69799805    4.90999985    2.36999989
   12.11888885  173.16799927    4.90999985    2.36999989
   12.12194443  184.48199463    4.90999985    2.36999989
   12.12472248  187.99099731    4.90999985    2.36999989
   12.12555599  199.09500122    4.90999985    2.36999989
   12.12888908  187.65499878    4.90999985    2.36999989
   12.13194466  187.66900635    4.90999985    2.36999989
   12.13638878  197.29200745    4.90999985    2.36999989
   12.13944435  173.73500061    4.90999985    2.36999989
   12.14277744  185.95599365    4.90999985    2.36999989
   12.14611053  196.26899719    4.90999985    2.36999989
   12.14916611  193.90499878    4.90999985    2.36999989
   12.15416622  193.90499878    4.90999985    2.39000010
   12.15833282  200.78599548    4.90999985    2.39000010
   12.16166592  175.50399780    4.90999985    2.39000010
   12.16499996  181.59399414    4.90999985    2.39000010
   12.16805553  169.84800720    4.90999985    2.39000010
   12.17138958  178.44599915    4.90999985    2.36999989
   12.17444515  183.53300476    4.90999985    2.39000010
   12.17777824  176.82299805    4.90999985    2.39000010
   12.18111134  173.98699951    4.90999985    2.39000010
   12.18416691  158.79600525    4.90999985    2.39000010
   12.18750000  171.23899841    4.90999985    2.39000010
   12.19083309  200.03799438    4.90999985    2.39000010
   12.19138908  158.83500671    4.90999985    2.39000010
   12.19722271  158.83500671    4.90999985    2.39000010
   12.20111084  184.86799622    4.90999985    2.39000010
   12.20444393  162.60400391    4.90999985    2.39000010
   12.20777798  190.33299255    4.90999985    2.39000010
   12.21083355  172.99600220    4.90999985    2.39000010
   12.21416664  155.39799500    4.90999985    2.39000010
   12.21749973  154.54699707    4.90999985    2.39000010
   12.22055531  163.36900330    4.90999985    2.40000010
   12.22388840  157.51699829    4.90999985    2.39000010
   12.22472191  163.81500244    4.90999985    2.40000010
   12.22749996  167.78300476    4.90999985    2.40000010
   12.23083305  173.62300110    4.90999985    2.40000010
   12.23388958  164.21400452    4.90999985    2.40000010
   12.24000072  164.21400452    4.90999985    2.40000010
   12.24416733  158.25100708    4.90999985    2.40000010
   12.24722290  171.01199341    4.90999985    2.40000010
   12.25055599  147.43600464    4.90999985    2.40000010
   12.25388908  163.16600037    4.90999985    2.40000010
   12.25694466  163.26400757    4.90999985    2.40000010
   12.27416611  164.59700012    4.90999985    2.40000010
   12.27694416  144.00399780    4.90999985    2.40000010
   12.28305531  144.00399780    4.90999985    2.40000010
   12.28722286  172.34899902    4.90999985    2.40000010
   12.29027843  167.79200745    4.90999985    2.40000010
   12.29361153  133.40899658    4.90999985    2.40000010
   12.29694462  151.22200012    4.90999985    2.42000008
   12.30000019  139.86799622    4.90999985    2.40000010
   12.30333328  143.70500183    4.90999985    2.42000008
   12.30666733  168.82699585    4.90999985    2.42000008
   12.30749989  149.72099304    4.90999985    2.42000008
   12.31027794  149.17700195    4.90999985    2.40000010
   12.31333351  147.54299927    4.90999985    2.42000008
   12.31666660  133.10099792    4.90999985    2.42000008
   12.31972218  144.44400024    4.90999985    2.42000008
   12.32583332  144.44400024    4.90999985    2.42000008
   12.32999992  162.67399597    4.90999985    2.42000008
   12.33333302  159.74800110    4.90999985    2.42000008
   12.33666611  161.31399536    4.90999985    2.42000008
   12.33972168  142.56500244    4.90999985    2.44000006
   12.34083271  146.15600586    4.90999985    2.42000008
   12.34361076  164.04699707    4.90999985    2.42000008
   12.34666634  144.12300110    4.90999985    2.42000008
   12.35000038  149.45500183    4.90999985    2.42000008
   12.35333347  156.37800598    4.90999985    2.42000008
   12.35638905  141.93400574    4.90999985    2.42000008
   12.35972214  144.64399719    4.90999985    2.44000006
   12.36305618  126.44100189    4.90999985    2.42000008
   12.36861134  126.44100189    4.90999985    2.44000006
   12.37277794  157.91099548    4.90999985    2.44000006
   12.37416649  136.66400146    4.90999985    2.44000006
   12.37666702  153.43600464    4.90999985    2.44000006
   12.37972260  129.65600586    4.90999985    2.44000006
   12.38305569  134.25799561    4.90999985    2.44000006
   12.38638878  150.87500000    4.90999985    2.44000006
   12.38944435  119.31600189    4.90999985    2.44000006
   12.39277744  152.26699829    4.90999985    2.44000006
   12.39583302  140.62899780    4.90999985    2.46000004
   12.39916611  160.86099243    4.90999985    2.46000004
   12.40249920  137.72000122    4.90999985    2.44000006
   12.40555477  135.27000427    4.90999985    2.46000004
   12.40749931  157.80499268    4.90999985    2.46000004
   12.41166592  157.80499268    4.90999985    2.44000006
   12.41583252  156.58099365    4.90999985    2.44000006
   12.41888905  119.00199890    4.90999985    2.46000004
   12.42222214  145.41600037    4.90999985    2.46000004
   12.42555618  140.69799805    4.90999985    2.46000004
   12.42888927  142.26199341    4.90999985    2.46000004
   12.43194485  138.87800598    4.90999985    2.46000004
   12.43527794  148.75900269    4.90999985    2.46000004
   12.43833351  139.31399536    4.90999985    2.46000004
   12.44083309  156.70899963    4.90999985    2.46000004
   12.44222260  145.53300476    4.90999985    2.46000004
   12.44527817  148.26600647    4.90999985    2.46000004
   12.44861126  136.14700317    4.90999985    2.46000004
   12.45444393  136.14700317    4.90999985    2.46000004
   12.45861053  142.23899841    4.90999985    2.46000004
   12.46194458  148.79200745    4.90999985    2.46000004
   12.46500015  145.13200378    4.90999985    2.46000004
   12.46833324  143.07099915    4.90999985    2.48000002
   12.47166634  149.53799438    4.90999985    2.46000004
   12.47416592  150.54200745    4.90999985    2.46000004
   12.47527695  136.95399475    4.90999985    2.46000004
   12.47833252  135.20599365    4.90999985    2.46000004
   12.48166656  140.82400513    4.90999985    2.46000004
   12.48500061  133.89599609    4.90999985    2.46000004
   12.48805618  136.84300232    4.90999985    2.46000004
   12.49138927  137.70500183    4.90999985    2.48000002
   12.49722290  137.70500183    4.90999985    2.46000004
   12.50138855  133.35099792    4.90999985    2.46000004
   12.50472260  122.95200348    4.90999985    2.46000004
   12.50749969  124.43599701    4.90999985    2.48000002
   12.50833321  110.28800201    4.90999985    2.46000004
   12.51138878  122.94799805    4.90999985    2.48000002
   12.51472187  114.01899719    4.90999985    2.48000002
   12.51805496  110.28199768    4.90999985    2.48000002
   12.52111053  134.16400146    4.90999985    2.48000002
   12.52444458  132.27200317    4.90999985    2.48000002
   12.52750015  132.91400146    4.90999985    2.46000004
   12.53083324   92.16770172    4.90999985    2.48000002
   12.53416729  135.86999512    4.90999985    2.48000002
   12.54027843  135.86999512    4.90999985    2.48000002
   12.54444504  118.78399658    4.90999985    2.48000002
   12.54750061  111.23100281    4.90999985    2.48000002
   12.55083370  133.66600037    4.90999985    2.48000002
   12.55388927  134.93699646    4.90999985    2.48000002
   12.55722237  112.95600128    4.90999985    2.48000002
   12.56055546  128.45500183    4.90999985    2.48000002
   12.56361103  134.91099548    4.90999985    2.48000002
   12.56694412  138.50999451    4.90999985    2.48000002
   12.57027817  116.83999634    4.90999985    2.48000002
   12.57333374  115.47899628    4.90999985    2.50000000
   12.57527733  132.21099854    4.90999985    2.50000000
   12.57722187  121.44499969    4.90999985    2.48000002
   12.58305550  121.44499969    4.90999985    2.48000002
   12.58722210  121.54299927    4.90999985    2.48000002
   12.59027767  101.11100006    4.90999985    2.48000002
   12.59416676  133.41700745    4.90999985    2.50000000
   12.59722233  125.64199829    4.90999985    2.50000000
   12.60055637  125.65699768    4.90999985    2.50000000
   12.60361195  107.63700104    4.90999985    2.50000000
   12.60694504  117.11900330    4.90999985    2.50000000
   12.60861111  129.70399475    4.90999985    2.50000000
   12.61083412  100.36699677    4.90999985    2.50000000
   12.61388969  112.19200134    4.90999985    2.50000000
   12.61722279  123.91899872    4.90999985    2.48000002
   12.62027836  106.86299896    4.90999985    2.50000000
   12.62583351  106.86299896    4.90999985    2.50000000
   12.63000011  133.55299377    4.90999985    2.50000000
   12.63333321  114.46800232    4.90999985    2.50000000
   12.63638878  119.96499634    4.90999985    2.51999998
   12.63972187  114.29100037    4.90999985    2.51999998
   12.64222240  117.59700012    4.90999985    2.50000000
   12.64333344  103.89900208    4.90999985    2.51999998
   12.64666653  132.35299683    4.90999985    2.50000000
   12.64999962  127.65299988    4.90999985    2.50000000
   12.65305519  121.63400269    4.90999985    2.50000000
   12.65638828  132.84399414    4.90999985    2.50000000
   12.65944386  116.54000092    4.90999985    2.50000000
   12.66277695  130.86799622    4.90999985    2.51999998
   12.66861153  130.86799622    4.90999985    2.51999998
   12.67277813  116.02600098    4.90999985    2.51999998
   12.67555618  106.11499786    4.90999985    2.50000000
   12.67638874  106.95899963    4.90999985    2.51999998
   12.67972279  120.69999695    4.90999985    2.50000000
   12.68305588  108.65100098    4.90999985    2.50000000
   12.68611145  100.59100342    4.90999985    2.51999998
   12.68944454  115.07599640    4.90999985    2.51999998
   12.69250011  109.16899872    4.90999985    2.50000000
   12.69583321  109.76499939    4.90999985    2.51999998
   12.69916630  110.77799988    4.90999985    2.51999998
   12.70222187  106.11799622    4.90999985    2.51999998
   12.70555496   97.28559875    4.90999985    2.51999998
   12.71166611   97.28559875    4.90999985    2.51999998
   12.71583271   97.63150024    4.90999985    2.51999998
   12.71888828   90.87740326    4.90999985    2.51999998
   12.72222137  101.70700073    4.90999985    2.53999996
   12.72527695  102.84400177    4.90999985    2.51999998
   12.72861099  103.68499756    4.90999985    2.51999998
   12.73194408  100.35299683    4.90999985    2.51999998
   12.73500061   98.90229797    4.90999985    2.51999998
   12.73833370  126.21099854    4.90999985    2.53999996
   12.74166679  102.08200073    4.90999985    2.51999998
   12.74250031   95.47959900    4.90999985    2.51999998
   12.74527836  108.37200165    4.90999985    2.50000000
   12.74833393   98.46640015    4.90999985    2.51999998
   12.75444412   98.46640015    4.90999985    2.51999998
   12.75861073  105.15100098    4.90999985    2.53999996
   12.76194477   93.35520172    4.90999985    2.53999996
   12.76500034   93.92019653    4.90999985    2.53999996
   12.76833344  122.34799957    4.90999985    2.53999996
   12.77138901  113.53800201    4.90999985    2.51999998
   12.77472210   98.96289825    4.90999985    2.53999996
   12.77583313  125.67299652    4.90999985    2.53999996
   12.77861118   98.00949860    4.90999985    2.53999996
   12.78166676   99.37619781    4.90999985    2.53999996
   12.78500080  114.48699951    4.90999985    2.53999996
   12.78805637  116.60199738    4.90999985    2.53999996
   12.79138947   99.60269928    4.90999985    2.53999996
   12.79722309   99.60269928    4.90999985    2.53999996
   12.80138874   98.43240356    4.90999985    2.53999996
   12.80472279   96.66639709    4.90999985    2.53999996
   12.80777836  100.45899963    4.90999985    2.53999996
   12.80944443  104.01599884    4.90999985    2.53999996
   12.81138897  106.15000153    4.90999985    2.55999994
   12.81472206  125.50199890    4.90999985    2.53999996
   12.81805515   97.87000275    4.90999985    2.53999996
   12.82111073   96.65380096    4.90999985    2.55999994
   12.82444477   94.23970032    4.90999985    2.53999996
   12.82750034  116.31199646    4.90999985    2.53999996
   12.83083344  118.21900177    4.90999985    2.53999996
   12.83416653  100.44799805    4.90999985    2.53999996
   12.84000015  100.44799805    4.90999985    2.55999994
   12.84416676   97.90440369    4.90999985    2.53999996
   12.84749985  104.85099792    4.90999985    2.55999994
   12.85083389   99.39499664    4.90999985    2.55999994
   12.85388947   96.42870331    4.90999985    2.55999994
   12.85722256   97.53109741    4.90999985    2.53999996
   12.86027813   99.55560303    4.90999985    2.53999996
   12.86416721  102.01200104    4.90999985    2.55999994
   12.86750031  100.96399689    4.90999985    2.55999994
   12.87055588  106.31900024    4.90999985    2.55999994
   12.87388897  100.85500336    4.90999985    2.55999994
   12.87611103   97.63760376    4.90999985    2.55999994
   12.87750053   95.67590332    4.90999985    2.55999994
   12.88305569   95.67590332    4.90999985    2.55999994
   12.88722229   98.95210266    4.90999985    2.53999996
   12.89027786  106.50199890    4.90999985    2.55999994
   12.89361095  103.47899628    4.90999985    2.55999994
   12.89666653   98.70330048    4.90999985    2.55999994
   12.89999962  106.30899811    4.90999985    2.55999994
   12.90333271  108.18699646    4.90999985    2.53999996
   12.90638828   99.64820099    4.90999985    2.55999994
   12.90944386   97.15899658    4.90999985    2.57999992
   12.90999985  103.28600311    4.90999985    2.57999992
   12.91333294  104.53700256    4.90999985    2.55999994
   12.91666698  106.29900360    4.90999985    2.55999994
   12.91972256  111.11000061    4.90999985    2.55999994
   12.92583370  111.11000061    4.90999985    2.55999994
   12.93000031   92.80449677    4.90999985    2.55999994
   12.93305588  103.14099884    4.90999985    2.55999994
   12.93638897  114.60800171    4.90999985    2.55999994
   12.93972206  111.05200195    4.90999985    2.57999992
   12.94277763   97.46109772    4.90999985    2.57999992
   12.94305515  100.70200348    4.90999985    2.57999992
   12.94638920   98.73139954    4.90999985    2.57999992
   12.94972229  112.79000092    4.90999985    2.55999994
   12.95277786   97.05729675    4.90999985    2.55999994
   12.95611095   98.30770111    4.90999985    2.57999992
   12.95916653  106.33799744    4.90999985    2.55999994
   12.96249962   98.36660004    4.90999985    2.57999992
   12.96861076   98.36660004    4.90999985    2.57999992
   12.97277737   98.08640289    4.90999985    2.57999992
   12.97611046  102.76200104    4.90999985    2.57999992
   12.97638798   97.71189880    4.90999985    2.57999992
   12.97972202  118.41500092    4.90999985    2.55999994
   12.98305511  107.37699890    4.90999985    2.57999992
   12.98611164  104.44000244    4.90999985    2.57999992
   12.98944473  100.86499786    4.90999985    2.55999994
   12.99250031  102.62599945    4.90999985    2.57999992
   12.99583340  104.48799896    4.90999985    2.57999992
   12.99916649  108.01200104    4.90999985    2.59999990
   13.00222206  102.01699829    4.90999985    2.55999994
   13.00555515  107.54399872    4.90999985    2.57999992
   13.01138878  107.54399872    4.90999985    2.55999994
   13.01555538   95.38169861    4.90999985    2.57999992
   13.01888847   89.15329742    4.90999985    2.57999992
   13.02194405   97.66690063    4.90999985    2.57999992
   13.02527714  103.75499725    4.90999985    2.57999992
   13.02861118  105.66999817    4.90999985    2.55999994
   13.03166676  110.05000305    4.90999985    2.57999992
   13.03500080  102.82299805    4.90999985    2.59999990
   13.03805637  101.44699860    4.90999985    2.57999992
   13.04138947   95.49089813    4.90999985    2.59999990
   13.04277802   97.53260040    4.90999985    2.57999992
   13.04500008   97.52559662    4.90999985    2.59999990
   13.04833412   97.53600311    4.90999985    2.59999990
   13.05444431   97.53600311    4.90999985    2.57999992
   13.05833340  107.84999847    4.90999985    2.57999992
   13.06166649  105.80200195    4.90999985    2.59999990
   13.06500053  101.65200043    4.90999985    2.59999990
   13.06805515  111.02300262    4.90999985    2.59999990
   13.07138920   99.86799622    4.90999985    2.59999990
   13.07472229  107.39900208    4.90999985    2.59999990
   13.07611084  105.80300140    4.90999985    2.59999990
   13.07805538  106.44699860    4.90999985    2.59999990
   13.08138847   93.17970276    4.90999985    2.59999990
   13.08472157  107.85700226    4.90999985    2.59999990
   13.08777714   99.54959869    4.90999985    2.59999990
   13.09111118  101.61299896    4.90999985    2.59999990
   13.09722233  101.61299896    4.90999985    2.59999990
   13.10138893   99.89550018    4.90999985    2.59999990
   13.10444450   98.63330078    4.90999985    2.59999990
   13.10777855  100.69200134    4.90999985    2.59999990
   13.10944462  103.35800171    4.90999985    2.59999990
   13.11138916  103.05100250    4.90999985    2.59999990
   13.11472225  104.37999725    4.90999985    2.59999990
   13.11777782   98.99729919    4.90999985    2.59999990
   13.12111092  103.96299744    4.90999985    2.57999992
   13.12444496  101.78900146    4.90999985    2.59999990
   13.12750053  101.98500061    4.90999985    2.59999990
   13.13083363   95.74530029    4.90999985    2.59999990
   13.13416672   96.71320343    4.90999985    2.59999990
   13.14000034   96.71320343    4.90999985    2.59999990
   13.14416695  104.25299835    4.90999985    2.61999989
   13.14750004   96.52449799    4.90999985    2.61999989
   13.15055561   99.12449646    4.90999985    2.61999989
   13.15388870   95.33480072    4.90999985    2.59999990
   13.15722179   96.03079987    4.90999985    2.59999990
   13.26222229   -1.00000000   -1.00000000   -1.00000000
   13.36055565   -1.00000000   -1.00000000   -1.00000000
   13.46249962   -1.00000000   -1.00000000   -1.00000000
   13.49722290   70.21450043    0.28000000    0.07000000
   13.50055599   92.57640076    0.28000000    0.07000000
   13.50361156  109.32800293    0.28000000    0.07000000
   13.50694466  108.51000214    0.28000000    0.07000000
   13.51027775  107.49400330    0.28000000    0.07000000
   13.51333332  106.58300018    0.28000000    0.07000000
   13.51749992  106.58300018    0.28000000    0.07000000
   13.52166653  111.93800354    0.28000000    0.07000000
   13.52499962  107.01699829    0.28000000    0.07000000
   13.52833271   93.65390015    0.28000000    0.07000000
   13.53055573  101.90599823    0.28000000    0.07000000
   13.53166676   96.92659760    0.28000000    0.07000000
   13.53500080  109.65100098    0.28000000    0.07000000
   13.53833389   98.78440094    0.28000000    0.07000000
   13.54138947  106.50900269    0.28000000    0.07000000
   13.54472256  108.08699799    0.28000000    0.07000000
   13.54805565  100.62599945    0.28000000    0.07000000
   13.55111122  119.45700073    0.28000000    0.07000000
   13.55444431  146.00999451    0.28000000    0.07000000
   13.56027794  146.00999451    0.28000000    0.07000000
   13.56444454  120.61599731    0.28000000    0.07000000
   13.56777763  103.84300232    0.28000000    0.07000000
   13.57083321  110.88300323    0.28000000    0.07000000
   13.57416630  115.14499664    0.28000000    0.07000000
   13.57750034  108.50800323    0.28000000    0.07000000
   13.58055592  109.48400116    0.28000000    0.07000000
   13.58388901  103.34999847    0.28000000    0.07000000
   13.58694458  102.39199829    0.28000000    0.07000000
   13.59027767  103.73699951    0.28000000    0.07000000
   13.59361076  100.94400024    0.28000000    0.07000000
   13.59694386  101.09600067    0.28000000    0.07000000
   13.59749985  105.26000214    0.28000000    0.07000000
   13.60333347  105.26000214    0.28000000    0.07000000
   13.60750008  117.53500366    0.28000000    0.07000000
   13.61083412  101.30500031    0.28000000    0.07000000
   13.61388969  100.82299805    0.28000000    0.07000000
   13.61722279  100.16699982    0.28000000    0.07000000
   13.62055588  101.95500183    0.28000000    0.07000000
   13.62361145   96.69660187    0.28000000    0.07000000
   13.62694454   96.17299652    0.28000000    0.07000000
   13.63000011   98.08799744    0.28000000    0.07000000
   13.63083363  101.00599670    0.28000000    0.07000000
   13.63388920   98.04759979    0.28000000    0.07000000
   13.63722229   99.18930054    0.28000000    0.07000000
   13.64027786   92.95749664    0.28000000    0.07000000
   13.64694405   92.95749664    0.28000000    0.07000000
   13.65111065  103.11499786    0.28000000    0.07000000
   13.65416622  101.68599701    0.28000000    0.07000000
   13.65749931  108.88300323    0.28000000    0.07000000
   13.66083336  102.40200043    0.28000000    0.07000000
   13.66416645   96.93830109    0.28000000    0.07000000
   13.66472149   99.67669678    0.28000000    0.07000000
   13.66777802  102.55200195    0.28000000    0.07000000
   13.67111111  102.25000000    0.28000000    0.07000000
   13.67444515  101.38200378    0.28000000    0.07000000
   13.67750072  104.96600342    0.28000000    0.07000000
   13.68083382  102.56800079    0.28000000    0.07000000
   13.68416691   92.99530029    0.28000000    0.07000000
   13.68888855   92.99530029    0.28000000    0.07000000
   13.69305515   95.95390320    0.28000000    0.07000000
   13.69638920   93.23799896    0.28000000    0.07000000
   13.69750023  102.15499878    0.28000000    0.07000000
   13.70027733  100.44000244    0.28000000    0.07000000
   13.70361137   98.82260132    0.28000000    0.07000000
   13.70666695  100.84300232    0.28000000    0.07000000
   13.71000004   91.57230377    0.28000000    0.07000000
   13.71305561  103.05999756    0.28000000    0.07000000
   13.71638870   93.50730133    0.28000000    0.07000000
   13.71972179  102.95300293    0.28000000    0.07000000
   13.72277737  101.80000305    0.28000000    0.07000000
   13.72611046   97.08090210    0.28000000    0.07000000
   13.73166656   97.08090210    0.28000000    0.07000000
   13.73583317   95.48560333    0.28000000    0.07000000
   13.73916721   92.53620148    0.28000000    0.07000000
   13.74222279  105.58699799    0.28000000    0.07000000
   13.74555588  100.76000214    0.28000000    0.07000000
   13.74888897  105.45500183    0.28000000    0.07000000
   13.75194454   96.89440155    0.28000000    0.07000000
   13.75527763  101.23300171    0.28000000    0.07000000
   13.75833321  102.30500031    0.28000000    0.07000000
   13.76166630   93.83670044    0.28000000    0.07000000
   13.76416683   98.30239868    0.28000000    0.07000000
   13.76527786   93.84510040    0.28000000    0.07000000
   13.76861095   92.73040009    0.28000000    0.07000000
   13.77472210   92.73040009    0.28000000    0.07000000
   13.77861118  103.23300171    0.28000000    0.07000000
   13.78194427  102.95700073    0.28000000    0.07000000
   13.78527832  101.84300232    0.28000000    0.07000000
   13.78833389  104.08100128    0.28000000    0.07000000
   13.79166698  106.48100281    0.28000000    0.07000000
   13.79472256  102.37100220    0.28000000    0.07000000
   13.79750061  101.17500305    0.28000000    0.07000000
   13.79833412   99.21170044    0.28000000    0.07000000
   13.80166721   99.25150299    0.28000000    0.07000000
   13.80472279   97.55629730    0.28000000    0.07000000
   13.80805588  100.43299866    0.28000000    0.07000000
   13.81138897  105.33999634    0.28000000    0.07000000
   13.81750011  105.33999634    0.28000000    0.07000000
   13.82166672  100.41200256    0.28000000    0.07000000
   13.82472229   98.32150269    0.28000000    0.07000000
   13.82805538  102.44200134    0.28000000    0.07000000
   13.83083344  105.74400330    0.28000000    0.07000000
   13.83166695   99.56929779    0.28000000    0.07000000
   13.83500004  101.09600067    0.28000000    0.07000000
   13.83833313   93.79810333    0.28000000    0.07000000
   13.84138870   97.38059998    0.28000000    0.07000000
   13.84472179   98.75250244    0.28000000    0.07000000
   13.84805489   99.83809662    0.28000000    0.07000000
   13.85111141   99.38150024    0.28000000    0.07000000
   13.85444450  101.11699677    0.28000000    0.07000000
   13.86027813  101.11699677    0.28000000    0.07000000
   13.86444473   94.48909760    0.28000000    0.07000000
   13.86750031   97.17420197    0.28000000    0.07000000
   13.87083340   93.32759857    0.28000000    0.07000000
   13.87416649  106.43499756    0.28000000    0.07000000
   13.87722206   99.77670288    0.28000000    0.07000000
   13.88055611  103.97299957    0.28000000    0.07000000
   13.88388920  105.13800049    0.28000000    0.07000000
   13.88694477  104.26899719    0.28000000    0.07000000
   13.89027786  100.98100281    0.28000000    0.07000000
   13.89333344   94.45700073    0.28000000    0.07000000
   13.89666653   98.97380066    0.28000000    0.07000000
   13.89750004  101.82700348    0.28000000    0.07000000
   13.90305519  101.82700348    0.28000000    0.07000000
   13.90722179   94.83180237    0.28000000    0.07000000
   13.91055489   97.46309662    0.28000000    0.07000000
   13.91361046   97.33499908    0.28000000    0.07000000
   13.91694450   98.33360291    0.28000000    0.07000000
   13.92027855   96.41259766    0.28000000    0.07000000
   13.92333412   95.44270325    0.28000000    0.07000000
   13.92666721  100.69999695    0.28000000    0.07000000
   13.93000031   97.69580078    0.28000000    0.07000000
   13.93083382   95.18129730    0.28000000    0.07000000
   13.93333340   98.51529694    0.28000000    0.07000000
   13.93666649   99.20040131    0.28000000    0.07000000
   13.94000053  105.68000031    0.28000000    0.07000000
   13.94583321  105.68000031    0.28000000    0.07000000
   13.94999981  109.20300293    0.28000000    0.07000000
   13.95333290   98.96170044    0.28000000    0.07000000
   13.95666695  103.71700287    0.28000000    0.07000000
   13.95972157  110.87899780    0.28000000    0.07000000
   13.96305561  107.01000214    0.28000000    0.07000000
   13.96416664  101.43199921    0.28000000    0.07000000
   13.96666622  107.27400208    0.28000000    0.07000000
   13.96999931   98.22879791    0.28000000    0.07000000
   13.97333336  106.44999695    0.28000000    0.07000000
   13.97638798   99.31719971    0.28000000    0.07000000
   13.97972202  102.00199890    0.28000000    0.07000000
   13.98277760  100.19899750    0.28000000    0.07000000
   13.98888874  100.19899750    0.28000000    0.07000000
   13.99305534   95.61049652    0.28000000    0.07000000
   13.99611092   99.36019897    0.28000000    0.07000000
   13.99750042   93.43779755    0.28000000    0.07000000
   13.99972248  100.62799835    0.28000000    0.07000000
   14.00305557  101.25499725    0.28000000    0.07000000
   14.00638866  105.58799744    0.28000000    0.07000000
   14.00944424  100.48999786    0.28000000    0.07000000
   14.01277733   97.99410248    0.28000000    0.07000000
   14.01583290  104.99500275    0.28000000    0.07000000
   14.01916599  100.93000031    0.28000000    0.07000000
   14.02250004  100.76000214    0.28000000    0.07000000
   14.02555561   97.93869781    0.28000000    0.07000000
   14.03166676   97.93869781    0.28000000    0.07000000
   14.03583336  103.02200317    0.28000000    0.07000000
   14.03888893  107.24099731    0.28000000    0.07000000
   14.04222298  100.06300354    0.28000000    0.07000000
   14.04555607   96.92089844    0.28000000    0.07000000
   14.04861164   98.30010223    0.28000000    0.07000000
   14.05194473   94.03939819    0.28000000    0.07000000
   14.05527782  100.52799988    0.28000000    0.07000000
   14.05916691   95.70230103    0.28000000    0.07000000
   14.06222248   99.92410278    0.28000000    0.07000000
   14.06416702  104.56900024    0.28000000    0.07000000
   14.06583309   95.34690094    0.28000000    0.07000000
   14.06916618   96.50489807    0.28000000    0.07000000
   14.07444477   96.50489807    0.28000000    0.07000000
   14.07861137  105.07499695    0.28000000    0.07000000
   14.08194447  105.89600372    0.28000000    0.07000000
   14.08500004   97.29280090    0.28000000    0.07000000
   14.08833313  105.97100067    0.28000000    0.07000000
   14.09166622  101.87500000    0.28000000    0.07000000
   14.09472179  101.24900055    0.28000000    0.07000000
   14.09749985  100.23999786    0.28000000    0.07000000
   14.09833336  102.13700104    0.28000000    0.07000000
   14.10166740   97.29209900    0.28000000    0.07000000
   14.10500050   96.86530304    0.28000000    0.07000000
   14.10805607   91.62830353    0.28000000    0.07000000
   14.11138916   98.97989655    0.28000000    0.07000000
   14.11722279   98.97989655    0.28000000    0.07000000
   14.12138939   93.89399719    0.28000000    0.07000000
   14.12472248   97.13240051    0.28000000    0.07000000
   14.12805557  102.64299774    0.28000000    0.07000000
   14.13083363   99.19259644    0.28000000    0.07000000
   14.13138866   95.83300018    0.28000000    0.07000000
   14.13472176   99.83290100    0.28000000    0.07000000
   14.13805580  100.17500305    0.28000000    0.07000000
   14.14111137  101.61599731    0.28000000    0.07000000
   14.14444447   96.46720123    0.28000000    0.07000000
   14.14750004   96.50460052    0.28000000    0.07000000
   14.15083313   94.99870300    0.28000000    0.07000000
   14.15416622   95.04329681    0.28000000    0.07000000
   14.16027737   95.04329681    0.28000000    0.07000000
   14.16444397   96.36900330    0.28000000    0.07000000
   14.16750050   98.56469727    0.28000000    0.07000000
   14.17083359  101.36100006    0.28000000    0.07000000
   14.17388916  101.63500214    0.28000000    0.07000000
   14.17722225   96.30619812    0.28000000    0.07000000
   14.18055630  100.88300323    0.28000000    0.07000000
   14.18361092   96.93569946    0.28000000    0.07000000
   14.18694496   96.26010132    0.28000000    0.07000000
   14.19027805  100.94599915    0.28000000    0.07000000
   14.19333363   98.66819763    0.28000000    0.07000000
   14.19666672   98.70719910    0.28000000    0.07000000
   14.19750023   97.52850342    0.28000000    0.07000000
   14.20305538   97.52850342    0.28000000    0.07000000
   14.20722198   96.47499847    0.28000000    0.07000000
   14.21027756   92.12270355    0.28000000    0.07000000
   14.21361065  101.17299652    0.28000000    0.07000000
   14.21694374  101.79399872    0.28000000    0.07000000
   14.21999931  100.86699677    0.28000000    0.07000000
   14.22333336   95.49749756    0.28000000    0.07000000
   14.22666645   99.72959900    0.28000000    0.07000000
   14.22972202   99.78869629    0.28000000    0.07000000
   14.23083305  101.13999939    0.28000000    0.07000000
   14.23333359   97.02700043    0.28000000    0.07000000
   14.23666668  100.95999908    0.28000000    0.07000000
   14.24000072   97.03099823    0.28000000    0.07000000
   14.24583340   97.03099823    0.28000000    0.07000000
   14.25000000  103.70300293    0.28000000    0.07000000
   14.25333309   94.85569763    0.28000000    0.07000000
   14.25638866  100.53600311    0.28000000    0.07000000
   14.25972176   98.90550232    0.28000000    0.07000000
   14.26305580   93.84839630    0.28000000    0.07000000
   14.26416683   93.39800262    0.28000000    0.07000000
   14.26638889  104.88500214    0.28000000    0.07000000
   14.26972198   95.89209747    0.28000000    0.07000000
   14.27305508   96.61750031    0.28000000    0.07000000
   14.27611065   94.32569885    0.28000000    0.07000000
   14.27944374   97.55740356    0.28000000    0.07000000
   14.28277779   95.13839722    0.28000000    0.07000000
   14.28861141   95.13839722    0.28000000    0.07000000
   14.29277802   96.97480011    0.28000000    0.07000000
   14.29611111   96.91439819    0.28000000    0.07000000
   14.29750061   99.53980255    0.28000000    0.07000000
   14.29972267   95.41419983    0.28000000    0.07000000
   14.30305576   97.05339813    0.28000000    0.07000000
   14.30638885   99.77539825    0.28000000    0.07000000
   14.30944443   94.78610229    0.28000000    0.07000000
   14.31277752   96.69259644    0.28000000    0.07000000
   14.31611156  100.19200134    0.28000000    0.07000000
   14.31916618   96.32630157    0.28000000    0.07000000
   14.32250023   99.13469696    0.28000000    0.07000000
   14.32555580   99.87860107    0.28000000    0.07000000
   14.33166695   99.87860107    0.28000000    0.07000000
   14.33583260   92.12149811    0.28000000    0.07000000
   14.33888817   96.85569763    0.28000000    0.07000000
   14.34277725   96.47509766    0.28000000    0.07000000
   14.34611034   96.42070007    0.28000000    0.07000000
   14.34944439   92.06259918    0.28000000    0.07000000
   14.35249996   98.10489655    0.28000000    0.07000000
   14.35583401   97.53410339    0.28000000    0.07000000
   14.35916710   97.96790314    0.28000000    0.07000000
   14.36222267   96.73010254    0.28000000    0.07000000
   14.36416721   98.06079865    0.28000000    0.07000000
   14.36583328   97.31089783    0.28000000    0.07000000
   14.36916637   95.00990295    0.28000000    0.07000000
   14.37444496   95.00990295    0.28000000    0.07000000
   14.37861156  101.06999969    0.28000000    0.07000000
   14.38166714   97.09860229    0.28000000    0.07000000
   14.38500023   98.53479767    0.28000000    0.07000000
   14.38833332   96.44930267    0.28000000    0.07000000
   14.39138889   99.99220276    0.28000000    0.07000000
   14.39472198   95.81310272    0.28000000    0.07000000
   14.39750004   91.59999847    0.28000000    0.07000000
   14.39833355   96.45330048    0.28000000    0.07000000
   14.40166664  103.60199738    0.28000000    0.07000000
   14.40499973   98.66359711    0.28000000    0.07000000
   14.40805531   96.84269714    0.28000000    0.07000000
   14.41138840   95.05229950    0.28000000    0.07000000
   14.41722298   95.05229950    0.28000000    0.07000000
   14.42138958   98.37729645    0.28000000    0.07000000
   14.42472267   95.71990204    0.28000000    0.07000000
   14.42777824   99.80039978    0.28000000    0.07000000
   14.43083382  102.83200073    0.28000000    0.07000000
   14.43138885   94.53569794    0.28000000    0.07000000
   14.43472195  100.68000031    0.28000000    0.07000000
   14.43805599   94.06030273    0.28000000    0.07000000
   14.44111156   98.30860138    0.28000000    0.07000000
   14.44444466  100.18900299    0.28000000    0.07000000
   14.44777775   93.03140259    0.28000000    0.07000000
   14.45083332   99.56939697    0.28000000    0.07000000
   14.45416641   93.53500366    0.28000000    0.07000000
   14.46000004   93.53500366    0.28000000    0.07000000
   14.46416664   91.35949707    0.28000000    0.07000000
   14.46749973   89.15750122    0.28000000    0.07000000
   14.47055531   94.03130341    0.28000000    0.07000000
   14.47388840   99.57550049    0.28000000    0.07000000
   14.47722149   95.54010010    0.28000000    0.07000000
   14.48027706  100.95600128    0.28000000    0.07000000
   14.48361111   93.12670135    0.28000000    0.07000000
   14.48694515   94.68730164    0.28000000    0.07000000
   14.49000072   97.78939819    0.28000000    0.07000000
   14.49333382   95.53700256    0.28000000    0.07000000
   14.49638939   89.84300232    0.28000000    0.07000000
   14.49750042   94.70300293    0.28000000    0.07000000
   14.51805496   94.70300293    0.28000000    0.07000000
   14.52222157   89.65930176    0.28000000    0.07000000
   14.52555561   95.34580231    0.28000000    0.07000000
   14.52888870   98.03540039    0.28000000    0.07000000
   14.53083324  101.94699860    0.28000000    0.07000000
   14.53249931   92.77899933    0.28000000    0.07000000
   14.53555584   91.47519684    0.28000000    0.07000000
   14.53888893   95.05909729    0.28000000    0.07000000
   14.54194450  102.78600311    0.28000000    0.07000000
   14.54527855  109.04299927    0.28000000    0.07000000
   14.54861164   98.61329651    0.28000000    0.07000000
   14.55166721  103.93399811    0.28000000    0.07000000
   14.55500031   93.67749786    0.28000000    0.07000000
   14.56083393   93.67749786    0.28000000    0.07000000
   14.56500053   96.05770111    0.28000000    0.07000000
   14.56833363  104.35500336    0.28000000    0.07000000
   14.57138920   93.90049744    0.28000000    0.07000000
   14.57472229   98.92060089    0.28000000    0.07000000
   14.57805538   98.29109955    0.28000000    0.07000000
   14.58111095   97.09519958    0.28000000    0.07000000
   14.58444405   97.22799683    0.28000000    0.07000000
   14.58777714   93.47509766    0.28000000    0.07000000
   14.59083271   94.73419952    0.28000000    0.07000000
   14.59416676  102.37899780    0.28000000    0.07000000
   14.59722233   94.77200317    0.28000000    0.07000000
   14.59777737   94.13999939    0.28000000    0.07000000
   14.60388947   94.13999939    0.28000000    0.07000000
   14.60777855   95.01699829    0.28000000    0.07000000
   14.61111164   96.46140289    0.28000000    0.07000000
   14.61444473   96.59030151    0.28000000    0.07000000
   14.61750031   97.12689972    0.28000000    0.07000000
   14.62083340  102.22399902    0.28000000    0.07000000
   14.62416649   98.50150299    0.28000000    0.07000000
   14.62722206   98.85369873    0.28000000    0.07000000
   14.63055611   98.75630188    0.28000000    0.07000000
   14.63111115   95.53710175    0.28000000    0.07000000
   14.63416672   98.00959778    0.28000000    0.07000000
   14.63749981   95.68769836    0.28000000    0.07000000
   14.64055538  103.65399933    0.28000000    0.07000000
   14.64666653  103.65399933    0.28000000    0.07000000
   14.65083313   97.14189911    0.28000000    0.07000000
   14.65388870   93.73850250    0.28000000    0.07000000
   14.65722179  102.44200134    0.28000000    0.07000000
   14.66055489   99.57240295    0.28000000    0.07000000
   14.66361046   98.12969971    0.28000000    0.07000000
   14.66444397  100.17199707    0.28000000    0.07000000
   14.66722298   99.63089752    0.28000000    0.07000000
   14.67055607   95.04329681    0.28000000    0.07000000
   14.67361164  100.62799835    0.28000000    0.07000000
   14.67694473   86.69219971    0.28000000    0.07000000
   14.68027782   99.41210175    0.28000000    0.07000000
   14.68361092   96.24569702    0.28000000    0.07000000
   14.68944454   96.24569702    0.28000000    0.07000000
   14.69361115   96.19409943    0.28000000    0.07000000
   14.69694424  100.33899689    0.28000000    0.07000000
   14.69777775   96.99819946    0.28000000    0.07000000
   14.70055580   96.11209869    0.28000000    0.07000000
   14.70388889   97.58280182    0.28000000    0.07000000
   14.70694447   96.25620270    0.28000000    0.07000000
   14.71027756   99.44909668    0.28000000    0.07000000
   14.71361065  105.28900146    0.28000000    0.07000000
   14.71666622  104.52799988    0.28000000    0.07000000
   14.71999931   94.98789978    0.28000000    0.07000000
   14.72305489   96.86049652    0.28000000    0.07000000
   14.72638798   99.54579926    0.28000000    0.07000000
   14.73222160   99.54579926    0.28000000    0.07000000
   14.73638916  100.02700043    0.28000000    0.07000000
   14.73972225   94.13330078    0.28000000    0.07000000
   14.74277782   96.44709778    0.28000000    0.07000000
   14.74611092   97.95010376    0.28000000    0.07000000
   14.74944496   98.05799866    0.28000000    0.07000000
   14.75249958   95.98429871    0.28000000    0.07000000
   14.75583363   95.77179718    0.28000000    0.07000000
   14.75916672   96.75199890    0.28000000    0.07000000
   14.76222229   97.31600189    0.28000000    0.07000000
   14.76472187   91.53810120    0.28000000    0.07000000
   14.76583290   92.53919983    0.28000000    0.07000000
   14.76916599   90.17659760    0.28000000    0.07000000
   14.77527714   90.17659760    0.28000000    0.07000000
   14.77916622   94.08010101    0.28000000    0.07000000
   14.78249931   94.85859680    0.28000000    0.07000000
   14.78583336   99.51850128    0.28000000    0.07000000
   14.78888893   98.26419830    0.28000000    0.07000000
   14.79222298   95.93000031    0.28000000    0.07000000
   14.79555607   96.96720123    0.28000000    0.07000000
   14.79805565   93.82340240    0.28000000    0.07000000
   14.79916668   97.36129761    0.28000000    0.07000000
   14.80249977   98.48899841    0.28000000    0.07000000
   14.80555534   97.79180145    0.28000000    0.07000000
   14.80888939   95.30280304    0.28000000    0.07000000
   14.81222248  100.58999634    0.28000000    0.07000000
   14.81805515  100.58999634    0.28000000    0.07000000
   14.82222176  103.21600342    0.28000000    0.07000000
   14.82527733   99.57279968    0.28000000    0.07000000
   14.82861137   94.79589844    0.28000000    0.07000000
   14.83138847   93.95149994    0.28000000    0.07000000
   14.83222198   95.83910370    0.28000000    0.07000000
   14.83555508  105.22200012    0.28000000    0.07000000
   14.83861065   95.30709839    0.28000000    0.07000000
   14.84194374  105.20899963    0.28000000    0.07000000
   14.84527779   95.97149658    0.28000000    0.07000000
   14.84833336   98.09459686    0.28000000    0.07000000
   14.85166740  104.21199799    0.28000000    0.07000000
   14.85500050  102.25700378    0.28000000    0.07000000
   14.86083412  102.25700378    0.28000000    0.07000000
   14.86500072   98.54440308    0.28000000    0.07000000
   14.86833382   99.62090302    0.28000000    0.07000000
   14.87138939  104.33799744    0.28000000    0.07000000
   14.87472248  101.96299744    0.28000000    0.07000000
   14.87777805   93.93000031    0.28000000    0.07000000
   14.88111115  100.03299713    0.28000000    0.07000000
   14.88444424  110.51499939    0.28000000    0.07000000
   14.88749981  106.39199829    0.28000000    0.07000000
   14.89083290   98.84839630    0.28000000    0.07000000
   14.89416695   95.25289917    0.28000000    0.07000000
   14.89722252   98.57669830    0.28000000    0.07000000
   14.89805508  101.56300354    0.28000000    0.07000000
   14.90361118  101.56300354    0.28000000    0.07000000
   14.90777779  107.23699951    0.28000000    0.07000000
   14.91111088   98.01599884    0.28000000    0.07000000
   14.91416645   93.04409790    0.28000000    0.07000000
   14.91750050   95.14209747    0.28000000    0.07000000
   14.92083359   92.74449921    0.28000000    0.07000000
   14.92388916   97.40619659    0.28000000    0.07000000
   14.92722225  108.50499725    0.28000000    0.07000000
   14.93055630   97.59420013    0.28000000    0.07000000
   14.93138885  106.27600098    0.28000000    0.07000000
   14.93388939   95.53600311    0.28000000    0.07000000
   14.93722248  112.54399872    0.28000000    0.07000000
   14.94055557  102.80500031    0.28000000    0.07000000
   14.94666672  102.80500031    0.28000000    0.07000000
   14.95055580  106.63300323    0.28000000    0.07000000
   14.95388889   99.84819794    0.28000000    0.07000000
   14.95722198   93.95929718    0.28000000    0.07000000
   14.96027756  101.71199799    0.28000000    0.07000000
   14.96361065   90.07749939    0.28000000    0.07000000
   14.96472168   94.05100250    0.28000000    0.07000000
   14.96722221   93.85749817    0.28000000    0.07000000
   14.97055531  107.26999664    0.28000000    0.07000000
   14.97361088  105.09300232    0.28000000    0.07000000
   14.97694397   96.93540192    0.28000000    0.07000000
   14.98027706  101.45200348    0.28000000    0.07000000
   14.98333359   95.38680267    0.28000000    0.07000000
   14.98944473   95.38680267    0.28000000    0.07000000
   14.99361134  104.00700378    0.28000000    0.07000000
   14.99666691   96.50319672    0.28000000    0.07000000
   14.99805546  101.45400238    0.28000000    0.07000000
   15.00027752   96.05449677    0.28000000    0.07000000
   15.00361156   98.04090118    0.28000000    0.07000000
   15.00694466   94.95739746    0.28000000    0.07000000
   15.01000023   99.20629883    0.28000000    0.07000000
   15.01333332   96.01979828    0.28000000    0.07000000
   15.01666641   95.68560028    0.28000000    0.07000000
   15.01972198   96.30180359    0.28000000    0.07000000
   15.02305508   99.69409943    0.28000000    0.07000000
   15.02638817   90.96070099    0.28000000    0.07000000
   15.03222179   90.96070099    0.28000000    0.07000000
   15.03638935   94.19010162    0.28000000    0.07000000
   15.03972244  103.43900299    0.28000000    0.07000000
   15.04277802   93.87329865    0.28000000    0.07000000
   15.04611111   96.05729675    0.28000000    0.07000000
   15.04916668   89.54519653    0.28000000    0.07000000
   15.05249977   91.60820007    0.28000000    0.07000000
   15.05583382   95.77600098    0.28000000    0.07000000
   15.05888939   92.96800232    0.28000000    0.07000000
   15.06222248   93.54640198    0.28000000    0.07000000
   15.06472206   93.74490356    0.28000000    0.07000000
   15.06583309   95.53890228    0.28000000    0.07000000
   15.06916618   94.35880280    0.28000000    0.07000000
   15.07499981   94.35880280    0.28000000    0.07000000
   15.07916641  100.27899933    0.28000000    0.07000000
   15.08249950   97.37039948    0.28000000    0.07000000
   15.08555508  111.82800293    0.28000000    0.07000000
   15.08888817  101.73999786    0.28000000    0.07000000
   15.09222221   96.81970215    0.28000000    0.07000000
   15.09527779  101.47799683    0.28000000    0.07000000
   15.09805489  111.29499817    0.28000000    0.07000000
   15.09888840  106.69699860    0.28000000    0.07000000
   15.10222244  107.15499878    0.28000000    0.07000000
   15.10555553  101.41400146    0.28000000    0.07000000
   15.10861111  100.80000305    0.28000000    0.07000000
   15.11194515  104.42199707    0.28000000    0.07000000
   15.11777782  104.42199707    0.28000000    0.07000000
   15.12194443  104.11299896    0.28000000    0.07000000
   15.12527752  108.66999817    0.28000000    0.07000000
   15.12861156  102.13700104    0.28000000    0.07000000
   15.13138866  115.52300262    0.28000000    0.07000000
   15.13194466  109.48899841    0.28000000    0.07000000
   15.13527775  103.17400360    0.28000000    0.07000000
   15.13861084  104.95700073    0.28000000    0.07000000
   15.15055561   95.70529938    0.00000000    0.00000000
   15.15361118  110.55799866    0.28000000    0.07000000
   15.15694427   93.42819977    0.28000000    0.07000000
   15.16111088   93.42819977    0.28000000    0.07000000
   15.16527748  103.54100037    0.28000000    0.07000000
   15.16611099   97.07340240    0.28000000    0.07000000
   15.16888905   93.81639862    0.28000000    0.07000000
   15.17222214  119.82700348    0.28000000    0.07000000
   15.17527771  118.03199768    0.28000000    0.07000000
   15.17861176  106.31600189    0.28000000    0.07000000
   15.18166733  113.05500031    0.28000000    0.07000000
   15.18500042  104.28900146    0.28000000    0.07000000
   15.18833351  101.11799622    0.28000000    0.07000000
   15.19138908   94.53359985    0.28000000    0.07000000
   15.19472218   95.55909729    0.28000000    0.07000000
   15.19805527  104.61900330    0.28000000    0.07000000
   15.19972229  100.32399750    0.28000000    0.07000000
   15.20388889  100.32399750    0.28000000    0.07000000
   15.20805550  111.34300232    0.28000000    0.07000000
   15.21138859  108.53600311    0.28000000    0.07000000
   15.21444416  111.81600189    0.28000000    0.07000000
   15.21777725  121.07199860    0.28000000    0.07000000
   15.22111034  122.18699646    0.28000000    0.07000000
   15.22416592  111.98500061    0.28000000    0.07000000
   15.22749996   96.40119934    0.28000000    0.07000000
   15.23083305  116.29900360    0.28000000    0.07000000
   15.23305511  106.60299683    0.28000000    0.07000000
   15.23444462  104.07700348    0.28000000    0.07000000
   15.23777771  122.07900238    0.28000000    0.07000000
   15.24083328  116.30300140    0.28000000    0.07000000
   15.24694443  116.30300140    0.28000000    0.07000000
   15.25083351  126.15399933    0.28000000    0.07000000
   15.25416660  101.32299805    0.28000000    0.07000000
   15.25749969  104.22799683    0.28000000    0.07000000
   15.26055527   99.19750214    0.28000000    0.07000000
   15.26388931   95.09030151    0.28000000    0.07000000
   15.26638889  111.90499878    0.28000000    0.07000000
   15.26749992  106.31800079    0.28000000    0.07000000
   15.27083302  106.39900208    0.28000000    0.07000000
   15.27416611  107.96199799    0.28000000    0.07000000
   15.27722168  129.54899597    0.28000000    0.07000000
   15.28055573  114.75499725    0.28000000    0.07000000
   15.28388977  117.53500366    0.28000000    0.07000000
   15.28972244  117.53500366    0.28000000    0.07000000
   15.29388905  102.61599731    0.28000000    0.07000000
   15.29694462  110.62200165    0.28000000    0.07000000
   15.29972267  119.54299927    0.28000000    0.07000000
   15.30055618  112.20300293    0.28000000    0.07000000
   15.30388927  112.03700256    0.28000000    0.07000000
   15.30694485  104.73400116    0.28000000    0.07000000
   15.31027794  108.67299652    0.28000000    0.07000000
   15.31361103  118.05400085    0.28000000    0.07000000
   15.31666660  119.06800079    0.28000000    0.07000000
   15.31999969  124.25499725    0.28000000    0.07000000
   15.32333374  115.99099731    0.28000000    0.07000000
   15.32638836  121.66200256    0.28000000    0.07000000
   15.33249950  121.66200256    0.28000000    0.07000000
   15.33666611  112.73600006    0.28000000    0.07000000
   15.33972168  107.46499634    0.28000000    0.07000000
   15.34305477  119.62999725    0.28000000    0.07000000
   15.34638882  123.06099701    0.28000000    0.07000000
   15.34944439  123.19000244    0.28000000    0.07000000
   15.35277843  119.82599640    0.28000000    0.07000000
   15.35611153  122.11299896    0.28000000    0.07000000
   15.35916710  108.09500122    0.28000000    0.07000000
   15.36250019  117.32499695    0.28000000    0.07000000
   15.36555576  119.80400085    0.28000000    0.07000000
   15.36750031  106.75299835    0.28000000    0.07000000
   15.36944485  118.58200073    0.28000000    0.07000000
   15.37527752  118.58200073    0.28000000    0.07000000
   15.37944412  117.06400299    0.28000000    0.07000000
   15.38277817  129.92399597    0.28000000    0.07000000
   15.38583279  107.01999664    0.28000000    0.07000000
   15.38916683   97.58390045    0.28000000    0.07000000
   15.39249992  111.88500214    0.28000000    0.07000000
   15.39555550  112.62799835    0.28000000    0.07000000
   15.39888859   98.96489716    0.28000000    0.07000000
   15.40083313  100.95500183    0.28000000    0.07000000
   15.40249920  101.32499695    0.28000000    0.07000000
   15.40555477   99.33619690    0.28000000    0.07000000
   15.40888882   92.85070038    0.28000000    0.07000000
   15.41222191  102.74600220    0.28000000    0.07000000
   15.41805553  102.74600220    0.28000000    0.07000000
   15.42222214  104.81800079    0.28000000    0.07000000
   15.42555618  105.31500244    0.28000000    0.07000000
   15.42888927  110.65499878    0.28000000    0.07000000
   15.43194485  115.93099976    0.28000000    0.07000000
   15.43444443  104.01999664    0.28000000    0.07000000
   15.43583298  116.47100067    0.28000000    0.07000000
   15.43888855  105.52100372    0.28000000    0.07000000
   15.44222260  108.97899628    0.28000000    0.07000000
   15.44527817  117.48799896    0.28000000    0.07000000
   15.44861126  106.67299652    0.28000000    0.07000000
   15.45194435  101.91899872    0.28000000    0.07000000
   15.45499992  104.94000244    0.28000000    0.07000000
   15.46111107  104.94000244    0.28000000    0.07000000
   15.46527767  112.63099670    0.28000000    0.07000000
   15.46777725  108.93800354    0.28000000    0.07000000
   15.46888828  108.43299866    0.28000000    0.07000000
   15.47194386  117.61799622    0.28000000    0.07000000
   15.47527695  118.52200317    0.28000000    0.07000000
   15.47833252  122.88099670    0.28000000    0.07000000
   15.48166656   96.06539917    0.28000000    0.07000000
   15.48500061  109.79000092    0.28000000    0.07000000
   15.48805618  109.96499634    0.28000000    0.07000000
   15.49138927  105.73400116    0.28000000    0.07000000
   15.49472237  108.00099945    0.28000000    0.07000000
   15.49777794   97.00689697    0.28000000    0.07000000
   15.50388908   97.00689697    0.28000000    0.07000000
   15.50805569  101.80999756    0.28000000    0.07000000
   15.51111126  102.75000000    0.28000000    0.07000000
   15.51444435  105.41200256    0.28000000    0.07000000
   15.53416729  106.40399933    0.28000000    0.07000000
   15.53500080   92.40640259    0.28000000    0.07000000
   15.53805637  100.47799683    0.28000000    0.07000000
   15.54111195  109.33499908    0.28000000    0.07000000
   15.54694462  109.33499908    0.28000000    0.07000000
   15.55111122  110.15599823    0.28000000    0.07000000
   15.55416679  114.90599823    0.28000000    0.07000000
   15.55749989   99.64589691    0.28000000    0.07000000
   15.56083393  108.61799622    0.28000000    0.07000000
   15.56388950   99.11820221    0.28000000    0.07000000
   15.56722260  118.30200195    0.28000000    0.07000000
   15.56833363  116.53900146    0.28000000    0.07000000
   15.57083321  108.06900024    0.28000000    0.07000000
   15.57388878  113.72899628    0.28000000    0.07000000
   15.57722187  109.55999756    0.28000000    0.07000000
   15.58027744  109.25199890    0.28000000    0.07000000
   15.58361053   90.44930267    0.28000000    0.07000000
   15.58972168   90.44930267    0.28000000    0.07000000
   15.59388828  107.74800110    0.28000000    0.07000000
   15.59722233  121.81199646    0.28000000    0.07000000
   15.60027790  104.77700043    0.28000000    0.07000000
   15.60194492  105.76200104    0.28000000    0.07000000
   15.60388947  101.59999847    0.28000000    0.07000000
   15.60722256  103.28399658    0.28000000    0.07000000
   15.61055565   89.28510284    0.28000000    0.07000000
   15.61361122  123.51799774    0.28000000    0.07000000
   15.61694431  130.56900024    0.28000000    0.07000000
   15.62027836  131.78300476    0.28000000    0.07000000
   15.62333393  125.91500092    0.28000000    0.07000000
   15.62666702  130.15400696    0.28000000    0.07000000
   15.63249969  130.15400696    0.28000000    0.07000000
   15.63666630   98.31649780    0.28000000    0.07000000
   15.64000034  110.61699677    0.28000000    0.07000000
   15.64305496  108.80100250    0.28000000    0.07000000
   15.64638901  108.41899872    0.28000000    0.07000000
   15.64972210  110.92299652    0.28000000    0.07000000
   15.65277767  102.65299988    0.28000000    0.07000000
