    HOUR (UT)   FLARE FACTOR    SKY TESTER    SUN TESTER
   11.74750042   -1.00000000   -1.00000000   -1.00000000
   11.76861095  182.35899353    0.40000001    1.75000000
   11.77444458  157.30900574    0.41999999    1.75000000
   11.78111076  159.66900635    0.41999999    1.75000000
   11.78444481  158.95500183    0.41999999    1.75000000
   11.78750038  149.09100342    0.41999999    1.76999998
   11.79083347  141.65600586    0.41999999    1.76999998
   11.79500008  143.87199402    0.41999999    1.76999998
   11.79805565  152.86199951    0.41999999    1.76999998
   11.80138874  150.02999878    0.41999999    1.76999998
   11.80194473  170.06399536    0.41999999    1.76999998
   11.80472279  146.98800659    0.41999999    1.76999998
   11.80805588  148.65199280    0.41999999    1.78999996
   11.81138897  157.10299683    0.41999999    1.78999996
   11.81444454  141.14900208    0.41999999    1.78999996
   11.81777763  154.78399658    0.41999999    1.78999996
   11.82083321  151.63200378    0.40000001    1.80999994
   11.82416630  156.61599731    0.40000001    1.80999994
   11.82750034  167.97799683    0.41999999    1.80999994
   11.83055592  155.99800110    0.40000001    1.80999994
   11.83388901  157.97799683    0.40000001    1.78999996
   11.83527756  151.81399536    0.40000001    1.78999996
   11.83749962  164.23899841    0.40000001    1.80999994
   11.84083271  146.97300720    0.40000001    1.83000004
   11.84416676  150.84399414    0.40000001    1.83000004
   11.84722233  153.69000244    0.40000001    1.83000004
   11.85055637  148.78599548    0.40000001    1.85000002
   11.85388947  145.99899292    0.40000001    1.85000002
   11.85722256  147.63200378    0.40000001    1.85000002
   11.86027813  161.09199524    0.40000001    1.85000002
   11.86361122  151.13800049    0.40000001    1.85000002
   11.86694431  146.64799500    0.40000001    1.85000002
   11.86861134  164.28700256    0.40000001    1.85000002
   11.87027836  143.76699829    0.40000001    1.85000002
   11.87361145  157.65400696    0.40000001    1.86000001
   11.87694454  140.95399475    0.40000001    1.86000001
   11.88000011  164.71600342    0.40000001    1.86000001
   11.88333321  159.32600403    0.40000001    1.86000001
   11.88638878  158.77400208    0.38000000    1.86000001
   11.88972187  141.98199463    0.40000001    1.86000001
   11.89305496  153.29499817    0.40000001    1.88000000
   11.89611053  149.44099426    0.38000000    1.88000000
   11.89944458  153.55499268    0.38000000    1.88000000
   11.90194416  157.42700195    0.38000000    1.88000000
   11.90305519  155.34800720    0.38000000    1.88000000
   11.90638828  142.12199402    0.38000000    1.88000000
   11.90972137  144.76899719    0.40000001    1.89999998
   11.91277695  149.20399475    0.38000000    1.88000000
   11.91611099  164.58399963    0.38000000    1.88000000
   11.91916656  157.80599976    0.38000000    1.89999998
   11.92250061  164.96699524    0.38000000    1.89999998
   11.92583370  146.67100525    0.38000000    1.89999998
   11.92888927  155.39100647    0.38000000    1.91999996
   11.93222237  163.19900513    0.38000000    1.91999996
   11.93527794  163.60699463    0.38000000    1.91999996
   11.93583298  155.45399475    0.38000000    1.91999996
   11.93916702  143.58099365    0.38000000    1.91999996
   11.94222260  154.77999878    0.36000001    1.91999996
   11.94555569  152.88499451    0.36000001    1.91999996
   11.94888878  131.42300415    0.36000001    1.94000006
   11.95194435  125.54100037    0.38000000    1.94000006
   11.95527744  133.73500061    0.38000000    1.94000006
   11.95861053  130.35299683    0.36000001    1.94000006
   11.96166611  140.35699463    0.36000001    1.94000006
   11.96500015  143.61000061    0.36000001    1.94000006
   11.96805477  140.04600525    0.36000001    1.94000006
   11.96861076  128.06399536    0.36000001    1.94000006
   11.97194386  145.52000427    0.36000001    1.94000006
   11.97499943  156.12199402    0.36000001    1.94000006
   11.97833252  149.97000122    0.36000001    1.94000006
   11.98166656  166.55200195    0.36000001    1.96000004
   11.98500061  160.24000549    0.36000001    1.96000004
   11.98805618  163.04600525    0.36000001    1.96000004
   11.99138927  157.96000671    0.36000001    1.96000004
   11.99444485  158.41799927    0.36000001    1.96000004
   11.99777794  143.87199402    0.36000001    1.96000004
   12.00111103  143.87699890    0.36000001    1.98000002
   12.00194454  147.15699768    0.36000001    1.98000002
   12.00472260  138.80999756    0.36000001    1.98000002
   12.00805569  137.31399536    0.36000001    1.98000002
   12.01111126  145.59599304    0.36000001    2.00000000
   12.01444435  132.18800354    0.36000001    2.00000000
   12.01749992  138.15199280    0.36000001    2.00000000
   12.02083302  140.12699890    0.36000001    2.00000000
   12.02416611  139.18099976    0.36000001    2.00000000
   12.02722168  150.88400269    0.36000001    2.00000000
   12.03055573  155.03700256    0.36000001    2.00000000
   12.03388977  129.95199585    0.36000001    2.00000000
   12.03527832  149.36199951    0.36000001    2.00000000
   12.03750038  142.78700256    0.36000001    2.00000000
   12.04083347  131.71400452    0.36000001    2.00000000
   12.04388905  139.17999268    0.36000001    2.00000000
   12.04722309  147.22999573    0.36000001    2.01999998
   12.05083370  148.72200012    0.36000001    2.01999998
   12.05388927  160.27400208    0.34000000    2.01999998
   12.05722237  147.79299927    0.34000000    2.03999996
   12.06027794  150.67900085    0.34000000    2.03999996
   12.06361103  129.06700134    0.34000000    2.03999996
   12.06694412  137.08599854    0.34000000    2.01999998
   12.06861115  144.92300415    0.34000000    2.01999998
   12.07055569  139.70899963    0.34000000    2.03999996
   12.07388878  132.11999512    0.34000000    2.01999998
   12.07694435  146.41499329    0.34000000    2.01999998
   12.08027744  134.00999451    0.34000000    2.03999996
   12.08361053  143.77999878    0.34000000    2.03999996
   12.08666611  143.00999451    0.34000000    2.03999996
   12.09000015  137.39300537    0.34000000    2.05999994
   12.09305477  140.85099792    0.34000000    2.03999996
   12.09638882  141.49699402    0.34000000    2.05999994
   12.09972191  137.23300171    0.34000000    2.05999994
   12.10194492  135.89199829    0.34000000    2.05999994
   12.10333347  137.64700317    0.34000000    2.05999994
   12.10666752  139.10800171    0.34000000    2.05999994
   12.10972214  146.00999451    0.34000000    2.05999994
   12.11305618  151.74099731    0.34000000    2.05999994
   12.11611176  129.05599976    0.34000000    2.07999992
   12.11944485  141.03399658    0.34000000    2.05999994
   12.12277794  130.14799500    0.34000000    2.05999994
   12.12583351  135.03700256    0.34000000    2.07999992
   12.12916660  149.18499756    0.34000000    2.07999992
   12.13249969  136.48300171    0.34000000    2.07999992
   12.13527775  134.92199707    0.34000000    2.07999992
   12.13583279  138.28700256    0.34000000    2.07999992
   12.13916683  132.41099548    0.34000000    2.07999992
   12.14222240  145.65400696    0.34000000    2.07999992
   12.14555550  141.64500427    0.34000000    2.09999990
   12.14861107  136.04499817    0.31999999    2.09999990
   12.15194416  150.28700256    0.34000000    2.07999992
   12.15527725  134.65400696    0.34000000    2.07999992
   12.15833282  141.28700256    0.31999999    2.11999989
   12.16166592  120.82599640    0.31999999    2.09999990
   12.16499996  137.81599426    0.31999999    2.11999989
   12.16805553  129.93400574    0.34000000    2.11999989
   12.16861153  137.59100342    0.34000000    2.11999989
   12.17166710  129.47700500    0.34000000    2.11999989
   12.17500019  120.46199799    0.31999999    2.11999989
   12.17805576  127.69499969    0.31999999    2.11999989
   12.18138885  122.83999634    0.31999999    2.11999989
   12.18472195  128.79200745    0.34000000    2.13000011
   12.18777752  124.68900299    0.31999999    2.11999989
   12.19111156  130.96600342    0.31999999    2.09999990
   12.19416714  140.36799622    0.31999999    2.09999990
   12.19750023  129.14900208    0.31999999    2.11999989
   12.20083332  137.87500000    0.31999999    2.13000011
   12.20194435  145.23500061    0.31999999    2.13000011
   12.20444393  139.10499573    0.31999999    2.11999989
   12.20777798  133.46600342    0.31999999    2.13000011
   12.21083355  142.94599915    0.31999999    2.11999989
   12.21416664  139.07600403    0.31999999    2.13000011
   12.21722221  129.22300720    0.31999999    2.13000011
   12.22055531  134.31500244    0.31999999    2.13000011
   12.22388840  132.65699768    0.31999999    2.13000011
   12.22694397  144.90499878    0.31999999    2.13000011
   12.23027706  146.82400513    0.31999999    2.13000011
   12.23361111  135.08299255    0.31999999    2.13000011
   12.23527813  150.08900452    0.31999999    2.13000011
   12.23722267  136.32200623    0.31999999    2.13000011
   12.24055576  136.98199463    0.31999999    2.13000011
   12.24361134  147.47900391    0.31999999    2.15000010
   12.24694443  137.16900635    0.31999999    2.15000010
   12.25000000  138.90699768    0.31999999    2.15000010
   12.25333309  132.88699341    0.31999999    2.15000010
   12.25666714  139.24400330    0.31999999    2.15000010
   12.25972176  136.47000122    0.31999999    2.17000008
   12.26305580  141.42599487    0.31999999    2.17000008
   12.26638889  138.82499695    0.31999999    2.17000008
   12.26861095  136.96299744    0.31999999    2.17000008
   12.26999950  132.90400696    0.30000001    2.17000008
   12.27333355  141.43400574    0.31999999    2.17000008
   12.27638817  146.14500427    0.31999999    2.17000008
   12.27972221  138.02799988    0.30000001    2.17000008
   12.28305531  140.65199280    0.31999999    2.17000008
   12.28611183  141.73199463    0.31999999    2.17000008
   12.28944492  134.14599609    0.30000001    2.17000008
   12.29250050  146.39500427    0.30000001    2.17000008
   12.29583359  144.19700623    0.31999999    2.17000008
   12.29916668  147.80599976    0.31999999    2.17000008
   12.30194473  146.59700012    0.31999999    2.17000008
   12.30277824  147.49000549    0.31999999    2.17000008
   12.30611134  151.98800659    0.30000001    2.19000006
   12.30916691  138.91000366    0.30000001    2.19000006
   12.31250000  149.03900146    0.30000001    2.19000006
   12.31555557  138.08299255    0.30000001    2.19000006
   12.31888866  146.80299377    0.30000001    2.19000006
   12.32222176  139.51499939    0.31999999    2.19000006
   12.32527733  136.56399536    0.30000001    2.19000006
   12.32861137  134.06500244    0.30000001    2.21000004
   12.33194447  138.10000610    0.31999999    2.19000006
   12.33500004  127.73100281    0.31999999    2.21000004
   12.33555508  136.91700745    0.31999999    2.21000004
   12.33888817  134.11000061    0.30000001    2.21000004
   12.34194374  142.01100159    0.30000001    2.21000004
   12.34527779  141.59199524    0.30000001    2.21000004
   12.34833336  134.57200623    0.30000001    2.21000004
   12.35166740  128.02499390    0.30000001    2.21000004
   12.35500050  132.71699524    0.30000001    2.19000006
   12.35805607  147.71299744    0.30000001    2.19000006
   12.36138916  138.03399658    0.30000001    2.21000004
   12.36472225  133.33799744    0.30000001    2.21000004
   12.36777782  149.08700562    0.30000001    2.23000002
   12.36888885  139.01400757    0.30000001    2.23000002
   12.37166691  127.46900177    0.31999999    2.21000004
   12.37472248  134.47900391    0.30000001    2.21000004
   12.37805557  132.41799927    0.30000001    2.23000002
   12.38111115  139.13200378    0.30000001    2.23000002
   12.38444424  137.84100342    0.30000001    2.21000004
   12.38777733  134.73100281    0.30000001    2.23000002
   12.39083290  138.37800598    0.30000001    2.23000002
   12.39416695  145.17199707    0.30000001    2.23000002
   12.39750004  135.00599670    0.30000001    2.23000002
   12.40055561  132.32499695    0.30000001    2.23000002
   12.40222168  139.13299561    0.30000001    2.23000002
   12.40444374  134.36099243    0.30000001    2.23000002
   12.40749931  129.91200256    0.30000001    2.25000000
   12.41083336  140.13499451    0.30000001    2.23000002
   12.41388893  133.90800476    0.30000001    2.23000002
   12.41722298  137.16900635    0.30000001    2.23000002
   12.42055607  146.12100220    0.30000001    2.25000000
   12.42361164  140.58599854    0.30000001    2.25000000
   12.42694473  128.50000000    0.30000001    2.25000000
   12.43027782  128.78399658    0.30000001    2.25000000
   12.43333340  133.74600220    0.30000001    2.26999998
   12.43555546  136.02400208    0.28000000    2.25000000
   12.43722248  149.36599731    0.28000000    2.25000000
   12.44027805  141.91000366    0.28000000    2.25000000
   12.44361115  146.48399353    0.30000001    2.25000000
   12.44694424  133.91299438    0.28000000    2.25000000
   12.44999981  137.46200562    0.28000000    2.25000000
   12.45333290  136.40600586    0.28000000    2.25000000
   12.45666695  138.93200684    0.28000000    2.25000000
   12.45972157  133.77299500    0.28000000    2.25000000
   12.46305561  141.07200623    0.28000000    2.25000000
   12.46611118  138.01899719    0.30000001    2.26999998
   12.46888828  135.90800476    0.28000000    2.26999998
   12.46999931  136.16400146    0.28000000    2.26999998
   12.47305489  137.49299622    0.28000000    2.28999996
   12.47638798  139.90199280    0.28000000    2.26999998
   12.47972202  129.30099487    0.28000000    2.26999998
   12.48277760  136.22099304    0.28000000    2.26999998
   12.48611164  135.87399292    0.28000000    2.26999998
   12.48916721  142.53300476    0.28000000    2.26999998
   12.49250031  141.72500610    0.28000000    2.26999998
   12.49583340  151.08099365    0.28000000    2.26999998
   12.49916649  135.58799744    0.28000000    2.26999998
   12.50222206  139.44200134    0.28000000    2.28999996
   12.50305557  145.98699951    0.28000000    2.28999996
   12.50611115  147.09100342    0.28000000    2.28999996
   12.50944424  136.26100159    0.28000000    2.26999998
   12.51249981  139.57200623    0.28000000    2.28999996
   12.51583290  129.66400146    0.28000000    2.28999996
   12.51916599  142.02600098    0.28000000    2.28999996
   12.52222157  140.50799561    0.28000000    2.30999994
   12.52555561  137.88200378    0.28000000    2.28999996
   12.52888870  141.88200378    0.28000000    2.28999996
   12.53194427  139.93899536    0.28000000    2.30999994
   12.53527832  139.44099426    0.28000000    2.28999996
   12.53583336  136.96699524    0.28000000    2.28999996
   12.53861141  139.05000305    0.28000000    2.28999996
   12.54194450  132.55000305    0.28000000    2.28999996
   12.54500008  144.07400513    0.28000000    2.30999994
   12.54833412  142.21800232    0.28000000    2.28999996
   12.55166721  136.54200745    0.28000000    2.30999994
   12.55472279  141.17100525    0.28000000    2.30999994
   12.55805588  140.30000305    0.28000000    2.32999992
   12.56138897  137.91299438    0.28000000    2.30999994
   12.56444454  133.01100159    0.28000000    2.30999994
   12.56777763  146.09899902    0.28000000    2.30999994
   12.56916618  146.62300110    0.28000000    2.30999994
   12.57138920  143.47099304    0.28000000    2.30999994
   12.57472229  144.52600098    0.28000000    2.30999994
   12.57777786  138.99499512    0.25999999    2.32999992
   12.58111095  140.46099854    0.28000000    2.30999994
   12.58444405  138.07099915    0.28000000    2.30999994
   12.58749962  140.63800049    0.28000000    2.30999994
   12.59083271  134.36900330    0.28000000    2.32999992
   12.59416676  135.86500549    0.25999999    2.32999992
   12.59722233  128.64399719    0.28000000    2.32999992
   12.60055637  141.63900757    0.25999999    2.32999992
   12.60249996  136.94000244    0.25999999    2.30999994
   12.60416698  137.32699585    0.28000000    2.32999992
   12.60750008  132.22399902    0.25999999    2.32999992
   12.61055565  135.18200684    0.25999999    2.32999992
   12.61388969  140.15499878    0.25999999    2.32999992
   12.61722279  135.30700684    0.25999999    2.32999992
   12.62027836  128.24699402    0.25999999    2.32999992
   12.62361145  136.30499268    0.25999999    2.32999992
   12.62694454  133.32800293    0.25999999    2.34999990
   12.63000011  137.24600220    0.28000000    2.34999990
   12.63333321  146.19400024    0.28000000    2.32999992
   12.63583279  137.89999390    0.28000000    2.32999992
   12.63694477  141.54400635    0.25999999    2.32999992
   12.64027786  139.24899292    0.25999999    2.32999992
   12.64361095  137.50300598    0.25999999    2.34999990
   12.64666653  137.64799500    0.28000000    2.32999992
   12.64999962  142.05299377    0.28000000    2.32999992
   12.65333271  135.70899963    0.28000000    2.34999990
   12.65638828  142.30999756    0.25999999    2.34999990
   12.65972137  134.01400757    0.28000000    2.32999992
   12.66277695  130.86099243    0.25999999    2.34999990
   12.66611099  130.42799377    0.25999999    2.36999989
   12.66916656  134.08200073    0.25999999    2.36999989
   12.66972256  133.84700012    0.25999999    2.34999990
   12.67305565  132.25799561    0.25999999    2.34999990
   12.67611122  133.25000000    0.25999999    2.36999989
   12.67944431  133.00500488    0.25999999    2.36999989
   12.68277836  130.77299500    0.25999999    2.34999990
   12.68583298  131.91600037    0.25999999    2.34999990
   12.68916702  126.43499756    0.25999999    2.34999990
   12.69250011  129.85400391    0.25999999    2.34999990
   12.69555569  123.18000031    0.25999999    2.34999990
   12.69888878  134.71699524    0.25999999    2.34999990
   12.70194435  136.82200623    0.25999999    2.34999990
   12.70249939  134.42599487    0.25999999    2.34999990
   12.70555496  130.23899841    0.25999999    2.36999989
   12.70861053  138.91099548    0.25999999    2.36999989
   12.71194458  133.93699646    0.25999999    2.36999989
   12.71527767  137.22999573    0.25999999    2.36999989
   12.71833324  135.86799622    0.25999999    2.36999989
   12.72166634  135.20599365    0.25999999    2.36999989
   12.72499943  132.75100708    0.25999999    2.36999989
   12.72805500  127.99500275    0.25999999    2.36999989
   12.73138809  133.51600647    0.25999999    2.36999989
   12.73444462  133.54800415    0.25999999    2.36999989
   12.73583317  132.84500122    0.25999999    2.36999989
   12.73833370  137.59399414    0.25999999    2.36999989
   12.74138927  142.90899658    0.25999999    2.36999989
   12.74472237  134.65400696    0.25999999    2.36999989
   12.74805546  128.70599365    0.25999999    2.36999989
   12.75111103  131.83099365    0.25999999    2.39000010
   12.75444412  132.60200500    0.25999999    2.36999989
   12.75777817  126.37000275    0.25999999    2.36999989
   12.76083374  130.49499512    0.25999999    2.36999989
   12.76416683  128.25399780    0.25999999    2.39000010
   12.76722240  127.01000214    0.25999999    2.39000010
   12.78527832  132.84599304    0.25999999    2.36999989
   12.78694534  135.14199829    0.25999999    2.36999989
   12.79027843  135.19500732    0.25999999    2.36999989
   12.79361153  131.60000610    0.25999999    2.39000010
   12.79666710  128.27600098    0.25999999    2.39000010
   12.80000019  126.48000336    0.25999999    2.39000010
   12.80305576  127.93699646    0.25999999    2.39000010
   12.80638885  125.48500061    0.25999999    2.40000010
   12.80972195  125.77600098    0.25999999    2.39000010
   12.81277752  125.12599945    0.25999999    2.40000010
   12.81611156  127.96299744    0.25999999    2.39000010
   12.81833363  128.26100159    0.25999999    2.39000010
   12.81972218  126.11599731    0.25999999    2.39000010
   12.82305527  133.87300110    0.25999999    2.39000010
   12.82611084  128.63800049    0.25999999    2.39000010
   12.82944393  126.74299622    0.25999999    2.40000010
   12.83249950  128.69299316    0.25999999    2.39000010
   12.83583260  134.23399353    0.25999999    2.39000010
   12.83916664  123.50599670    0.25999999    2.39000010
   12.84222221  124.91000366    0.25999999    2.40000010
   12.84555531  129.95700073    0.25999999    2.40000010
   12.84888840  136.94999695    0.25999999    2.40000010
   12.85194492  125.52600098    0.25999999    2.40000010
   12.85249996  121.31900024    0.25999999    2.40000010
   12.85583401  123.81099701    0.25999999    2.40000010
   12.85888958  129.03500366    0.25000000    2.39000010
   12.86222267  119.05400085    0.25000000    2.39000010
   12.86555576  119.89299774    0.25000000    2.40000010
   12.96944427   -1.00000000   -1.00000000   -1.00000000
   13.06638908   -1.00000000   -1.00000000   -1.00000000
   13.16583252   -1.00000000   -1.00000000   -1.00000000
   13.18833351   78.11940002    0.34000000    2.48000002
   13.19166660  122.82900238    0.36000001    2.48000002
   13.19472218  126.77500153    0.36000001    2.48000002
   13.19805527  123.94100189    0.34000000    2.46000004
   13.20138836  131.28399658    0.34000000    2.46000004
   13.20444393  132.60800171    0.34000000    2.46000004
   13.20861053  132.60800171    0.34000000    2.50000000
   13.21277714  123.76799774    0.34000000    2.48000002
   13.21611118  127.48799896    0.34000000    2.48000002
   13.21916580  126.79199982    0.31999999    2.48000002
   13.22166634  127.38800049    0.31999999    2.48000002
   13.22277737  119.60099792    0.31999999    2.48000002
   13.22611046  123.83699799    0.31999999    2.48000002
   13.22944355  122.84600067    0.31999999    2.48000002
   13.23277760  125.13300323    0.31999999    2.48000002
   13.23583317  125.25299835    0.30000001    2.48000002
   13.23916721  123.00599670    0.30000001    2.46000004
   13.24250031  123.50900269    0.30000001    2.48000002
   13.24555588  119.68299866    0.30000001    2.48000002
   13.25138855  119.68299866    0.30000001    2.50000000
   13.25555515  123.02700043    0.30000001    2.48000002
   13.25888920  128.11099243    0.30000001    2.48000002
   13.26194477  130.10099792    0.30000001    2.48000002
   13.26527786  118.11599731    0.30000001    2.48000002
   13.26861095  118.17299652    0.30000001    2.48000002
   13.27166653  119.25599670    0.28000000    2.48000002
   13.27499962  125.37999725    0.28000000    2.48000002
   13.27833271  117.82399750    0.28000000    2.48000002
   13.28138828  115.53199768    0.28000000    2.50000000
   13.28472233  120.82199860    0.28000000    2.48000002
   13.28777790  116.69499969    0.28000000    2.48000002
   13.28833389  120.73999786    0.28000000    2.48000002
   13.29444504  120.73999786    0.28000000    2.48000002
   13.29833412  116.33300018    0.28000000    2.48000002
   13.30166721  117.47000122    0.28000000    2.50000000
   13.30500031  119.60600281    0.28000000    2.50000000
   13.30805588  114.97599792    0.28000000    2.50000000
   13.31138897  121.05599976    0.25999999    2.50000000
   13.31472206  120.76699829    0.25999999    2.50000000
   13.31777763  118.30500031    0.25999999    2.50000000
   13.32111073  116.46800232    0.28000000    2.48000002
   13.32166672  119.45300293    0.28000000    2.48000002
   13.32472229  115.05300140    0.25999999    2.50000000
   13.32805538  123.31800079    0.25999999    2.50000000
   13.33111095  124.81700134    0.25999999    2.50000000
   13.33722210  124.81700134    0.28000000    2.50000000
   13.34138870  120.75900269    0.25999999    2.50000000
   13.34444427  116.34100342    0.28000000    2.48000002
   13.34777737  125.81999969    0.25999999    2.50000000
   13.35111141  124.01200104    0.25999999    2.50000000
   13.35416698  117.62500000    0.25999999    2.50000000
   13.35500050  116.96399689    0.25999999    2.50000000
   13.35777855  117.14800262    0.25999999    2.50000000
   13.36111164  114.08000183    0.25999999    2.51999998
   13.36416721  118.04699707    0.25999999    2.51999998
   13.36750031  107.78600311    0.25999999    2.50000000
   13.37083340  115.37999725    0.25999999    2.50000000
   13.37388897  116.39499664    0.25999999    2.50000000
   13.38000011  116.39499664    0.25999999    2.51999998
   13.38416672  120.34799957    0.25999999    2.51999998
   13.38749981  115.47799683    0.25999999    2.50000000
   13.38833332  118.88999939    0.25999999    2.50000000
   13.39111137  116.86000061    0.25999999    2.50000000
   13.39444447  117.11399841    0.25999999    2.51999998
   13.39750004  120.94799805    0.25999999    2.51999998
   13.40083313  114.13600159    0.25999999    2.50000000
   13.40416622  120.15100098    0.25999999    2.50000000
   13.40722179  125.48699951    0.25999999    2.50000000
   13.41055489  120.33100128    0.25999999    2.51999998
   13.41388893  117.49099731    0.25999999    2.51999998
   13.41694450  119.42800140    0.25999999    2.51999998
   13.42277813  119.42800140    0.25999999    2.51999998
   13.42694473  129.29400635    0.25999999    2.51999998
   13.43027782  131.09100342    0.25999999    2.51999998
   13.43333340  123.42700195    0.25999999    2.51999998
   13.43666649  113.42800140    0.25999999    2.51999998
   13.44000053  116.59799957    0.25999999    2.51999998
   13.44305515  113.87200165    0.25999999    2.51999998
   13.44638920  121.64299774    0.25999999    2.51999998
   13.44972229  116.57299805    0.25999999    2.51999998
   13.45277786  120.02400208    0.25999999    2.51999998
   13.45499992  117.18000031    0.25999999    2.50000000
   13.45638847  117.76599884    0.25999999    2.51999998
   13.45972157  118.39900208    0.25999999    2.51999998
   13.46583271  118.39900208    0.25999999    2.51999998
   13.46972179  122.90399933    0.25999999    2.51999998
   13.47305489  118.96099854    0.25000000    2.51999998
   13.47638798  121.48699951    0.25000000    2.51999998
   13.47944355  117.13700104    0.25000000    2.53999996
   13.48277760  122.29299927    0.25000000    2.51999998
   13.48611164  118.27100372    0.25000000    2.51999998
   13.48833370  118.21499634    0.25000000    2.53999996
   13.48972225  122.80599976    0.25000000    2.53999996
   13.49305534  117.06999969    0.25000000    2.51999998
   13.49611092  118.51999664    0.25000000    2.53999996
   13.49944496  123.94699860    0.25000000    2.53999996
   13.50277805  126.54499817    0.25000000    2.53999996
   13.50861073  126.54499817    0.25000000    2.53999996
   13.51277733  124.33799744    0.25000000    2.53999996
   13.51583290  117.59999847    0.25000000    2.53999996
   13.51916599  117.12599945    0.25000000    2.53999996
   13.52166653  117.28900146    0.25000000    2.51999998
   13.52277756  118.19599915    0.25000000    2.51999998
   13.52611065  116.89600372    0.25000000    2.53999996
   13.52916622  125.14199829    0.23000000    2.53999996
   13.53249931  117.76799774    0.25000000    2.51999998
   13.53583336  122.74900055    0.25000000    2.53999996
   13.53888893  121.74800110    0.25000000    2.53999996
   13.54222298  120.88600159    0.25000000    2.53999996
   13.54555607  118.11100006    0.25000000    2.53999996
   13.55138874  118.11100006    0.25000000    2.53999996
   13.55555534  131.87899780    0.25000000    2.51999998
   13.55888939  119.93599701    0.25000000    2.51999998
   13.56194496  118.47000122    0.25000000    2.53999996
   13.56527805  118.39700317    0.25000000    2.53999996
   13.56833363  125.10800171    0.25000000    2.53999996
   13.57166672  113.96299744    0.25000000    2.53999996
   13.57499981  128.24800110    0.25000000    2.51999998
   13.57805538  124.44400024    0.25000000    2.53999996
   13.58138847  118.96800232    0.25000000    2.53999996
   13.58472157  130.70399475    0.25000000    2.51999998
   13.58777714  128.66700745    0.25000000    2.55999994
   13.58861065  119.47299957    0.25000000    2.55999994
   13.59416676  119.47299957    0.25000000    2.53999996
   13.59833336  122.03800201    0.25000000    2.53999996
   13.60166740  119.60900116    0.25000000    2.53999996
   13.60472298  124.12000275    0.25000000    2.53999996
   13.60805607  122.73100281    0.25000000    2.53999996
   13.61138916  126.84200287    0.23000000    2.53999996
   13.61472225  121.41799927    0.23000000    2.53999996
   13.61777782  121.59200287    0.25000000    2.53999996
   13.62111092  122.44100189    0.25000000    2.53999996
   13.62166691  115.26899719    0.25000000    2.53999996
   13.62472248  115.45400238    0.25000000    2.53999996
   13.62805557  134.02299500    0.25000000    2.55999994
   13.63111115  121.04699707    0.25000000    2.53999996
   13.63722229  121.04699707    0.25000000    2.53999996
   13.64111137  128.87600708    0.25000000    2.53999996
   13.64444447  117.03700256    0.25000000    2.53999996
   13.64777756  126.84799957    0.25000000    2.55999994
   13.65083313  135.34399414    0.25000000    2.55999994
   13.65416622  116.79299927    0.25000000    2.53999996
   13.65499973  135.11500549    0.25000000    2.53999996
   13.65777779  118.55000305    0.25000000    2.53999996
   13.66111088  126.43800354    0.25000000    2.53999996
   13.66444397  126.64399719    0.23000000    2.53999996
   13.66750050  125.86699677    0.25000000    2.53999996
   13.67083359  117.08999634    0.23000000    2.55999994
   13.67416668  130.17900085    0.23000000    2.55999994
   13.68000031  130.17900085    0.23000000    2.53999996
   13.68416691  119.59799957    0.23000000    2.53999996
   13.68722248  120.63700104    0.25000000    2.53999996
   13.68833351  124.83799744    0.25000000    2.53999996
   13.69083309  127.99299622    0.23000000    2.53999996
   13.69416714  123.03299713    0.25000000    2.55999994
   13.69722271  122.00800323    0.23000000    2.55999994
   13.70055580  124.64900208    0.23000000    2.53999996
   13.70388889  130.50199890    0.23000000    2.53999996
   13.70694447  124.41699982    0.25000000    2.55999994
   13.71027756  129.10899353    0.23000000    2.55999994
   13.71333313  116.45200348    0.23000000    2.53999996
   13.71666622  134.60699463    0.23000000    2.55999994
   13.72277737  134.60699463    0.23000000    2.55999994
   13.72694397  124.13700104    0.23000000    2.55999994
   13.73027706  132.87500000    0.23000000    2.55999994
   13.73333359  120.99099731    0.23000000    2.55999994
   13.73666668  119.83499908    0.23000000    2.55999994
   13.73972225  121.23799896    0.23000000    2.55999994
   13.74305534  123.41000366    0.25000000    2.55999994
   13.74638939  133.26800537    0.23000000    2.55999994
   13.74944496  126.47599792    0.23000000    2.55999994
   13.75277805  119.07299805    0.23000000    2.55999994
   13.75500011  119.78199768    0.23000000    2.55999994
   13.75638866  126.68299866    0.23000000    2.57999992
   13.75972176  123.62100220    0.23000000    2.57999992
   13.76555538  123.62100220    0.23000000    2.55999994
   13.76972198  128.25000000    0.25000000    2.55999994
   13.77305508  124.58999634    0.23000000    2.57999992
   13.77638817  123.03600311    0.23000000    2.55999994
   13.77944374  121.83200073    0.25000000    2.55999994
   13.78277779  121.69000244    0.25000000    2.55999994
   13.78611183  114.96800232    0.25000000    2.55999994
   13.78833389  113.15299988    0.23000000    2.57999992
   13.78972244  110.08300018    0.23000000    2.57999992
   13.79305553  116.56099701    0.25000000    2.55999994
   13.79611111  124.21199799    0.25000000    2.55999994
   13.79944515  116.78399658    0.23000000    2.53999996
   13.80277824  123.91799927    0.25000000    2.55999994
   13.80861092  123.91799927    0.25000000    2.57999992
   13.81250000  119.30500031    0.23000000    2.55999994
   13.81583309  123.10199738    0.23000000    2.55999994
   13.81916618  118.85399628    0.23000000    2.57999992
   13.82166672  121.34400177    0.23000000    2.55999994
   13.82277775  118.41600037    0.23000000    2.55999994
   13.82611084  120.96299744    0.23000000    2.57999992
   13.82916641  126.34500122    0.23000000    2.57999992
   13.83249950  127.98600006    0.23000000    2.57999992
   13.83583260  126.85299683    0.25000000    2.57999992
   13.83888817  126.41500092    0.25000000    2.55999994
   13.84222221  121.92500305    0.25000000    2.57999992
   13.84527779  127.00000000    0.25000000    2.57999992
   13.85138893  127.00000000    0.25000000    2.57999992
   13.85555553  122.50900269    0.25000000    2.55999994
   13.85861111  117.52100372    0.25000000    2.55999994
   13.86194515  120.26599884    0.25000000    2.57999992
   13.86527824  117.63700104    0.25000000    2.57999992
   13.86833382  112.66799927    0.25000000    2.57999992
   13.87166691  117.42199707    0.25000000    2.57999992
   13.87472248  115.45500183    0.25000000    2.55999994
   13.87805557  114.54799652    0.25000000    2.55999994
   13.88138866  111.69799805    0.25000000    2.57999992
   13.88444424  114.40499878    0.25000000    2.57999992
   13.88777733  116.73400116    0.25000000    2.57999992
   13.88861084  117.48699951    0.25000000    2.57999992
   13.89416695  117.48699951    0.25000000    2.59999990
   13.89833355  124.26799774    0.25000000    2.57999992
   13.90166664  119.55200195    0.25000000    2.57999992
   13.90472221  114.04399872    0.25000000    2.57999992
   13.90805531  114.25199890    0.25000000    2.57999992
   13.91138840  120.49700165    0.25999999    2.57999992
   13.91444397  118.40699768    0.25000000    2.57999992
   13.91777802  122.14800262    0.25999999    2.59999990
   13.92083359  116.90499878    0.25999999    2.57999992
   13.92194462  124.97699738    0.25999999    2.57999992
   13.92444515  120.76399994    0.25999999    2.57999992
   13.92777824  118.37500000    0.25999999    2.59999990
   13.93083382  122.09300232    0.25999999    2.57999992
   13.93694496  122.09300232    0.25000000    2.57999992
   13.94111156  114.56700134    0.25000000    2.57999992
   13.94472218  115.32900238    0.25000000    2.59999990
   13.94805527  123.70600128    0.25000000    2.57999992
   13.95138836  115.75800323    0.25000000    2.59999990
   13.95444393  122.48400116    0.25000000    2.59999990
   13.95527744  112.06199646    0.25000000    2.59999990
   13.95805550  128.85600281    0.25000000    2.59999990
   13.96138859  132.68200684    0.25000000    2.57999992
   13.96444416  127.28800201    0.25000000    2.57999992
   13.96777725  128.89100647    0.25000000    2.57999992
   13.97111034  117.79699707    0.25000000    2.57999992
   13.97416592  122.31300354    0.25000000    2.57999992
   13.97999954  122.31300354    0.25000000    2.57999992
   13.98388958  128.78999329    0.25000000    2.59999990
   13.98722267  127.27999878    0.25000000    2.59999990
   13.98861122  129.74400330    0.25000000    2.59999990
   13.99083328  118.93699646    0.25000000    2.59999990
   13.99416733  121.53600311    0.25000000    2.57999992
   13.99750042  113.93000031    0.25000000    2.59999990
   14.00055599  125.11699677    0.25000000    2.57999992
   14.00388908  122.17900085    0.25000000    2.57999992
   14.00694466  129.11099243    0.25000000    2.57999992
   14.01027775  115.00499725    0.25000000    2.57999992
   14.01361084  115.20400238    0.25000000    2.57999992
   14.01666641  117.26699829    0.25000000    2.59999990
   14.02277756  117.26699829    0.25000000    2.59999990
   14.02694416  129.49400330    0.25000000    2.59999990
   14.02999973  117.54799652    0.25000000    2.59999990
   14.03333378  128.20799255    0.25000000    2.59999990
   14.03666687  117.55100250    0.25000000    2.57999992
   14.03972244  116.11199951    0.25000000    2.57999992
   14.04305553  121.94499969    0.25000000    2.59999990
   14.04611111  118.33200073    0.25000000    2.59999990
   14.04944515  120.35399628    0.25000000    2.59999990
   14.05277824  119.88300323    0.25000000    2.59999990
   14.05527782  124.94999695    0.25000000    2.59999990
   14.05611134  121.37599945    0.25000000    2.59999990
   14.05944443  120.67400360    0.25000000    2.59999990
   14.06555557  120.67400360    0.25000000    2.59999990
   14.06972218  131.39700317    0.25000000    2.57999992
   14.07305527  113.40299988    0.25000000    2.59999990
   14.07611084  121.72100067    0.25000000    2.61999989
   14.07944393  120.70600128    0.25000000    2.59999990
   14.08249950  117.78700256    0.25000000    2.59999990
   14.08583260  116.01699829    0.25000000    2.59999990
   14.08861065  126.47100067    0.25000000    2.57999992
   14.08944416  114.19999695    0.25000000    2.57999992
   14.09277725  116.76200104    0.25000000    2.59999990
   14.09583282  139.10099792    0.25000000    2.59999990
   14.09916592  119.18399811    0.25000000    2.59999990
   14.10249996  119.93699646    0.25000000    2.59999990
   14.10833359  119.93699646    0.25000000    2.59999990
   14.11250019  115.05599976    0.25000000    2.61999989
   14.11583328  117.31500244    0.25000000    2.59999990
   14.11888885  121.28299713    0.25000000    2.61999989
   14.12194443  119.40299988    0.25000000    2.61999989
   14.12250042  129.27400208    0.25000000    2.61999989
   14.12583351  126.06199646    0.25000000    2.59999990
   14.12888908  120.98699951    0.25000000    2.61999989
   14.13222218  118.78399658    0.25000000    2.59999990
   14.13555527  114.52799988    0.23000000    2.59999990
   14.13861084  124.97399902    0.23000000    2.59999990
   14.14194393  121.05899811    0.23000000    2.59999990
   14.14527798  115.76000214    0.25000000    2.61999989
   14.15138817  115.76000214    0.23000000    2.59999990
   14.15555477  126.72499847    0.23000000    2.61999989
   14.15888882  127.56600189    0.23000000    2.59999990
   14.16194439  124.40499878    0.23000000    2.59999990
   14.16527748  122.33000183    0.25000000    2.61999989
   14.16833401  116.80899811    0.25000000    2.61999989
   14.17166710  113.53900146    0.23000000    2.61999989
   14.17500019  116.66400146    0.23000000    2.61999989
   14.17805576  118.00499725    0.23000000    2.61999989
   14.18138885  123.45999908    0.23000000    2.61999989
   14.18472195  135.10400391    0.23000000    2.64000010
   14.18777752  119.55999756    0.23000000    2.64000010
   14.18861103  122.29599762    0.25000000    2.59999990
   14.20916653  122.29599762    0.25000000    2.61999989
   14.21333313  123.37599945    0.25000000    2.64000010
   14.21666622  124.64099884    0.23000000    2.61999989
   14.21972179  109.98400116    0.25000000    2.59999990
   14.22194386  121.08100128    0.25000000    2.59999990
   14.22333336  107.55799866    0.25000000    2.59999990
   14.22666645  126.82199860    0.23000000    2.61999989
   14.22999954  128.81100464    0.25000000    2.61999989
   14.23305511  120.07499695    0.25000000    2.61999989
   14.23638916  126.85800171    0.25000000    2.59999990
   14.23972225  124.42700195    0.25000000    2.61999989
   14.24277782  131.69900513    0.25000000    2.61999989
   14.24611092  125.01300049    0.25000000    2.61999989
   14.25194454  125.01300049    0.25000000    2.64000010
   14.25611115  120.24099731    0.25999999    2.61999989
   14.25944424  121.39299774    0.25999999    2.61999989
   14.26249981  135.60800171    0.25999999    2.61999989
   14.26583290  111.09500122    0.25999999    2.61999989
   14.26916599  133.04400635    0.25999999    2.61999989
   14.27222157  139.75700378    0.25000000    2.61999989
   14.27555561  129.63800049    0.25000000    2.61999989
   14.27888870  142.16099548    0.25000000    2.61999989
   14.28222179  139.89500427    0.25000000    2.61999989
   14.28527832  135.37300110    0.25000000    2.61999989
   14.28861141  138.11799622    0.25000000    2.64000010
   14.28916740  110.78199768    0.25000000    2.64000010
   14.29500008  110.78199768    0.25000000    2.64000010
   14.29888916  128.53999329    0.25999999    2.61999989
   14.30222225  138.92199707    0.25999999    2.64000010
   14.30555534  125.18399811    0.25999999    2.61999989
   14.30861092  122.84500122    0.25999999    2.61999989
   14.31194496  112.17400360    0.25999999    2.61999989
   14.31527805  128.24099731    0.25999999    2.64000010
   14.31833363  119.15399933    0.25999999    2.61999989
   14.32166672  119.64499664    0.28000000    2.64000010
   14.32222176  121.87000275    0.28000000    2.64000010
   14.32527733  138.97700500    0.28000000    2.64000010
   14.32861137  116.67900085    0.25999999    2.61999989
   14.33166695  119.94999695    0.28000000    2.61999989
   14.33777714  119.94999695    0.28000000    2.61999989
   14.34194374  136.05900574    0.28000000    2.61999989
   14.34499931  146.51400757    0.28000000    2.61999989
   14.34833336  116.60900116    0.28000000    2.61999989
   14.35138893  104.43599701    0.28000000    2.61999989
   14.35472298  128.77099609    0.28000000    2.61999989
   14.35555553  126.67500305    0.28000000    2.61999989
   14.35833359  113.44200134    0.28000000    2.61999989
   14.36166668  115.41500092    0.28000000    2.64000010
   14.36500072  122.34100342    0.28000000    2.61999989
   14.36805534  125.53099823    0.28000000    2.61999989
   14.37138939  122.77100372    0.28000000    2.64000010
   14.37444496  119.89099884    0.28000000    2.61999989
   14.38055611  119.89099884    0.28000000    2.61999989
   14.38472176  119.84300232    0.28000000    2.64000010
   14.38777733  110.85099792    0.28000000    2.64000010
   14.38888836  115.82299805    0.28000000    2.64000010
   14.39138889  127.71900177    0.28000000    2.64000010
   14.39472198  129.04299927    0.28000000    2.61999989
   14.39805508  114.72000122    0.28000000    2.61999989
   14.40138817  112.94999695    0.28000000    2.61999989
   14.40444374  123.14800262    0.28000000    2.64000010
   14.40777779  120.84600067    0.28000000    2.61999989
   14.41083336  121.67400360    0.28000000    2.64000010
   14.41416645  116.59600067    0.28000000    2.64000010
   14.41750050  119.17500305    0.28000000    2.61999989
   14.42333412  119.17500305    0.41999999    2.61999989
   14.42750072  126.30200195    0.61000001    2.64000010
   14.43083382  113.60600281    0.50000000    2.61999989
   14.43388939  125.91400146    0.36000001    2.61999989
   14.43722248  131.24099731    0.34000000    2.64000010
   14.44055557  119.62599945    0.25999999    2.61999989
   14.44361115  117.09600067    0.28000000    2.61999989
   14.44694424  118.86199951    0.28000000    2.61999989
   14.44999981  116.28900146    0.28000000    2.66000009
   14.45333290  106.77300262    0.30000001    2.64000010
   14.45555496  115.61699677    0.30000001    2.64000010
   14.45694447  118.13099670    0.30000001    2.64000010
   14.46027756  112.66600037    0.30000001    2.64000010
   14.46611118  112.66600037    0.28000000    2.64000010
   14.47027779  114.38300323    0.28000000    2.64000010
   14.47361088  114.95099640    0.28000000    2.64000010
   14.47694397  120.05200195    0.25999999    2.64000010
   14.47999954  121.24500275    0.25999999    2.64000010
   14.48333359  124.79299927    0.25999999    2.64000010
   14.48638916  120.29399872    0.25999999    2.61999989
   14.48888874  133.35099792    0.25999999    2.64000010
   14.49000072  133.60299683    0.25999999    2.64000010
   14.49333382  137.34100342    0.25000000    2.61999989
   14.49666691  113.27500153    0.25000000    2.61999989
   14.49972248  117.74500275    0.25000000    2.64000010
   14.50305557  125.86599731    0.25000000    2.64000010
   14.50916672  125.86599731    0.25000000    2.64000010
   14.51333332  159.28399658    0.25000000    2.64000010
   14.51638889  142.17599487    0.25000000    2.64000010
   14.51972198  125.84500122    0.23000000    2.66000009
   14.52222157  152.34899902    0.25000000    2.64000010
   14.52333355  129.30799866    0.25000000    2.64000010
   14.52666664  148.82800293    0.23000000    2.64000010
   14.52999973  135.87800598    0.23000000    2.66000009
   14.53305531  141.84700012    0.23000000    2.66000009
   14.53638935  133.51100159    0.23000000    2.64000010
   14.53944492  142.96200562    0.25000000    2.61999989
   14.54277802  139.52400208    0.23000000    2.64000010
   14.54611111  123.71299744    0.23000000    2.64000010
   14.55194473  123.71299744    0.25000000    2.64000010
   14.55611134  117.01699829    0.23000000    2.64000010
   14.55916691  111.72000122    0.23000000    2.64000010
   14.56250000  117.16500092    0.23000000    2.66000009
   14.56583309  118.22399902    0.23000000    2.64000010
   14.56888866  118.90799713    0.23000000    2.64000010
   14.57222176  114.39900208    0.23000000    2.64000010
   14.57555580  127.17700195    0.23000000    2.64000010
   14.57861137  106.61900330    0.25000000    2.64000010
   14.58194447  128.82200623    0.25000000    2.64000010
   14.58500004  132.54299927    0.23000000    2.64000010
   14.58833313  128.63600159    0.23000000    2.66000009
   14.58888817  111.98899841    0.23000000    2.66000009
   14.59472179  111.98899841    0.23000000    2.61999989
   14.59888840  140.73399353    0.23000000    2.64000010
   14.60222244  126.37599945    0.23000000    2.64000010
   14.60527802  112.08499908    0.23000000    2.66000009
   14.60861111  128.90600586    0.23000000    2.64000010
   14.61166668  128.25799561    0.23000000    2.64000010
   14.61500072  110.89800262    0.23000000    2.64000010
   14.61833382  136.17599487    0.23000000    2.64000010
   14.62138939  143.58399963    0.23000000    2.64000010
   14.62222195  122.37999725    0.23000000    2.64000010
   14.62527752  140.02900696    0.23000000    2.66000009
   14.62833309  135.88900757    0.23000000    2.66000009
   14.63166714  136.05799866    0.23000000    2.64000010
   14.63749981  136.05799866    0.23000000    2.64000010
   14.64166641  144.23300171    0.23000000    2.66000009
   14.64499950  134.81799316    0.23000000    2.64000010
   14.64833355  133.87199402    0.23000000    2.64000010
   14.65138817  154.07000732    0.23000000    2.66000009
   14.65472221  118.52400208    0.20999999    2.66000009
   14.65555477  116.59700012    0.20999999    2.66000009
   14.65833282  119.54799652    0.23000000    2.66000009
   14.66138840  141.58900452    0.23000000    2.66000009
   14.66472149  146.65600586    0.23000000    2.66000009
   14.66777802  144.02299500    0.23000000    2.66000009
   14.67111111  153.97599792    0.20999999    2.66000009
   14.67444515  136.47599792    0.20999999    2.66000009
   14.68055630  136.47599792    0.20999999    2.64000010
   14.68472195  135.65400696    0.23000000    2.64000010
   14.68777752  130.99400330    0.23000000    2.67000008
   14.68888855  141.58500671    0.23000000    2.67000008
   14.69166660  129.75199890    0.23000000    2.67000008
   14.69472218  133.14599609    0.23000000    2.66000009
   14.69805527  123.31800079    0.23000000    2.66000009
   14.70111084  115.70600128    0.23000000    2.64000010
   14.70444393  122.51100159    0.23000000    2.64000010
   14.70777798  120.64399719    0.23000000    2.66000009
   14.71111107  148.76600647    0.23000000    2.66000009
   14.71416664  121.14099884    0.23000000    2.67000008
   14.71749973  131.57400513    0.23000000    2.66000009
   14.72333336  131.57400513    0.23000000    2.64000010
   14.72749996  130.46600342    0.23000000    2.64000010
   14.73055553  130.16600037    0.23000000    2.64000010
   14.73388958  125.80899811    0.23000000    2.66000009
   14.73722267  148.17199707    0.20999999    2.64000010
   14.74027824  127.83399963    0.23000000    2.64000010
   14.74361134  143.06900024    0.23000000    2.66000009
   14.74694443  127.26300049    0.23000000    2.66000009
   14.75000000  134.42500305    0.25000000    2.66000009
   14.75333309  134.76499939    0.25000000    2.64000010
   14.75555515  133.94799805    0.23000000    2.69000006
   14.75694466  132.67999268    0.23000000    2.64000010
   14.76000023  123.15799713    0.23000000    2.64000010
   14.76611137  123.15799713    0.23000000    2.66000009
   14.77027798  153.50399780    0.25000000    2.67000008
   14.77361107  134.90600586    0.23000000    2.66000009
   14.77666664  126.94599915    0.23000000    2.66000009
   14.77999973  129.61700439    0.25000000    2.67000008
   14.78333378  145.91000366    0.25000000    2.66000009
   14.78638935  124.83699799    0.25000000    2.66000009
   14.78888893  138.02200317    0.25000000    2.66000009
   14.79027843  129.74099731    0.25000000    2.66000009
   14.79333401  136.21600342    0.23000000    2.64000010
   14.79666710  137.08399963    0.23000000    2.66000009
   14.79972267  136.45899963    0.23000000    2.66000009
   14.80305576  130.95199585    0.23000000    2.66000009
   14.80888939  130.95199585    0.23000000    2.66000009
   14.81305599  137.71699524    0.23000000    2.66000009
   14.81638908  129.32400513    0.23000000    2.67000008
   14.81972218  143.23599243    0.23000000    2.67000008
   14.82222176  170.87800598    0.23000000    2.67000008
   14.82333374  139.92500305    0.23000000    2.67000008
   14.82638836  142.25700378    0.23000000    2.66000009
   14.82972240  144.80099487    0.20999999    2.67000008
   14.83277798  114.04599762    0.20999999    2.67000008
   14.83611107  153.71299744    0.20999999    2.67000008
   14.83944416  138.76800537    0.23000000    2.66000009
   14.84249973  141.79600525    0.23000000    2.66000009
   14.84583282  149.19799805    0.20999999    2.66000009
   14.85194492  149.19799805    0.20999999    2.66000009
   14.85611153  154.55400085    0.20999999    2.66000009
   14.85916710  163.72599792    0.20999999    2.66000009
   14.86250019  156.37399292    0.20999999    2.66000009
   14.86555576  146.09899902    0.23000000    2.66000009
   14.86888885  159.93200684    0.20999999    2.66000009
   14.87222195  151.14900208    0.20999999    2.67000008
   14.87527752  132.57600403    0.20999999    2.66000009
   14.87861156  154.68600464    0.20999999    2.66000009
   14.88194466  129.24899292    0.20999999    2.66000009
   14.88500023  143.72099304    0.23000000    2.66000009
   14.88833332  139.95300293    0.20999999    2.66000009
   14.88888836  139.16600037    0.20999999    2.66000009
   14.89472198  139.16600037    0.20999999    2.66000009
   14.89888859  138.07699585    0.23000000    2.66000009
   14.90222168  153.95700073    0.20999999    2.67000008
   14.90527725  147.25000000    0.23000000    2.67000008
   14.90861034  145.74099731    0.23000000    2.67000008
   14.91166592  159.64799500    0.20999999    2.67000008
   14.91499996  154.15400696    0.20999999    2.66000009
   14.91833401  132.73800659    0.23000000    2.67000008
   14.92138958  142.30999756    0.20999999    2.66000009
   14.92222214  157.62199402    0.20999999    2.66000009
   14.92527771  130.93299866    0.20999999    2.66000009
   14.92833328  142.35699463    0.20999999    2.67000008
   14.93166733  154.89700317    0.20999999    2.67000008
   14.93750000  154.89700317    0.23000000    2.66000009
   14.94166660  122.53399658    0.20999999    2.67000008
   14.94499969  146.16499329    0.20999999    2.66000009
   14.94833374  123.54699707    0.20999999    2.66000009
   14.95138836  120.66899872    0.20999999    2.67000008
   14.95472240  116.79199982    0.20999999    2.67000008
   14.95555496  124.08799744    0.20999999    2.67000008
   14.95833302  139.27900696    0.20999999    2.67000008
   14.96138859  124.91600037    0.20999999    2.67000008
   14.96472168  148.14399719    0.20999999    2.66000009
   14.96805477  130.38299561    0.20999999    2.66000009
   14.97111034  144.46200562    0.23000000    2.67000008
   14.97444439  137.13400269    0.20999999    2.66000009
   14.98027706  137.13400269    0.20999999    2.67000008
   14.98444462  146.62300110    0.20999999    2.69000006
   14.98777771  112.02500153    0.23000000    2.66000009
   14.98888874  138.17199707    0.23000000    2.66000009
   14.99138927  140.14399719    0.20999999    2.66000009
   14.99444485  137.40199280    0.20999999    2.66000009
   14.99777794  147.92900085    0.20999999    2.67000008
   15.00111103  162.24400330    0.20999999    2.67000008
   15.00416660  121.26499939    0.20999999    2.67000008
   15.00749969  133.89500427    0.20999999    2.67000008
   15.01083374  144.16000366    0.20999999    2.67000008
   15.01388931  153.85099792    0.20999999    2.67000008
   15.01722240  156.71400452    0.20999999    2.67000008
   15.02333355  156.71400452    0.20999999    2.67000008
   15.02750015  137.28300476    0.20999999    2.67000008
   15.03055573  141.59300232    0.20999999    2.67000008
   15.03388977  143.05599976    0.20999999    2.67000008
   15.03694534  147.92900085    0.20999999    2.67000008
   15.04027843  148.86099243    0.20999999    2.67000008
   15.04361153  130.32200623    0.20999999    2.67000008
   15.04666710  143.03700256    0.20999999    2.67000008
   15.05000019  141.42500305    0.23000000    2.67000008
   15.05333328  152.11300659    0.20999999    2.67000008
   15.05555534  132.45799255    0.20999999    2.67000008
   15.05694485  135.20700073    0.20999999    2.67000008
   15.06000042  126.66699982    0.20999999    2.67000008
   15.06611156  126.66699982    0.20999999    2.69000006
   15.07027817  149.80099487    0.20999999    2.67000008
   15.07333374  117.73999786    0.20999999    2.67000008
   15.07666683  117.32099915    0.23000000    2.67000008
   15.07999992  127.52200317    0.23000000    2.66000009
   15.08305550  141.10099792    0.23000000    2.66000009
   15.08638859  135.24699402    0.20999999    2.67000008
   15.08888817  148.85499573    0.20999999    2.67000008
   15.09000015  137.85600281    0.20999999    2.67000008
   15.09305477  130.66799927    0.20999999    2.66000009
   15.09638882  128.03399658    0.20999999    2.66000009
   15.09944439  111.36100006    0.23000000    2.69000006
   15.10277843  132.72700500    0.20999999    2.69000006
   15.10888958  132.72700500    0.20999999    2.66000009
   15.11305618  121.13099670    0.20999999    2.67000008
   15.11638927  130.96499634    0.20999999    2.66000009
   15.11944485  163.97799683    0.20999999    2.67000008
   15.12222195  141.20500183    0.20999999    2.67000008
   15.12333393  141.41200256    0.20999999    2.67000008
   15.12638855  142.53199768    0.20999999    2.67000008
   15.12972260  131.03199768    0.20999999    2.67000008
   15.13277817  115.09600067    0.20999999    2.67000008
   15.13611126  140.65299988    0.20999999    2.67000008
   15.13944435  116.20800018    0.20999999    2.69000006
   15.14249992  126.62799835    0.23000000    2.67000008
   15.14583302  140.51800537    0.20999999    2.69000006
   15.15166664  140.51800537    0.20999999    2.67000008
   15.15583324  142.56500244    0.20999999    2.67000008
   15.15916634  130.83299255    0.20999999    2.66000009
   15.16249943  141.42300415    0.23000000    2.66000009
   15.16555500  134.71899414    0.23000000    2.67000008
   15.16888905  123.77100372    0.20999999    2.69000006
   15.17194462  138.90100098    0.20999999    2.69000006
   15.17527771  133.69200134    0.20999999    2.67000008
   15.17861176  140.41999817    0.20999999    2.67000008
   15.18166733  118.30500031    0.20999999    2.67000008
   15.18500042  136.19400024    0.20999999    2.69000006
   15.18833351  122.44499969    0.20999999    2.67000008
   15.18888855  126.75099945    0.20999999    2.67000008
   15.19472218  126.75099945    0.20999999    2.67000008
   15.19888878  124.46099854    0.20999999    2.67000008
   15.20194435  136.36500549    0.20999999    2.69000006
   15.20527744  133.96499634    0.20999999    2.69000006
   15.22277737  122.34500122    0.20999999    2.66000009
   15.22527695  137.41700745    0.20999999    2.66000009
   15.22833252  127.67600250    0.20999999    2.67000008
   15.23166656  137.39500427    0.20999999    2.69000006
   15.23750019  137.39500427    0.20999999    2.69000006
   15.24166679  125.75199890    0.20999999    2.69000006
   15.24499989  135.95300293    0.23000000    2.67000008
   15.24833393  152.34100342    0.20999999    2.67000008
   15.25138855  144.82099915    0.20999999    2.69000006
   15.25472260  135.57699585    0.23000000    2.67000008
   15.25611115  134.75799561    0.23000000    2.67000008
   15.25833321  145.67399597    0.20999999    2.67000008
   15.26138878  122.37000275    0.23000000    2.67000008
   15.26472187  137.09199524    0.23000000    2.67000008
   15.26777744  149.57699585    0.20999999    2.67000008
   15.27111053  139.14799500    0.20999999    2.69000006
   15.27444458  158.23100281    0.23000000    2.69000006
   15.28055573  158.23100281    0.20999999    2.67000008
   15.28472233  137.14799500    0.23000000    2.69000006
   15.28777790  129.53799438    0.20999999    2.69000006
   15.28944492  123.73699951    0.20999999    2.69000006
   15.29166698  131.02999878    0.20999999    2.69000006
   15.29472256  130.17700195    0.20999999    2.67000008
   15.29805565  140.57099915    0.20999999    2.69000006
   15.30111122  137.00999451    0.20999999    2.69000006
   15.30444431  132.03100586    0.23000000    2.69000006
   15.30777836  134.69099426    0.20999999    2.69000006
   15.31111145  136.64399719    0.20999999    2.69000006
   15.31416702  138.61000061    0.20999999    2.67000008
   15.31750011  130.50100708    0.20999999    2.69000006
   15.32333374  130.50100708    0.20999999    2.69000006
   15.32750034  131.21000671    0.20999999    2.67000008
   15.33055592  136.03300476    0.20999999    2.69000006
   15.33388901  122.05699921    0.20999999    2.69000006
   15.33722210  136.89700317    0.20999999    2.67000008
   15.34027767  125.79199982    0.23000000    2.67000008
   15.34361076  123.05400085    0.20999999    2.69000006
   15.34666634  128.45700073    0.20999999    2.69000006
   15.35000038  119.89499664    0.20999999    2.69000006
   15.35333347  135.63200378    0.20999999    2.69000006
   15.35611153  116.52500153    0.20999999    2.69000006
   15.35666752  112.48000336    0.20999999    2.69000006
   15.36000061  132.94500732    0.20999999    2.69000006
   15.36611176  132.94500732    0.20999999    2.69000006
   15.37027836  117.87500000    0.20999999    2.69000006
   15.37361145  119.25099945    0.20999999    2.69000006
   15.37666702  127.65100098    0.20999999    2.69000006
   15.38000011  115.20999908    0.20999999    2.69000006
   15.38333321  123.29000092    0.20999999    2.69000006
   15.38638878  135.98800659    0.20999999    2.69000006
   15.38944435  123.20800018    0.23000000    2.69000006
   15.39027786  116.58399963    0.23000000    2.69000006
   15.39333344  125.68800354    0.20999999    2.67000008
   15.39666653  118.72200012    0.23000000    2.69000006
   15.39972210  120.76000214    0.23000000    2.69000006
   15.40305519  116.97000122    0.23000000    2.69000006
   15.40888882  116.97000122    0.20999999    2.67000008
   15.41305542  112.27700043    0.23000000    2.69000006
   15.41638851  109.22599792    0.23000000    2.69000006
   15.41944504  119.44799805    0.23000000    2.69000006
   15.42277813  108.69100189    0.20999999    2.69000006
   15.42305565   99.69589996    0.20999999    2.69000006
   15.42638874  131.37500000    0.20999999    2.67000008
   15.42972279  111.47699738    0.23000000    2.69000006
   15.43305588  112.18699646    0.20999999    2.67000008
   15.43611145  122.55899811    0.20999999    2.69000006
   15.43944454  114.48899841    0.20999999    2.69000006
   15.44277763  105.27100372    0.20999999    2.69000006
   15.44583321  115.19400024    0.20999999    2.67000008
   15.45194435  115.19400024    0.25000000    2.69000006
   15.45583344  103.47699738    0.25000000    2.69000006
   15.45638847  124.65399933    0.25000000    2.69000006
   15.45972157  109.06199646    0.25000000    2.69000006
   15.46277714  126.34700012    0.25000000    2.69000006
   15.46611118  100.62000275    0.25999999    2.71000004
   15.46944427   96.77909851    0.25999999    2.71000004
   15.47249985  105.89299774    0.25999999    2.69000006
   15.47583294  115.81099701    0.25999999    2.69000006
   15.47916603  107.53800201    0.25999999    2.69000006
   15.48249912  108.95200348    0.25999999    2.67000008
   15.48555565  109.22200012    0.25999999    2.67000008
   15.48888874  117.41899872    0.25999999    2.67000008
   15.48972225  111.83399963    0.25999999    2.69000006
   15.49472237  111.83399963    0.25999999    2.69000006
   15.49888897  105.61199951    0.28000000    2.69000006
   15.50222206  100.05200195    0.25999999    2.67000008
   15.50555515  120.12899780    0.25999999    2.69000006
   15.50861073  118.55899811    0.25999999    2.69000006
   15.51194477  108.34600067    0.25999999    2.69000006
   15.51500034  107.13999939    0.25999999    2.71000004
   15.51833344  111.63999939    0.25999999    2.69000006
   15.52166653   95.65080261    0.25999999    2.67000008
   15.52305508  103.80300140    0.25999999    2.67000008
   15.52527714  107.26799774    0.25999999    2.69000006
   15.52861118  111.98400116    0.25999999    2.69000006
   15.53166676  104.88500214    0.25000000    2.69000006
   15.53750038  104.88500214    0.25999999    2.69000006
   15.54166698  104.62999725    0.25000000    2.69000006
   15.54472256  112.66799927    0.25000000    2.69000006
   15.54805565  109.81999969    0.25999999    2.69000006
   15.55138874  113.12400055    0.25000000    2.69000006
   15.55444431  106.31700134    0.25000000    2.67000008
   15.55638885  104.62500000    0.25000000    2.67000008
   15.55805588  115.92500305    0.25000000    2.69000006
   15.56138897  116.13800049    0.25000000    2.69000006
   15.56444454  111.95300293    0.25000000    2.67000008
   15.56777763  114.54699707    0.25000000    2.67000008
   15.57083321  107.55000305    0.25000000    2.69000006
   15.57416630  109.66000366    0.25000000    2.67000008
   15.58027744  109.66000366    0.25000000    2.69000006
   15.58444405  109.66100311    0.25000000    2.69000006
   15.58777714  113.89299774    0.23000000    2.69000006
   15.58972168  108.45300293    0.23000000    2.69000006
   15.59138870  117.71600342    0.23000000    2.69000006
   15.59472179  112.49900055    0.23000000    2.69000006
   15.59777737  113.00299835    0.23000000    2.69000006
   15.60111141  111.97399902    0.20999999    2.69000006
   15.60444450  110.81800079    0.20999999    2.69000006
   15.60750008  110.66000366    0.20999999    2.69000006
   15.61083412  114.97899628    0.20999999    2.69000006
   15.61388969  112.28900146    0.20999999    2.69000006
   15.61722279  107.03700256    0.20999999    2.69000006
   15.62333393  107.03700256    0.20999999    2.69000006
   15.62722206  115.28500366    0.23000000    2.69000006
   15.63055611  109.56199646    0.20999999    2.69000006
   15.63388920  108.11599731    0.23000000    2.71000004
   15.63694477  111.99199677    0.20999999    2.69000006
   15.64027786  104.83999634    0.20999999    2.69000006
   15.64361095  115.12200165    0.20999999    2.69000006
   15.64666653  125.85700226    0.20999999    2.69000006
   15.64999962  121.56300354    0.20999999    2.69000006
   15.65333271  122.73999786    0.20999999    2.69000006
   15.65638828  117.85299683    0.20999999    2.71000004
   15.65694427  111.26399994    0.20999999    2.71000004
   15.66027737  116.88300323    0.20999999    2.69000006
   15.66611099  116.88300323    0.20999999    2.69000006
   15.67027855  114.56300354    0.20999999    2.69000006
   15.67333412  112.23400116    0.20999999    2.69000006
   15.67666721  111.26100159    0.20999999    2.69000006
   15.67972279  106.67700195    0.20999999    2.71000004
   15.68305588  105.99600220    0.23000000    2.69000006
   15.68638897  107.23200226    0.20999999    2.69000006
   15.68944454  113.32199860    0.20999999    2.69000006
   15.69000053  104.12899780    0.20999999    2.69000006
   15.69333363  112.12799835    0.20999999    2.69000006
   15.69638920  105.48699951    0.20999999    2.69000006
   15.69972229  114.70500183    0.23000000    2.69000006
   15.70305538  124.26300049    0.20999999    2.69000006
   15.70888901  124.26300049    0.20999999    2.69000006
   15.71305561  112.44899750    0.20999999    2.69000006
   15.71638870  113.73000336    0.20999999    2.71000004
   15.71944427  110.54299927    0.20999999    2.71000004
   15.72277737  121.77700043    0.20999999    2.69000006
   15.72333336  108.58999634    0.20999999    2.69000006
   15.72638798  122.49199677    0.20999999    2.69000006
   15.72944355  112.65000153    0.20999999    2.71000004
   15.73277760  112.60099792    0.23000000    2.69000006
   15.73611164  104.51300049    0.23000000    2.69000006
   15.73916721  112.78600311    0.23000000    2.69000006
   15.74250031  112.52600098    0.23000000    2.69000006
   15.74555588  114.48600006    0.23000000    2.69000006
   15.75166702  114.48600006    0.23000000    2.69000006
   15.75583363  113.02799988    0.20999999    2.71000004
   15.75666714  119.98999786    0.20999999    2.71000004
   15.75944424  104.39600372    0.23000000    2.69000006
   15.76249981  113.33699799    0.23000000    2.67000008
   15.76583290  127.02999878    0.23000000    2.69000006
   15.76916599  114.77100372    0.23000000    2.69000006
   15.77222157  118.08799744    0.23000000    2.69000006
   15.77555561  127.18800354    0.23000000    2.69000006
   15.77861118  113.05300140    0.20999999    2.69000006
   15.78194427  105.50700378    0.20999999    2.69000006
   15.78527832  119.54100037    0.20999999    2.69000006
   15.78833389  111.36100006    0.20999999    2.69000006
   15.79000092  107.46399689    0.20999999    2.71000004
   15.79444504  107.46399689    0.20999999    2.69000006
   15.79861164  110.63300323    0.20999999    2.71000004
   15.80194473  107.55000305    0.20999999    2.69000006
   15.80527782  113.22100067    0.23000000    2.69000006
   15.80833340  126.47899628    0.20999999    2.69000006
   15.81166649  116.93499756    0.23000000    2.69000006
   15.81500053  104.40799713    0.23000000    2.69000006
   15.81805515  110.41400146    0.25999999    2.69000006
   15.82138920  114.19499969    0.30000001    2.69000006
   15.82333374  128.11700439    0.30000001    2.69000006
   15.82499981  108.59300232    0.30000001    2.69000006
   15.82805538  123.61199951    0.36000001    2.69000006
   15.83138847  114.02899933    0.40000001    2.69000006
   15.83749962  114.02899933    0.40000001    2.69000006
   15.84166622  104.44999695    0.38000000    2.69000006
   15.84472179  132.75300598    0.34000000    2.69000006
   15.84805489  119.09799957    0.34000000    2.69000006
   15.85111141  110.95200348    0.30000001    2.69000006
   15.85444450  115.18699646    0.31999999    2.71000004
   15.85666752  117.70200348    0.31999999    2.71000004
   15.85805607  107.29900360    0.30000001    2.71000004
   15.86111164  123.79799652    0.30000001    2.69000006
   15.86444473  119.57599640    0.30000001    2.69000006
   15.86777782  140.31100464    0.30000001    2.69000006
   15.87083340  116.12500000    0.28000000    2.71000004
   15.87416649  134.28100586    0.25999999    2.71000004
   15.88027763  134.28100586    0.25999999    2.69000006
   15.88444424  134.64500427    0.25999999    2.69000006
   15.88749981  119.48899841    0.25999999    2.69000006
   15.89000034  147.37500000    0.25999999    2.69000006
   15.89138889  121.59200287    0.30000001    2.71000004
   15.89472198  122.71800232    0.30000001    2.71000004
   15.89777756  108.87300110    0.31999999    2.71000004
   15.90111065  113.79699707    0.34000000    2.71000004
   15.90416622  128.82299805    0.34000000    2.69000006
   15.90749931  105.37699890    0.31999999    2.71000004
   15.91083336  102.54699707    0.31999999    2.71000004
   15.91388893   99.38150024    0.31999999    2.69000006
   15.91722298   99.41760254    0.31999999    2.69000006
   15.92305565   99.41760254    0.31999999    2.69000006
   15.92722225  112.33499908    0.34000000    2.67000008
   15.93055630  113.58300018    0.34000000    2.67000008
   15.93361092   99.92369843    0.34000000    2.69000006
   15.93694496  119.12500000    0.34000000    2.67000008
   15.94027805  110.91400146    0.34000000    2.71000004
   15.94333363  101.11599731    0.34000000    2.69000006
   15.94666672  115.40200043    0.34000000    2.71000004
   15.94999981  109.10399628    0.34000000    2.69000006
   15.95305538  127.89900208    0.34000000    2.69000006
   15.95638847  106.20099640    0.34000000    2.69000006
   15.95805550  103.69999695    0.34000000    2.69000006
   15.96000004  112.63600159    0.34000000    2.69000006
   15.96583271  112.63600159    0.38000000    2.69000006
   15.96999931  109.85500336    0.41999999    2.69000006
   15.97333336  113.44499969    0.44000000    2.69000006
   15.97666645  103.03299713    0.41999999    2.69000006
   15.97999954  105.37599945    0.41999999    2.69000006
   15.98305511  103.69499969    0.44000000    2.69000006
   15.98638916  105.41000366    0.47999999    2.69000006
   15.98944473  112.36599731    0.55000001    2.69000006
   15.99138927  108.10399628    0.55000001    2.69000006
   15.99333382  112.07599640    0.58999997    2.67000008
   15.99638939  125.99099731    0.58999997    2.67000008
   16.00000000  107.87200165    0.69000000    2.69000006
   16.00305557  111.69499969    0.80000001    2.69000006
   16.00888824  111.69499969    0.86000001    2.69000006
   16.01277733  107.20400238    0.80000001    2.69000006
   16.01611137  108.79699707    0.76999998    2.69000006
   16.01944351  108.71800232    0.83999997    2.69000006
   16.02249908  121.03199768    0.81999999    2.71000004
   16.02499962  104.56400299    0.81999999    2.71000004
   16.02638817  121.10600281    0.88000000    2.69000006
   16.02944374  114.20200348    0.75000000    2.71000004
   16.03277779  105.75900269    0.73000002    2.69000006
   16.03583336  111.22200012    0.73000002    2.69000006
   16.03916550  116.70500183    0.75000000    2.69000006
   16.04249954  110.17400360    0.73000002    2.69000006
   16.04555511  115.92400360    0.56999999    2.69000006
   16.05166626  115.92400360    0.52999997    2.71000004
   16.05583191  110.28600311    0.51999998    2.69000006
   16.05833244  114.62999725    0.52999997    2.69000006
   16.05916595  105.48899841    0.52999997    2.69000006
   16.06250000  112.65200043    0.52999997    2.71000004
   16.06583214  111.06400299    0.52999997    2.71000004
   16.06888962  104.64800262    0.52999997    2.69000006
   16.07222366  115.12799835    0.55000001    2.69000006
   16.07555580  112.43399811    0.52999997    2.69000006
   16.07861137  107.72899628    0.52999997    2.69000006
   16.08194542  113.30799866    0.52999997    2.69000006
   16.08500099  104.71399689    0.55000001    2.69000006
   16.08833313  102.54299927    0.55000001    2.69000006
   16.09444427  102.54299927    0.50000000    2.69000006
   16.09861183  103.80999756    0.47999999    2.69000006
   16.10194397  119.97399902    0.44000000    2.69000006
   16.10499954  110.54199982    0.46000001    2.69000006
   16.10833359  111.14900208    0.46000001    2.69000006
   16.11166763  113.00000000    0.46000001    2.69000006
   16.11472321  111.63700104    0.44000000    2.71000004
   16.11805534  115.40399933    0.44000000    2.71000004
   16.12138939  115.12300110    0.40000001    2.69000006
   16.12444496  108.75299835    0.38000000    2.69000006
   16.12527847  112.33899689    0.38000000    2.69000006
   16.12805557  103.75099945    0.36000001    2.71000004
   16.13138962  107.48500061    0.36000001    2.71000004
   16.13722229  107.48500061    0.34000000    2.71000004
   16.14138794  106.20800018    0.34000000    2.69000006
   16.14472198  106.57700348    0.34000000    2.69000006
   16.14805603  101.05500031    0.34000000    2.69000006
   16.15111160  111.25499725    0.31999999    2.69000006
   16.15444374  118.56800079    0.31999999    2.69000006
   16.15777779  103.60700226    0.31999999    2.69000006
   16.15861130  117.83699799    0.30000001    2.67000008
   16.16138840  102.79399872    0.30000001    2.67000008
   16.16472244  116.72399902    0.30000001    2.69000006
   16.16777802  103.09500122    0.30000001    2.69000006
   16.17111015  125.73899841    0.30000001    2.69000006
   16.17444420  103.46700287    0.30000001    2.69000006
   16.18027687  103.46700287    0.30000001    2.69000006
   16.18444443  105.43199921    0.30000001    2.71000004
   16.18777657  109.04799652    0.30000001    2.71000004
   16.19083214  105.78199768    0.28000000    2.69000006
   16.19222069  105.32700348    0.30000001    2.69000006
   16.19444275  110.98400116    0.30000001    2.69000006
   16.19749832  109.63700104    0.28000000    2.69000006
   16.20083427  106.67299652    0.30000001    2.71000004
   16.20416832  106.79299927    0.28000000    2.67000008
   16.20750046  105.32800293    0.28000000    2.69000006
   16.21055603  102.89900208    0.28000000    2.71000004
   16.21389008  111.17700195    0.28000000    2.71000004
   16.21722221  111.13600159    0.28000000    2.69000006
   16.22305679  111.13600159    0.25999999    2.69000006
   16.24138832  109.95200348    0.28000000    2.71000004
   16.24472237  111.13999939    0.28000000    2.71000004
   16.24777794  107.60399628    0.28000000    2.69000006
   16.25111198  107.02200317    0.30000001    2.71000004
   16.25444412  108.88700104    0.30000001    2.71000004
   16.25749969  107.71099854    0.30000001    2.71000004
   16.26083374  109.21299744    0.30000001    2.69000006
   16.26611137  109.21299744    0.30000001    2.69000006
   16.27027702  109.79599762    0.30000001    2.71000004
   16.27333260  108.75000000    0.28000000    2.69000006
   16.27444458  114.17700195    0.28000000    2.69000006
   16.27722168  102.53600311    0.25999999    2.69000006
   16.28055573  108.00499725    0.25999999    2.69000006
   16.28361130  113.47899628    0.25999999    2.71000004
   16.28694344  114.50000000    0.25999999    2.69000006
   16.29027748  113.06999969    0.28000000    2.67000008
   16.29333305  110.95700073    0.28000000    2.71000004
   16.29666710  117.22000122    0.25999999    2.69000006
   16.29999924  111.74500275    0.28000000    2.69000006
   16.30305481  115.41999817    0.28000000    2.69000006
   16.30888748  115.41999817    0.28000000    2.71000004
   16.31305504  113.83899689    0.28000000    2.69000006
   16.31638718  112.43099976    0.28000000    2.69000006
   16.31944466  107.16799927    0.25999999    2.69000006
   16.32277870  118.37599945    0.25999999    2.71000004
   16.32583427  112.54699707    0.25999999    2.69000006
   16.32916832  116.90000153    0.25999999    2.69000006
   16.33250046  116.73799896    0.28000000    2.69000006
   16.33555603  116.49400330    0.28000000    2.71000004
   16.33889008  110.29000092    0.28000000    2.71000004
   16.34111214  107.76999664    0.28000000    2.71000004
   16.34250069  112.31700134    0.28000000    2.71000004
   16.34555626  110.86199951    0.28000000    2.69000006
   16.35166740  110.86199951    0.28000000    2.69000006
   16.35583305  116.91300201    0.28000000    2.69000006
   16.35916710  122.47699738    0.28000000    2.71000004
   16.36222267  102.34200287    0.28000000    2.67000008
   16.36555672  110.27200317    0.25999999    2.69000006
   16.36888885  106.01499939    0.25999999    2.69000006
   16.37194443  112.44899750    0.28000000    2.69000006
   16.37444496  113.91899872    0.25999999    2.71000004
   16.37583351  112.60500336    0.25999999    2.71000004
   16.37888908  109.46700287    0.25999999    2.69000006
   16.38222313  112.62500000    0.25999999    2.69000006
   16.38527679  111.24500275    0.28000000    2.69000006
   16.38861084  114.63400269    0.28000000    2.69000006
   16.39472198  114.63400269    0.28000000    2.69000006
   16.39888954  115.24600220    0.28000000    2.69000006
   16.40194321  108.45300293    0.28000000    2.71000004
   16.40527725  111.22000122    0.28000000    2.71000004
   16.40777779  108.19400024    0.28000000    2.69000006
   16.40888786  108.31800079    0.28000000    2.69000006
   16.41222191  114.61299896    0.28000000    2.71000004
   16.41527748  115.79299927    0.31999999    2.69000006
   16.41860962  112.50399780    0.31999999    2.69000006
   16.42166519  112.60299683    0.31999999    2.69000006
   16.42527771  117.67099762    0.31999999    2.69000006
   16.42833328  110.88800049    0.30000001    2.69000006
   16.43166542  112.79599762    0.30000001    2.69000006
   16.43750000  112.79599762    0.30000001    2.69000006
   16.44166565  122.76100159    0.30000001    2.69000006
   16.44472122  116.81900024    0.30000001    2.69000006
   16.44805527  118.09600067    0.30000001    2.69000006
   16.45138931  116.75800323    0.30000001    2.69000006
   16.45444489  117.07399750    0.31999999    2.71000004
   16.45777893  111.66600037    0.31999999    2.71000004
   16.46111107  109.87500000    0.30000001    2.69000006
   16.46416664  117.17500305    0.30000001    2.69000006
   16.46750069  111.42800140    0.30000001    2.67000008
   16.47083473  110.09600067    0.31999999    2.69000006
   16.47389030  113.53800201    0.31999999    2.71000004
   16.47444534  114.50599670    0.31999999    2.71000004
   16.48027802  114.50599670    0.30000001    2.69000006
   16.48444557  109.22100067    0.31999999    2.69000006
   16.48777771  111.57800293    0.31999999    2.71000004
   16.49083328  110.50900269    0.31999999    2.71000004
   16.49416733  114.23100281    0.31999999    2.71000004
   16.49749947  116.12400055    0.31999999    2.69000006
   16.50055504  110.98200226    0.30000001    2.69000006
   16.50388908  110.80300140    0.31999999    2.69000006
   16.50694466  110.46399689    0.30000001    2.71000004
   16.50777817  125.47399902    0.30000001    2.71000004
   16.51083374  111.85800171    0.30000001    2.69000006
   16.51388931  113.02500153    0.31999999    2.69000006
   16.51722145  113.37400055    0.31999999    2.69000006
   16.52305603  113.37400055    0.30000001    2.69000006
   16.52722168  115.82599640    0.31999999    2.69000006
   16.53055573  114.69100189    0.31999999    2.69000006
   16.53361130  113.15899658    0.31999999    2.69000006
   16.53694344  116.84999847    0.31999999    2.69000006
   16.54027748  113.68499756    0.31999999    2.69000006
   16.54111099  123.97000122    0.31999999    2.69000006
   16.54388809  113.59799957    0.31999999    2.69000006
   16.54694366  112.36199951    0.31999999    2.69000006
   16.55027771  113.40200043    0.31999999    2.71000004
   16.55360985  114.13700104    0.31999999    2.69000006
   16.55666542  124.67600250    0.31999999    2.69000006
   16.55999947  115.09799957    0.31999999    2.69000006
   16.56611061  115.09799957    0.31999999    2.69000006
   16.57000160  111.83000183    0.34000000    2.69000006
   16.57333374  118.51200104    0.34000000    2.69000006
   16.57444572  122.35199738    0.34000000    2.69000006
   16.57694626  113.20500183    0.34000000    2.69000006
   16.58000183  114.22499847    0.34000000    2.69000006
   16.58333397  115.42400360    0.34000000    2.69000006
   16.58666801  112.01499939    0.34000000    2.69000006
   16.58972359  116.85399628    0.34000000    2.71000004
   16.59305573  121.20200348    0.40000001    2.69000006
   16.59638977  111.98100281    0.34000000    2.69000006
   16.59972191  109.45500183    0.34000000    2.69000006
   16.60277748  119.31700134    0.36000001    2.67000008
   16.60888863  119.31700134    0.34000000    2.69000006
   16.61305618  114.75399780    0.34000000    2.69000006
   16.61611176  113.45700073    0.34000000    2.69000006
   16.61944389  112.02400208    0.31999999    2.69000006
   16.62277794  125.45500183    0.34000000    2.69000006
   16.62583351  122.87300110    0.34000000    2.69000006
   16.62916756  123.60500336    0.34000000    2.69000006
   16.63222313  112.34799957    0.31999999    2.69000006
   16.63555527  112.02700043    0.31999999    2.69000006
   16.63888931  114.96800232    0.34000000    2.69000006
   16.64111137  113.55699921    0.34000000    2.69000006
   16.64249992  122.56400299    0.34000000    2.69000006
   16.64555550  106.97200012    0.34000000    2.69000006
   16.65166664  106.97200012    0.34000000    2.71000004
   16.65583229  114.23999786    0.34000000    2.69000006
   16.65916634  118.87400055    0.34000000    2.69000006
   16.66222191  130.89799500    0.36000001    2.69000006
   16.66555595  112.21499634    0.40000001    2.69000006
   16.66860962  129.38999939    0.44000000    2.69000006
   16.67194366  113.48899841    0.50000000    2.69000006
   16.67444420  114.04499817    0.50000000    2.69000006
   16.67555428  114.45500183    0.56999999    2.69000006
   16.67860985  113.44899750    0.55000001    2.69000006
   16.68194389  117.62899780    0.61000001    2.69000006
   16.68527603  107.88300323    0.61000001    2.69000006
   16.68833160  113.44100189    0.70999998    2.69000006
   16.69444275  113.44100189    0.41999999    2.67000008
   16.69861031  117.85399628    0.40000001    2.69000006
   16.70194435  122.52700043    0.36000001    2.69000006
   16.70527840  124.21499634    0.36000001    2.69000006
   16.70777893  123.75700378    0.36000001    2.69000006
   16.70888901  118.55200195    0.36000001    2.69000006
   16.71194458  114.76599884    0.36000001    2.69000006
   16.71527863  122.27100372    0.36000001    2.69000006
   16.71861076  116.89199829    0.36000001    2.69000006
   16.72166634  116.93699646    0.36000001    2.69000006
   16.72500038  116.91200256    0.36000001    2.69000006
   16.72833443  112.82399750    0.36000001    2.69000006
   16.73139000  118.97399902    0.34000000    2.69000006
   16.73750114  118.97399902    0.34000000    2.69000006
   16.74166679  111.82199860    0.34000000    2.69000006
   16.74500084  118.62599945    0.34000000    2.67000008
   16.74805641  127.35900116    0.34000000    2.67000008
   16.75138855  126.18299866    0.34000000    2.69000006
   16.75472260  127.47000122    0.36000001    2.69000006
   16.75777817  126.35299683    0.34000000    2.71000004
   16.76111031  129.75500488    0.36000001    2.71000004
   16.76444435  124.46499634    0.36000001    2.69000006
   16.76749992  121.19599915    0.34000000    2.69000006
   16.77083397  129.72000122    0.36000001    2.69000006
   16.77388954  116.62699890    0.36000001    2.69000006
   16.77444458  118.20700073    0.36000001    2.69000006
   16.78027725  118.20700073    0.36000001    2.67000008
   16.78444481  123.01499939    0.38000000    2.69000006
   16.78750038  135.90400696    0.34000000    2.69000006
   16.79083252  126.29799652    0.34000000    2.69000006
   16.79416656  129.31799316    0.34000000    2.69000006
   16.79722214  136.48300171    0.36000001    2.69000006
   16.80055428  140.24200439    0.36000001    2.69000006
   16.80360985  137.54400635    0.36000001    2.69000006
   16.80694389  140.10000610    0.36000001    2.69000006
   16.80777740  130.85800171    0.36000001    2.69000006
   16.81055450  110.23400116    0.36000001    2.69000006
   16.81388855  130.34199524    0.34000000    2.67000008
   16.81694603  133.13699341    0.34000000    2.69000006
   16.82305717  133.13699341    0.34000000    2.69000006
   16.82722282  133.17700195    0.36000001    2.69000006
   16.83055687  131.42700195    0.36000001    2.69000006
   16.83361244  134.94700623    0.36000001    2.69000006
   16.83694458  125.01399994    0.36000001    2.69000006
   16.84000015  134.83000183    0.36000001    2.69000006
   16.84111214  127.15899658    0.38000000    2.67000008
   16.84361267  117.64499664    0.38000000    2.67000008
   16.84694481  129.83500671    0.38000000    2.69000006
   16.85000038  128.95500183    0.38000000    2.69000006
   16.85333443  127.16300201    0.36000001    2.69000006
   16.85639000  125.86199951    0.38000000    2.69000006
   16.85972214  116.98999786    0.38000000    2.69000006
   16.86583328  116.98999786    0.38000000    2.69000006
   16.87000084  119.15200043    0.38000000    2.69000006
   16.87333298  125.09300232    0.38000000    2.69000006
   16.87444496  115.52100372    0.36000001    2.69000006
   16.87694550  113.24900055    0.36000001    2.69000006
   16.88027763  117.88400269    0.36000001    2.67000008
   16.88333321  111.62599945    0.36000001    2.69000006
   16.88666725  117.57599640    0.36000001    2.69000006
   16.88972282  114.12100220    0.36000001    2.71000004
   16.89305496  114.83699799    0.36000001    2.69000006
   16.89638901  114.10299683    0.36000001    2.69000006
   16.89944458  112.26999664    0.36000001    2.69000006
   16.90277672  116.34799957    0.36000001    2.67000008
   16.90888786  116.34799957    0.36000001    2.69000006
   16.91277695  120.56600189    0.36000001    2.69000006
   16.91611099  113.85099792    0.36000001    2.67000008
   16.91944313  117.35199738    0.38000000    2.69000006
   16.92249870  111.74500275    0.38000000    2.69000006
   16.92583275  116.46499634    0.36000001    2.69000006
   16.92916679  112.69300079    0.40000001    2.69000006
   16.93222237  120.55699921    0.40000001    2.69000006
   16.93555450  111.42900085    0.40000001    2.69000006
   16.93861008  113.34799957    0.41999999    2.69000006
   16.94111061  110.60800171    0.41999999    2.69000006
   16.94222069  115.08999634    0.41999999    2.69000006
   16.94555473  109.22499847    0.41999999    2.67000008
   16.95166779  109.22499847    0.41999999    2.69000006
   16.95583344  118.98300171    0.40000001    2.69000006
   16.95888901  113.23999786    0.41999999    2.69000006
   16.96222305  113.14299774    0.41999999    2.69000006
   16.96527863  120.77300262    0.47999999    2.69000006
   16.96861076  113.91500092    0.47999999    2.69000006
   16.97194481  114.24900055    0.47999999    2.69000006
   16.97444534  118.47000122    0.46000001    2.69000006
   16.97555542  112.49199677    0.46000001    2.69000006
   16.97888947  112.15599823    0.41999999    2.69000006
   16.98194504  113.83599854    0.44000000    2.67000008
   16.98527718  121.65299988    0.44000000    2.69000006
   16.98833275  111.09899902    0.46000001    2.69000006
   16.99444389  111.09899902    0.47999999    2.69000006
   16.99861145  111.58899689    0.50000000    2.69000006
   17.00166702  111.21600342    0.51999998    2.69000006
   17.00499916  106.26200104    0.50000000    2.69000006
   17.00777817  120.22299957    0.51999998    2.69000006
   17.00861168  115.93699646    0.51999998    2.69000006
   17.01194382  113.76599884    0.51999998    2.69000006
   17.01499939  104.91000366    0.47999999    2.69000006
   17.01833344  113.34899902    0.46000001    2.69000006
   17.02138901  121.76599884    0.46000001    2.69000006
   17.02472115  110.64099884    0.47999999    2.69000006
   17.02805519  110.96099854    0.47999999    2.69000006
   17.03111076  113.27999878    0.44000000    2.69000006
   17.03750038  113.27999878    0.41999999    2.69000006
   17.04166603  109.80899811    0.46000001    2.69000006
   17.04472160  105.61000061    0.56999999    2.69000006
   17.04805565  106.24700165    0.75000000    2.67000008
   17.05138779  108.73100281    0.58999997    2.69000006
   17.05444336  109.81600189    0.58999997    2.69000006
   17.05777740  109.47499847    0.61000001    2.69000006
   17.06110954  110.53700256    0.56999999    2.69000006
   17.06416512  110.05300140    0.73000002    2.69000006
   17.06750107  107.40899658    0.64999998    2.67000008
   17.07055664  110.18099976    0.47999999    2.69000006
   17.07389069  111.85800171    0.47999999    2.69000006
   17.07444572  111.38200378    0.47999999    2.69000006
   17.08027840  111.38200378    0.46000001    2.69000006
   17.08416748  109.39900208    0.46000001    2.69000006
   17.08750153  111.71900177    0.47999999    2.71000004
   17.09083366  110.78399658    0.44000000    2.69000006
   17.09388924  110.49400330    0.41999999    2.67000008
   17.09722328  107.33899689    0.40000001    2.69000006
   17.10055542  113.13700104    0.40000001    2.71000004
   17.10361099  114.34100342    0.40000001    2.69000006
   17.10694504  124.34400177    0.40000001    2.69000006
   17.10777855  131.61599731    0.40000001    2.69000006
   17.11055565  117.90799713    0.40000001    2.69000006
   17.11388969  123.60800171    0.40000001    2.67000008
   17.11750031  118.48000336    0.41999999    2.67000008
   17.12305641  118.48000336    0.46000001    2.67000008
   17.12722206  111.16699982    0.44000000    2.69000006
   17.13055611  102.21399689    0.41999999    2.69000006
   17.13388824  110.18199921    0.41999999    2.69000006
   17.13694382  117.30400085    0.44000000    2.69000006
   17.14027786  110.79699707    0.44000000    2.69000006
   17.14111137  117.62200165    0.44000000    2.69000006
   17.14388847  118.98899841    0.44000000    2.67000008
   17.14722252  113.60500336    0.44000000    2.69000006
   17.15027809  116.23300171    0.44000000    2.69000006
   17.15361023  108.25199890    0.41999999    2.69000006
   17.15694427  109.81199646    0.41999999    2.67000008
   17.15999985  107.16300201    0.44000000    2.69000006
   17.16583252  107.16300201    0.44000000    2.67000008
   17.17000008  111.32700348    0.44000000    2.69000006
   17.17333221  110.14099884    0.44000000    2.69000006
   17.17444420  112.08799744    0.44000000    2.69000006
   17.17666626  110.60199738    0.44000000    2.69000006
   17.18000031  117.88899994    0.44000000    2.69000006
   17.18333244  112.09600067    0.41999999    2.69000006
   17.18638802  115.02799988    0.44000000    2.69000006
   17.18972206  108.07700348    0.44000000    2.69000006
   17.19277763  115.43499756    0.41999999    2.69000006
   17.19610977  119.12000275    0.41999999    2.69000006
   17.19944382  111.15499878    0.44000000    2.69000006
   17.20250130  110.96800232    0.41999999    2.69000006
   17.20861244  110.96800232    0.41999999    2.69000006
   17.21277809  123.56900024    0.41999999    2.69000006
   17.21611214  119.12200165    0.44000000    2.69000006
   17.21916771  114.45300293    0.41999999    2.67000008
   17.22249985  120.01699829    0.41999999    2.67000008
   17.22583389  114.55000305    0.44000000    2.69000006
   17.22888947  139.96000671    0.41999999    2.69000006
   17.23222351  115.25299835    0.41999999    2.67000008
   17.23555565  124.36900330    0.41999999    2.67000008
   17.23861122  134.19700623    0.44000000    2.69000006
   17.24111176  127.79299927    0.44000000    2.69000006
   17.26194382  127.79299927    0.41999999    2.69000006
   17.26583290  117.87699890    0.44000000    2.67000008
   17.26916695  126.10600281    0.41999999    2.69000006
   17.27249908  117.29699707    0.41999999    2.69000006
   17.27444458  127.19799805    0.41999999    2.69000006
   17.27583313  115.29499817    0.41999999    2.69000006
   17.27916718  132.80599976    0.44000000    2.69000006
   17.28249931  136.83000183    0.41999999    2.69000006
   17.28555489  141.11500549    0.41999999    2.69000006
   17.28888893  136.88999939    0.44000000    2.69000006
   17.29222107  140.76100159    0.44000000    2.69000006
   17.29527664  122.48600006    0.46000001    2.69000006
   17.29861069  138.13099670    0.46000001    2.69000006
   17.30472183  138.13099670    0.46000001    2.69000006
   17.30861092  140.91099548    0.44000000    2.69000006
   17.31194305  127.49500275    0.44000000    2.69000006
   17.31527710  132.42799377    0.44000000    2.69000006
   17.31833458  138.65699768    0.41999999    2.69000006
   17.32166672  122.98999786    0.41999999    2.69000006
   17.32500076  143.96400452    0.41999999    2.69000006
   17.32805634  146.88299561    0.41999999    2.69000006
   17.33139038  155.87100220    0.41999999    2.69000006
   17.33444595  121.18299866    0.44000000    2.67000008
   17.33777809  128.54699707    0.44000000    2.67000008
   17.34111214  155.23399353    0.44000000    2.69000006
   17.34166718  154.27200317    0.44000000    2.69000006
   17.34749985  154.27200317    0.46000001    2.69000006
   17.35166740  130.87300110    0.44000000    2.69000006
   17.35472298  128.54699707    0.46000001    2.67000008
   17.35805511  143.52099609    0.46000001    2.69000006
   17.36138916  135.82000732    0.46000001    2.67000008
   17.36444473  155.11099243    0.46000001    2.67000008
   17.36777878  131.13099670    0.46000001    2.69000006
   17.37083435  147.57699585    0.47999999    2.69000006
   17.37416649  137.64700317    0.50000000    2.69000006
   17.37500000  138.14900208    0.50000000    2.69000006
   17.37777710  143.61000061    0.50000000    2.67000008
   17.38111115  121.69499969    0.50000000    2.69000006
   17.38416672  131.87899780    0.47999999    2.69000006
   17.39027786  131.87899780    0.50000000    2.69000006
   17.39444351  135.67799377    0.51999998    2.69000006
   17.39749908  120.05999756    0.52999997    2.67000008
   17.40083313  123.26000214    0.55000001    2.69000006
   17.40416718  137.33099365    0.56999999    2.67000008
   17.40722275  128.62199402    0.56999999    2.67000008
   17.40833282  121.43599701    0.55000001    2.69000006
   17.41110992  118.17299652    0.56999999    2.69000006
   17.41416550  124.77700043    0.56999999    2.69000006
   17.41749954  132.24099731    0.56999999    2.71000004
   17.42083359  128.00199890    0.55000001    2.69000006
   17.42388916  121.72699738    0.51999998    2.69000006
   17.42722130  116.47899628    0.51999998    2.69000006
   17.43305397  116.47899628    0.52999997    2.69000006
   17.43722153  123.18399811    0.55000001    2.69000006
   17.44055557  120.17900085    0.52999997    2.69000006
   17.44166565  123.42800140    0.52999997    2.69000006
   17.44388771  121.93699646    0.52999997    2.69000006
   17.44722176  121.46499634    0.55000001    2.69000006
   17.45027924  122.59799957    0.55000001    2.67000008
   17.45361137  123.93900299    0.58999997    2.69000006
   17.45694542  122.13400269    0.61000001    2.69000006
   17.46000099  119.48600006    0.58999997    2.69000006
   17.46333504  121.69100189    0.56999999    2.69000006
   17.46666718  111.43399811    0.58999997    2.67000008
   17.46972275  127.70099640    0.56999999    2.67000008
   17.47611237  127.70099640    0.55000001    2.69000006
   17.48000145  120.54199982    0.52999997    2.67000008
   17.48333359  120.39399719    0.52999997    2.67000008
   17.48666763  122.18900299    0.50000000    2.67000008
   17.48972321  117.41300201    0.50000000    2.67000008
   17.49305534  118.61900330    0.50000000    2.67000008
   17.49638939  116.82800293    0.51999998    2.67000008
   17.49944496  113.30300140    0.50000000    2.69000006
   17.50277710  122.03099823    0.50000000    2.67000008
   17.50583267  113.28700256    0.51999998    2.69000006
   17.50833321  123.56099701    0.50000000    2.69000006
   17.50944519  115.80300140    0.50000000    2.69000006
   17.51277733  117.19699860    0.51999998    2.67000008
   17.51888847  117.19699860    0.51999998    2.67000008
   17.52305603  116.18699646    0.51999998    2.69000006
   17.52611160  120.00000000    0.51999998    2.69000006
   17.52944374  117.80500031    0.52999997    2.67000008
   17.53277779  109.81099701    0.52999997    2.67000008
   17.53583336  111.36699677    0.51999998    2.67000008
   17.53944397  115.60600281    0.55000001    2.69000006
   17.54166603  115.32599640    0.56999999    2.69000006
   17.54305458  113.87100220    0.55000001    2.67000008
   17.54638863  121.99800110    0.58999997    2.69000006
   17.54972076  114.78800201    0.61000001    2.67000008
   17.55277634  113.69799805    0.61000001    2.69000006
   17.55611038  115.84600067    0.58999997    2.67000008
   17.56166649  115.84600067    0.51999998    2.69000006
   17.56583214  113.11100006    0.51999998    2.67000008
   17.56888962  121.07099915    0.51999998    2.67000008
   17.57222366  117.62599945    0.55000001    2.67000008
   17.57500076  122.15399933    0.55000001    2.67000008
   17.57583427  117.83100128    0.55000001    2.67000008
   17.57916832  113.41999817    0.55000001    2.67000008
   17.58222389  123.52500153    0.55000001    2.67000008
   17.58555603  113.62000275    0.55000001    2.69000006
   17.58889008  117.31300354    0.52999997    2.67000008
   17.59194565  112.52200317    0.52999997    2.67000008
   17.59527779  108.72200012    0.52999997    2.69000006
   17.59861183  112.24500275    0.52999997    2.67000008
   17.60444450  112.24500275    0.52999997    2.69000006
   17.60861206  112.35700226    0.55000001    2.67000008
   17.61194420  108.02799988    0.52999997    2.67000008
   17.61499977  105.88800049    0.70999998    2.69000006
   17.61833382  109.53199768    0.80000001    2.67000008
   17.62166595  111.36599731    0.83999997    2.69000006
   17.62472153  114.87899780    0.83999997    2.69000006
   17.62805557  113.87500000    0.69000000    2.69000006
   17.63111115  116.90000153    0.52999997    2.67000008
   17.63444519  114.77300262    0.52999997    2.69000006
   17.63777733  114.66799927    0.52999997    2.69000006
   17.64083290  118.43099976    0.58999997    2.69000006
   17.64166641  113.74400330    0.58999997    2.69000006
   17.64722252  113.74400330    0.52999997    2.69000006
   17.65138817  110.79199982    0.50000000    2.69000006
   17.65472221  114.64099884    0.51999998    2.69000006
   17.65777779  113.87200165    0.51999998    2.69000006
   17.66110992  105.13099670    0.51999998    2.67000008
   17.66444397  114.06600189    0.50000000    2.69000006
   17.66749954  115.05999756    0.47999999    2.67000008
   17.67111015  109.85600281    0.47999999    2.69000006
   17.67416573  109.13899994    0.47999999    2.67000008
   17.67499924  111.17099762    0.47999999    2.67000008
   17.67777634  112.72599792    0.47999999    2.69000006
   17.68111038  108.58300018    0.47999999    2.69000006
   17.68444443  115.93099976    0.46000001    2.67000008
   17.69027710  115.93099976    0.46000001    2.69000006
   17.69444275  115.16600037    0.47999999    2.67000008
   17.69777679  111.84899902    0.50000000    2.67000008
   17.70111275  112.82199860    0.51999998    2.67000008
   17.70444489  111.04799652    0.50000000    2.67000008
   17.70750046  110.00499725    0.50000000    2.67000008
   17.70833397  113.26899719    0.50000000    2.69000006
   17.71111107  108.16799927    0.50000000    2.69000006
   17.71444511  111.47699738    0.50000000    2.67000008
   17.71777916  109.56700134    0.50000000    2.67000008
   17.72083473  107.47000122    0.50000000    2.67000008
   17.72416687  110.23600006    0.47999999    2.69000006
   17.72750092  111.60800171    0.46000001    2.67000008
   17.73305511  111.60800171    0.47999999    2.67000008
   17.73722267  109.43299866    0.47999999    2.67000008
   17.74027824  112.75700378    0.50000000    2.67000008
   17.74166679  109.11299896    0.50000000    2.67000008
   17.74388885  109.40899658    0.50000000    2.67000008
   17.74722290  113.75700378    0.50000000    2.67000008
   17.75055504  112.39700317    0.50000000    2.67000008
   17.75361061  114.39499664    0.50000000    2.67000008
   17.75694466  121.12500000    0.50000000    2.67000008
   17.76000023  110.53900146    0.47999999    2.67000008
   17.76333427  113.20600128    0.47999999    2.67000008
   17.76666641  112.80300140    0.50000000    2.67000008
   17.76972198  111.12300110    0.50000000    2.67000008
   17.77583313  111.12300110    0.50000000    2.69000006
   17.78000069  107.87000275    0.47999999    2.67000008
   17.78333282  112.01699829    0.47999999    2.69000006
   17.78638840  105.36100006    0.47999999    2.67000008
   17.78972244  111.68000031    0.47999999    2.67000008
   17.79305458  105.71199799    0.47999999    2.67000008
   17.79611015  107.38899994    0.47999999    2.67000008
   17.79944420  118.20099640    0.47999999    2.67000008
   17.80249977  107.47899628    0.47999999    2.67000008
   17.80583191  115.00499725    0.47999999    2.67000008
   17.80833244  107.27100372    0.50000000    2.69000006
   17.80944443  115.25900269    0.50000000    2.69000006
   17.81277657  109.50299835    0.50000000    2.67000008
   17.81861115  109.50299835    0.50000000    2.67000008
   17.82277870  110.79000092    0.50000000    2.69000006
   17.82611275  113.72299957    0.50000000    2.67000008
   17.82916832  111.12500000    0.50000000    2.67000008
   17.83250046  112.03299713    0.50000000    2.67000008
   17.83583450  114.73100281    0.51999998    2.67000008
   17.83889008  109.50700378    0.51999998    2.67000008
   17.84166718  109.57099915    0.50000000    2.67000008
   17.84250069  110.96600342    0.50000000    2.67000008
   17.84583473  110.17500305    0.50000000    2.67000008
   17.84916687  115.55400085    0.50000000    2.67000008
   17.85222244  107.66899872    0.51999998    2.67000008
   17.85555649  120.58399963    0.51999998    2.67000008
   17.86166763  120.58399963    0.52999997    2.69000006
   17.86583328  112.27200317    0.51999998    2.67000008
   17.86888885  109.50099945    0.52999997    2.67000008
   17.87222290  113.84200287    0.52999997    2.67000008
   17.87500000  107.46499634    0.55000001    2.66000009
   17.87555504  121.64399719    0.55000001    2.66000009
   17.87888908  110.01699829    0.55000001    2.67000008
   17.88222313  115.91500092    0.55000001    2.67000008
   17.88527679  124.66999817    0.58999997    2.67000008
   17.88861084  116.76799774    0.58999997    2.67000008
   17.89194489  109.74099731    0.58999997    2.66000009
   17.89500046  104.03800201    0.61000001    2.67000008
   17.89833260  120.23100281    0.61000001    2.67000008
   17.90444374  120.23100281    0.56999999    2.67000008
   17.90861130  112.92600250    0.56999999    2.67000008
   17.91166687  108.57800293    0.63000000    2.67000008
   17.91499901  107.24500275    0.58999997    2.66000009
   17.91833305  103.67299652    0.70999998    2.67000008
   17.92138863  108.99299622    0.73000002    2.66000009
   17.92472076  104.51999664    0.73000002    2.66000009
   17.92805481  110.77200317    0.70999998    2.67000008
   17.93111038  103.77200317    0.67000002    2.67000008
   17.93444443  111.50499725    0.69000000    2.67000008
   17.93777657  106.39499664    0.69000000    2.67000008
   17.94083214  113.37400055    0.67000002    2.67000008
   17.94166565  111.86199951    0.67000002    2.67000008
   17.94722176  111.86199951    0.63000000    2.67000008
   17.95138931  106.61299896    0.64999998    2.67000008
   17.95472336  109.41699982    0.64999998    2.67000008
   17.95777893  119.44599915    0.64999998    2.67000008
   17.96111107  108.81600189    0.63000000    2.67000008
   17.96444511  105.91400146    0.63000000    2.67000008
   17.96750069  111.26499939    0.58999997    2.67000008
   17.97111130  111.03800201    0.58999997    2.67000008
   17.97444534  100.86000061    0.61000001    2.67000008
   17.97500038  105.03600311    0.61000001    2.67000008
   17.97805595  108.94400024    0.61000001    2.67000008
   17.98111153  105.40599823    0.61000001    2.67000008
   17.98444557  122.02799988    0.64999998    2.67000008
   17.98999977  122.02799988    0.67000002    2.67000008
   17.99416733  104.92700195    0.67000002    2.67000008
   17.99749947  120.61000061    0.70999998    2.67000008
   18.00055504  114.33000183    0.67000002    2.67000008
   18.00388908  113.02200317    0.67000002    2.67000008
   18.00722313  123.39399719    0.67000002    2.66000009
   18.00833321  112.85199738    0.67000002    2.66000009
   18.01055527  113.44799805    0.67000002    2.66000009
   18.01388931  116.27700043    0.64999998    2.67000008
   18.01722145  117.12100220    0.64999998    2.67000008
   18.02027702  119.65100098    0.64999998    2.67000008
   18.02361107  111.79900360    0.67000002    2.67000008
   18.02694511  118.51999664    0.67000002    2.67000008
   18.03305435  118.51999664    0.67000002    2.67000008
   18.03694344  121.84100342    0.70999998    2.67000008
   18.04027748  110.35600281    0.73000002    2.67000008
   18.04166603  111.33699799    0.73000002    2.66000009
   18.04388809  111.10700226    0.73000002    2.66000009
   18.04722214  116.52300262    0.70999998    2.66000009
   18.05055428  106.27799988    0.70999998    2.66000009
   18.05360985  109.32599640    0.69000000    2.67000008
   18.05694389  120.41999817    0.67000002    2.66000009
   18.06027794  107.91100311    0.63000000    2.66000009
   18.06333351  115.99199677    0.61000001    2.66000009
   18.06666756  113.56500244    0.56999999    2.67000008
   18.06972313  102.86900330    0.58999997    2.67000008
   18.07583427  102.86900330    0.58999997    2.67000008
   18.08000183  110.42800140    0.58999997    2.66000009
   18.08305550  107.35199738    0.56999999    2.66000009
   18.08638954  116.40699768    0.55000001    2.67000008
   18.08972359  111.49199677    0.56999999    2.69000006
   18.09277916  105.59999847    0.56999999    2.69000006
   18.09611130  108.90699768    0.55000001    2.67000008
   18.09944534  112.87400055    0.55000001    2.66000009
   18.10250092  108.28500366    0.55000001    2.66000009
   18.10583305  112.70099640    0.56999999    2.67000008
   18.10833359  107.81999969    0.56999999    2.67000008
   18.10916710  103.35399628    0.56999999    2.67000008
   18.11250114  106.53299713    0.56999999    2.67000008
   18.11861038  106.53299713    0.56999999    2.67000008
   18.12277794  109.30100250    0.56999999    2.66000009
   18.12611198  110.44899750    0.58999997    2.66000009
   18.12916756  108.90399933    0.61000001    2.67000008
   18.13249969  100.69799805    0.58999997    2.66000009
   18.13555527  104.25900269    0.58999997    2.66000009
   18.13888931  114.22599792    0.58999997    2.66000009
   18.14166641  107.58699799    0.61000001    2.67000008
   18.14249992  112.43000031    0.61000001    2.67000008
   18.14583397  103.82599640    0.63000000    2.67000008
   18.14916611  111.99099731    0.63000000    2.67000008
   18.15222168  112.40100098    0.63000000    2.67000008
   18.15555573  110.47799683    0.63000000    2.67000008
   18.16138840  110.47799683    0.56999999    2.67000008
   18.16555595  105.28600311    0.58999997    2.67000008
   18.16888809  104.57199860    0.58999997    2.66000009
   18.17222214  107.84400177    0.61000001    2.66000009
   18.17499924  102.79599762    0.61000001    2.66000009
   18.17555428  107.80699921    0.63000000    2.66000009
   18.17888832  109.17800140    0.63000000    2.66000009
   18.18222237  110.87999725    0.61000001    2.66000009
   18.18527603   99.89479828    0.61000001    2.66000009
   18.18861008  106.79499817    0.61000001    2.67000008
   18.19194412  105.92700195    0.61000001    2.67000008
   18.19499969  104.94499969    0.69000000    2.67000008
   18.19833183  110.23799896    0.69000000    2.67000008
   18.20444489  110.23799896    0.88000000    2.66000009
   18.20833397  106.56099701    0.61000001    2.66000009
   18.21166801  106.67500305    0.55000001    2.66000009
   18.21500015  106.80799866    0.55000001    2.66000009
   18.21805573  109.47299957    0.55000001    2.66000009
   18.22138977  102.43199921    0.55000001    2.66000009
   18.22472191  107.99700165    0.55000001    2.66000009
   18.22777748  107.91600037    0.55000001    2.66000009
   18.23111153  103.66300201    0.55000001    2.66000009
   18.23416710  101.25599670    0.55000001    2.66000009
   18.23750114  110.09700012    0.55000001    2.67000008
   18.24083328  104.94000244    0.55000001    2.66000009
   18.24166679  105.50700378    0.55000001    2.66000009
   18.24722290  105.50700378    0.55000001    2.66000009
   18.25138855   98.92449951    0.51999998    2.67000008
   18.25444412  105.95700073    0.51999998    2.67000008
   18.25777817  105.03199768    0.52999997    2.66000009
   18.27527809  110.49900055    0.55000001    2.66000009
   18.27777672  106.73999786    0.55000001    2.66000009
   18.28083229  106.86599731    0.55000001    2.66000009
   18.28416634  107.97399902    0.55000001    2.66000009
   18.29027748  107.97399902    0.55000001    2.67000008
   18.29444313  107.06999969    0.56999999    2.66000009
   18.29777718  115.19200134    0.55000001    2.66000009
   18.30083275  106.14700317    0.55000001    2.66000009
   18.30416679  100.94400024    0.56999999    2.66000009
   18.30722237  107.26699829    0.56999999    2.66000009
   18.30861092  107.28700256    0.58999997    2.67000008
   18.31110954  107.02300262    0.58999997    2.67000008
   18.31416512  108.97000122    0.55000001    2.66000009
   18.31750107  107.62599945    0.55000001    2.66000009
   18.32055664  111.94699860    0.56999999    2.67000008
   18.32389069  109.77600098    0.61000001    2.66000009
   18.32722282  107.19499969    0.63000000    2.66000009
   18.33305550  107.19499969    0.64999998    2.66000009
   18.33722305  110.37200165    0.63000000    2.66000009
   18.34027863  109.32900238    0.63000000    2.66000009
   18.34194565  113.40000153    0.64999998    2.66000009
   18.34388924  109.84600067    0.64999998    2.66000009
   18.34722328  105.16400146    0.63000000    2.66000009
   18.35055542  106.28399658    0.64999998    2.66000009
   18.35388947  106.38400269    0.63000000    2.66000009
   18.35722351  102.52999878    0.64999998    2.66000009
   18.36027908  104.45200348    0.67000002    2.66000009
   18.36361122  106.17600250    0.67000002    2.66000009
   18.36694527  107.31700134    0.70999998    2.66000009
   18.37000084  142.84399414    0.67000002    2.66000009
   18.37583351  142.84399414    0.64999998    2.66000009
   18.38000107  111.63800049    0.63000000    2.66000009
   18.38305473  112.50099945    0.63000000    2.66000009
   18.38638878  109.26000214    0.63000000    2.66000009
   18.38972282  107.73999786    0.61000001    2.66000009
   18.39277840  109.55500031    0.55000001    2.66000009
   18.39611053  104.33200073    0.55000001    2.66000009
   18.39944458  117.70099640    0.52999997    2.66000009
   18.40250015  109.35299683    0.51999998    2.66000009
   18.40583229  113.98799896    0.51999998    2.66000009
   18.40861130  109.00800323    0.51999998    2.66000009
   18.40944481  108.86100006    0.51999998    2.64000010
   18.41277695  116.58499908    0.51999998    2.64000010
   18.41860962  116.58499908    0.51999998    2.66000009
   18.42277718  105.48200226    0.51999998    2.66000009
   18.42611122  107.61599731    0.51999998    2.66000009
   18.42916679  111.34200287    0.51999998    2.66000009
   18.43249893  111.98000336    0.50000000    2.66000009
   18.43583298  111.45099640    0.50000000    2.64000010
   18.43888855  112.69999695    0.50000000    2.64000010
   18.44194412  112.02400208    0.50000000    2.66000009
   18.44249916  112.78399658    0.50000000    2.66000009
   18.44583321  112.75399780    0.50000000    2.66000009
   18.44916534  114.75499725    0.50000000    2.66000009
   18.45222282  110.57700348    0.50000000    2.66000009
   18.45555687  117.41699982    0.47999999    2.64000010
   18.46138954  117.41699982    0.47999999    2.66000009
   18.46555710  109.58200073    0.47999999    2.66000009
   18.46888924  105.08599854    0.47999999    2.66000009
   18.47222328  110.64399719    0.47999999    2.64000010
   18.47527885  104.95999908    0.50000000    2.66000009
   18.47555542  104.79000092    0.50000000    2.66000009
   18.47888947  115.53900146    0.50000000    2.66000009
   18.48222351  108.54900360    0.46000001    2.64000010
   18.48527718  112.10399628    0.47999999    2.66000009
   18.48861122  108.51899719    0.46000001    2.66000009
   18.49194527  113.33899689    0.46000001    2.66000009
   18.49500084  116.59300232    0.46000001    2.66000009
   18.49833298  124.49500275    0.47999999    2.66000009
   18.50444412  124.49500275    0.47999999    2.64000010
   18.50861168  113.01699829    0.50000000    2.66000009
   18.50888824  114.09400177    0.50000000    2.66000009
   18.51222229  115.98899841    0.52999997    2.64000010
   18.51527786  107.90399933    0.55000001    2.64000010
   18.51861000  111.28399658    0.56999999    2.66000009
   18.52194405  115.91500092    0.58999997    2.64000010
   18.52499962  109.29499817    0.64999998    2.66000009
   18.52833366  110.47200012    0.64999998    2.66000009
   18.53166580  113.95899963    0.79000002    2.64000010
   18.53472137  113.42600250    0.83999997    2.64000010
   18.53805542  110.20600128    0.80000001    2.64000010
   18.54138756  113.38899994    0.64999998    2.66000009
   18.54194450  111.12500000    0.64999998    2.66000009
   18.54722214  111.12500000    0.55000001    2.64000010
   18.55138779  121.39399719    0.52999997    2.64000010
   18.55444336  111.41100311    0.55000001    2.64000010
   18.55777740  105.80799866    0.58999997    2.64000010
   18.56110954  116.38899994    0.56999999    2.64000010
   18.56416512  110.59200287    0.56999999    2.64000010
   18.56750107  108.54499817    0.56999999    2.64000010
   18.57083511  125.59100342    0.56999999    2.64000010
   18.57389069  109.08100128    0.56999999    2.64000010
   18.57527924  119.16699982    0.56999999    2.64000010
   18.57750130  121.90299988    0.55000001    2.64000010
   18.58083344  120.00299835    0.55000001    2.64000010
   18.58416748  114.07299805    0.52999997    2.64000010
   18.59000015  114.07299805    0.52999997    2.64000010
   18.59416771  117.15100098    0.51999998    2.64000010
   18.59749985  112.21700287    0.51999998    2.64000010
   18.60055542  110.75599670    0.51999998    2.64000010
   18.60388947  109.46800232    0.51999998    2.64000010
   18.60722351  107.72899628    0.50000000    2.64000010
   18.60861206  114.99900055    0.50000000    2.64000010
   18.61055565  107.25299835    0.50000000    2.64000010
   18.61388969  111.80100250    0.50000000    2.64000010
   18.61722183  107.59600067    0.51999998    2.64000010
   18.62027740  110.94000244    0.52999997    2.64000010
   18.62361145  110.96199799    0.55000001    2.64000010
   18.62666702  107.05899811    0.63000000    2.64000010
   18.63277817  107.05899811    0.67000002    2.64000010
   18.63694382  112.92500305    0.67000002    2.64000010
   18.64027786  111.14099884    0.69000000    2.64000010
   18.64194489  107.23799896    0.69000000    2.64000010
   18.64388847  121.21199799    0.67000002    2.64000010
   18.64722252  112.52799988    0.67000002    2.64000010
   18.65055466  108.03700256    0.67000002    2.64000010
   18.65361023  122.56700134    0.69000000    2.64000010
   18.65694427  110.07299805    0.69000000    2.64000010
   18.65999985  108.09799957    0.64999998    2.64000010
   18.66333389  120.43900299    0.64999998    2.64000010
   18.66666603  110.35099792    0.67000002    2.64000010
   18.66972160  107.63600159    0.67000002    2.64000010
   18.67583275  107.63600159    0.61000001    2.64000010
   18.68000031  104.84700012    0.61000001    2.64000010
   18.68305397  108.20099640    0.61000001    2.64000010
   18.68638802  110.78500366    0.61000001    2.64000010
   18.68944359  119.56900024    0.63000000    2.64000010
   18.69277763  128.57200623    0.61000001    2.64000010
   18.69610977  117.98500061    0.61000001    2.64000010
   18.69916534  125.45300293    0.61000001    2.64000010
   18.70250130  147.62600708    0.56999999    2.61999989
   18.70583344  164.89399719    0.56999999    2.64000010
   18.70861244  139.87300110    0.56999999    2.64000010
   18.70916748  141.08700562    0.56999999    2.64000010
   18.71250153  166.77099609    0.56999999    2.64000010
   18.71861076  166.77099609    0.58999997    2.64000010
   18.72277832  149.47099304    0.56999999    2.64000010
   18.72611237  159.63099670    0.58999997    2.61999989
   18.72916794  173.96899414    0.61000001    2.64000010
   18.73250008  171.27099609    0.61000001    2.64000010
   18.73555565  168.38699341    0.61000001    2.64000010
   18.73888969  165.09199524    0.61000001    2.64000010
   18.74194527  151.98399353    0.61000001    2.64000010
   18.74250031  156.21400452    0.61000001    2.64000010
   18.74583435  134.75999451    0.61000001    2.64000010
   18.74916649  132.52900696    0.58999997    2.61999989
   18.75222206  122.51599884    0.61000001    2.64000010
   18.75555611  130.73800659    0.61000001    2.64000010
   18.76138878  130.73800659    0.64999998    2.64000010
   18.76555634  146.91200256    0.64999998    2.64000010
   18.76888847  147.06199646    0.64999998    2.64000010
   18.77194405  141.03799438    0.63000000    2.64000010
   18.77527809  146.09700012    0.61000001    2.61999989
   18.77555466  151.54299927    0.61000001    2.61999989
   18.77888870  137.18499756    0.58999997    2.64000010
   18.78222275  149.01499939    0.58999997    2.64000010
   18.78527641  170.06799316    0.55000001    2.64000010
   18.78861046  154.33999634    0.55000001    2.64000010
   18.79194450  158.73300171    0.55000001    2.64000010
   18.79500008  154.81399536    0.55000001    2.64000010
   18.79833221  133.72599792    0.52999997    2.64000010
   18.80444336  133.72599792    0.56999999    2.64000010
   18.80861092  153.82099915    0.56999999    2.64000010
   18.81194305  154.51600647    0.58999997    2.61999989
   18.81499863  134.51300049    0.58999997    2.61999989
   18.81833458  174.46499634    0.58999997    2.61999989
   18.82166672  158.23500061    0.58999997    2.61999989
   18.82472229  147.99000549    0.58999997    2.64000010
   18.82805634  134.29600525    0.61000001    2.64000010
   18.83139038  163.83599854    0.61000001    2.64000010
   18.83444595  140.92999268    0.61000001    2.61999989
   18.83777809  132.39999390    0.61000001    2.61999989
   18.84083366  130.06500244    0.63000000    2.61999989
   18.84194565  133.61099243    0.63000000    2.61999989
   18.84722328  133.61099243    0.95999998    2.61999989
   18.85138893  121.74700165    0.69000000    2.61999989
   18.85444450  133.55900574    0.69000000    2.61999989
   18.85777855  141.55799866    0.67000002    2.61999989
   18.86111069  120.28800201    0.67000002    2.61999989
   18.86416626  138.38999939    0.67000002    2.61999989
   18.86750031  123.46099854    0.67000002    2.61999989
   18.87083435  112.23000336    0.70999998    2.61999989
   18.87388992  112.57700348    0.73000002    2.61999989
   18.87527847  139.39599609    0.73000002    2.61999989
   18.87777710  127.31800079    0.76999998    2.61999989
   18.88083267  123.83399963    0.76999998    2.61999989
   18.88416672  128.61500549    2.26999998    2.64000010
   18.88999939  128.61500549    4.90999985    1.85000002
   18.89416695  137.00799561    4.90999985    2.69000006
   18.89749908  119.81600189    4.90999985    2.44000006
   18.90055466  121.76899719    4.90999985    2.46000004
   18.90388870  139.94900513    4.90999985    2.36999989
   18.90722275  146.79899597    4.90999985    2.28999996
   18.90861130  143.41200256    4.90999985    2.53999996
   18.91083336  176.00199890    4.90999985    2.19000006
