    HOUR (UT)   FLARE FACTOR    SKY TESTER    SUN TESTER
   10.70138836   -1.00000000   -1.00000000   -1.00000000
   10.74194431  156.11999512    0.79000002    2.05999994
   10.74527836  156.97900391    0.79000002    2.05999994
   10.74861145  148.43699646    0.79000002    2.07999992
   10.75166702  147.92300415    0.76999998    2.07999992
   10.75500011  147.47500610    0.79000002    2.07999992
   10.75805569  154.02000427    0.76999998    2.05999994
   10.76222229  154.02000427    0.79000002    2.07999992
   10.76638889  168.06399536    0.76999998    2.09999990
   10.76972198  155.34500122    0.76999998    2.09999990
   10.77277756  155.47200012    0.76999998    2.07999992
   10.77527714  146.40800476    0.76999998    2.07999992
   10.77666664  147.61399841    0.76999998    2.09999990
   10.77972221  156.58000183    0.76999998    2.07999992
   10.78305531  153.20100403    0.76999998    2.09999990
   10.78611183  151.55900574    0.76999998    2.09999990
   10.78944492  142.27000427    0.76999998    2.09999990
   10.79277802  147.63699341    0.76999998    2.09999990
   10.79583359  146.87699890    0.76999998    2.09999990
   10.79916668  142.02200317    0.75000000    2.09999990
   10.80527782  142.02200317    0.75000000    2.11999989
   10.80916691  146.22099304    0.76999998    2.11999989
   10.81277752  147.66099548    0.75000000    2.11999989
   10.81583309  149.48100281    0.75000000    2.11999989
   10.81916618  133.12699890    0.75000000    2.11999989
   10.82250023  146.88099670    0.76999998    2.11999989
   10.82555580  138.88099670    0.76999998    2.11999989
   10.82888889  147.41900635    0.75000000    2.11999989
   10.83222198  149.03599548    0.75000000    2.11999989
   10.83527756  147.25900269    0.75000000    2.11999989
   10.83861065  155.07099915    0.75000000    2.13000011
   10.84194374  144.96800232    0.75000000    2.13000011
   10.84249973  142.81500244    0.75000000    2.13000011
   10.84805489  142.81500244    0.75000000    2.13000011
   10.85222244  151.11099243    0.75000000    2.13000011
   10.85527802  147.91600037    0.75000000    2.13000011
   10.85861111  148.21299744    0.75000000    2.15000010
   10.86166668  151.78700256    0.75000000    2.15000010
   10.86500072  145.80799866    0.73000002    2.15000010
   10.86833382  144.97099304    0.73000002    2.15000010
   10.87138939  149.47900391    0.73000002    2.15000010
   10.87472248  149.74400330    0.73000002    2.17000008
   10.87555599  149.17100525    0.73000002    2.17000008
   10.87833309  148.88800049    0.73000002    2.17000008
   10.88166714  144.27099609    0.73000002    2.15000010
   10.88527775  144.83999634    0.73000002    2.17000008
   10.89083290  144.83999634    0.73000002    2.17000008
   10.89499950  145.35400391    0.73000002    2.17000008
   10.89805508  146.34300232    0.73000002    2.17000008
   10.90138817  144.03999329    0.70999998    2.17000008
   10.90472221  144.85000610    0.70999998    2.17000008
   10.90777779  146.03799438    0.70999998    2.19000006
   10.90888882  144.33299255    0.70999998    2.19000006
   10.91138840  149.19099426    0.70999998    2.19000006
   10.91472149  144.78599548    0.70999998    2.19000006
   10.91777802  136.40499878    0.70999998    2.19000006
   10.92111111  141.73899841    0.70999998    2.19000006
   10.92444515  146.56700134    0.69000000    2.19000006
   10.92750072  139.84800720    0.69000000    2.19000006
   10.93361092  139.84800720    0.69000000    2.21000004
   10.93777752  151.66200256    0.69000000    2.21000004
   10.94111156  145.03599548    0.69000000    2.21000004
   10.94250011  154.30499268    0.69000000    2.21000004
   10.94444466  146.81199646    0.67000002    2.21000004
   10.94777775  139.84700012    0.67000002    2.21000004
   10.95083332  148.33000183    0.69000000    2.21000004
   10.95416641  146.64300537    0.69000000    2.21000004
   10.95749950  144.44000244    0.67000002    2.21000004
   10.96055508  145.20599365    0.69000000    2.21000004
   10.96388912  150.47200012    0.67000002    2.23000002
   10.96722221  147.11300659    0.67000002    2.23000002
   10.97055531  154.23699951    0.69000000    2.23000002
   10.97666645  154.23699951    0.67000002    2.23000002
   10.98083305  142.47000122    0.67000002    2.23000002
   10.98388958  148.64799500    0.67000002    2.25000000
   10.98722267  143.97799683    0.67000002    2.23000002
   10.99055576  144.13400269    0.67000002    2.23000002
   10.99361134  143.37500000    0.67000002    2.23000002
   10.99694443  141.90499878    0.69000000    2.23000002
   11.00027752  146.46099854    0.67000002    2.25000000
   11.00333309  139.58399963    0.67000002    2.25000000
   11.00666714  142.36599731    0.67000002    2.25000000
   11.00916672  142.12300110    0.67000002    2.25000000
   11.01027775  144.37500000    0.67000002    2.25000000
   11.01361084  146.18499756    0.67000002    2.25000000
   11.01944447  146.18499756    0.67000002    2.25000000
   11.02361107  148.60699463    0.64999998    2.26999998
   11.02694416  160.63099670    0.67000002    2.26999998
   11.02999973  161.30200195    0.67000002    2.26999998
   11.03333378  148.07299805    0.64999998    2.25000000
   11.03666687  162.03399658    0.67000002    2.26999998
   11.03972244  144.67199707    0.64999998    2.28999996
   11.04250050  155.67799377    0.64999998    2.26999998
   11.04333401  147.49899292    0.64999998    2.26999998
   11.04666710  150.60400391    0.64999998    2.26999998
   11.05000019  148.74699402    0.64999998    2.26999998
   11.05305576  146.51499939    0.64999998    2.26999998
   11.05638885  145.88200378    0.64999998    2.26999998
   11.06250000  145.88200378    0.64999998    2.28999996
   11.06638908  138.54100037    0.63000000    2.28999996
   11.06972218  143.30700684    0.63000000    2.28999996
   11.07305527  146.32699585    0.63000000    2.28999996
   11.07583332  141.29400635    0.63000000    2.28999996
   11.07638836  150.58599854    0.63000000    2.28999996
   11.07972240  144.22900391    0.63000000    2.28999996
   11.08305550  137.26899719    0.63000000    2.28999996
   11.08611107  142.15600586    0.63000000    2.28999996
   11.08944416  148.19000244    0.63000000    2.28999996
   11.09277725  155.41499329    0.61000001    2.30999994
   11.09583282  139.39399719    0.61000001    2.30999994
   11.09916592  151.16200256    0.61000001    2.28999996
   11.10527802  151.16200256    0.61000001    2.30999994
   11.10944462  151.75599670    0.61000001    2.30999994
   11.11305618  148.77699280    0.61000001    2.30999994
   11.11638927  151.71800232    0.61000001    2.30999994
   11.11944485  147.63600159    0.61000001    2.30999994
   11.12277794  142.34700012    0.61000001    2.30999994
   11.12611103  148.13499451    0.58999997    2.30999994
   11.12916660  142.16600037    0.58999997    2.30999994
   11.13249969  142.26800537    0.61000001    2.30999994
   11.13555527  139.45399475    0.58999997    2.32999992
   11.13888836  142.69599915    0.58999997    2.30999994
   11.14222240  140.42700195    0.58999997    2.30999994
   11.14249992  140.10800171    0.58999997    2.30999994
   11.14805508  140.10800171    0.58999997    2.32999992
   11.15222168  144.76800537    0.58999997    2.32999992
   11.15555477  138.01499939    0.61000001    2.32999992
   11.15861034  140.82400513    0.58999997    2.32999992
   11.16194439  144.35499573    0.58999997    2.34999990
   11.16527748  141.02799988    0.58999997    2.32999992
   11.16861153  142.62300110    0.58999997    2.34999990
   11.17166710  138.14199829    0.58999997    2.34999990
   11.17500019  146.43099976    0.58999997    2.32999992
   11.17583370  141.31500244    0.58999997    2.34999990
   11.17861176  135.20300293    0.58999997    2.34999990
   11.18194485  145.40299988    0.56999999    2.36999989
   11.18500042  141.75199890    0.56999999    2.36999989
   11.19083309  141.75199890    0.58999997    2.34999990
   11.19499969  144.13999939    0.56999999    2.34999990
   11.19833374  143.97000122    0.56999999    2.34999990
   11.20138836  141.32699585    0.56999999    2.36999989
   11.20472240  139.27200317    0.56999999    2.36999989
   11.20805550  142.21800232    0.56999999    2.36999989
   11.20916653  146.00799561    0.56999999    2.36999989
   11.21138859  136.76800537    0.56999999    2.36999989
   11.21472168  151.29100037    0.56999999    2.36999989
   11.21777725  139.61399841    0.56999999    2.36999989
   11.22111034  140.36799622    0.56999999    2.36999989
   11.22416592  141.15199280    0.56999999    2.36999989
   11.22749996  143.87500000    0.55000001    2.36999989
   11.23361111  143.87500000    0.55000001    2.36999989
   11.23777771  144.26499939    0.55000001    2.36999989
   11.24111176  138.60699463    0.55000001    2.36999989
   11.24250031  150.13499451    0.55000001    2.36999989
   11.24472237  152.08999634    0.55000001    2.36999989
   11.24805546  146.28500366    0.55000001    2.36999989
   11.25138855  136.27699280    0.55000001    2.39000010
   11.25444412  148.18899536    0.55000001    2.39000010
   11.25777817  142.00999451    0.55000001    2.39000010
   11.26111126  138.54899597    0.55000001    2.39000010
   11.26416683  146.46899414    0.55000001    2.39000010
   11.26749992  151.69200134    0.55000001    2.39000010
   11.27083302  147.25900269    0.55000001    2.39000010
   11.27666664  147.25900269    0.55000001    2.39000010
   11.28083324  144.33299255    0.55000001    2.40000010
   11.28388977  143.35400391    0.55000001    2.39000010
   11.28722286  147.24299622    0.55000001    2.39000010
   11.29027843  142.88699341    0.52999997    2.40000010
   11.29361153  144.67599487    0.55000001    2.40000010
   11.29694462  146.89700317    0.52999997    2.40000010
   11.30000019  145.56199646    0.52999997    2.40000010
   11.30333328  142.94599915    0.52999997    2.40000010
   11.30666733  147.21499634    0.52999997    2.40000010
   11.30916691  146.69599915    0.55000001    2.40000010
   11.31000042  148.57000732    0.55000001    2.40000010
   11.31333351  143.44000244    0.52999997    2.40000010
   11.31944466  143.44000244    0.52999997    2.40000010
   11.32388878  141.19400024    0.52999997    2.40000010
   11.32722187  138.83799744    0.52999997    2.40000010
   11.33027744  139.42900085    0.52999997    2.40000010
   11.33361053  140.41400146    0.52999997    2.40000010
   11.33694458  139.59199524    0.52999997    2.42000008
   11.34000015  142.26699829    0.52999997    2.42000008
   11.34249973  143.05099487    0.52999997    2.42000008
   11.34361076  138.73599243    0.52999997    2.42000008
   11.34694386  139.57499695    0.51999998    2.42000008
   11.35000038  137.66799927    0.52999997    2.44000006
   11.35333347  145.81100464    0.52999997    2.44000006
   11.35666752  136.85099792    0.51999998    2.42000008
   11.36222267  136.85099792    0.51999998    2.42000008
   11.36666679  143.81799316    0.52999997    2.42000008
   11.36999989  143.50199890    0.51999998    2.42000008
   11.37305546  143.13900757    0.51999998    2.42000008
   11.37583351  141.31799316    0.51999998    2.42000008
   11.37666702  144.11799622    0.51999998    2.42000008
   11.38000011  139.35000610    0.52999997    2.44000006
   11.38305569  139.29600525    0.51999998    2.42000008
   11.38638878  140.63900757    0.51999998    2.44000006
   11.38972187  136.10499573    0.51999998    2.44000006
   11.39277744  137.73199463    0.52999997    2.44000006
   11.39611053  139.03500366    0.51999998    2.44000006
   11.39916611  144.61500549    0.51999998    2.44000006
   11.40499973  144.61500549    0.52999997    2.44000006
   11.40916634  141.68499756    0.51999998    2.46000004
   11.40972137  135.22099304    0.51999998    2.46000004
   11.41305542  140.51800537    0.51999998    2.46000004
   11.41611099  136.53599548    0.51999998    2.44000006
   11.41944504  137.45500183    0.51999998    2.46000004
   11.42277813  137.60400391    0.51999998    2.46000004
   11.42583370  137.38699341    0.51999998    2.46000004
   11.42916679  137.67399597    0.51999998    2.46000004
   11.43222237  135.56100464    0.51999998    2.46000004
   11.43555546  135.70300293    0.50000000    2.46000004
   11.43888855  137.87100220    0.50000000    2.46000004
   11.44194412  137.13400269    0.51999998    2.46000004
   11.44250011  132.66799927    0.51999998    2.46000004
   11.44805527  132.66799927    0.51999998    2.46000004
   11.45222187  130.06599426    0.51999998    2.46000004
   11.45555496  134.95199585    0.50000000    2.46000004
   11.45861053  135.01600647    0.50000000    2.46000004
   11.46194458  132.27000427    0.50000000    2.46000004
   11.46500015  135.60200500    0.51999998    2.46000004
   11.46833324  137.88200378    0.50000000    2.46000004
   11.47166634  138.58999634    0.50000000    2.46000004
   11.47472191  136.30799866    0.50000000    2.46000004
   11.47583294  142.20300293    0.50000000    2.46000004
   11.47833252  137.22000122    0.50000000    2.46000004
   11.48166656  140.31100464    0.50000000    2.46000004
   11.48472214  137.22500610    0.50000000    2.46000004
   11.49083328  137.22500610    0.50000000    2.46000004
   11.49499989  143.91499329    0.50000000    2.48000002
   11.49805546  147.24600220    0.50000000    2.48000002
   11.50138855  141.91700745    0.50000000    2.48000002
   11.50472260  139.62899780    0.50000000    2.48000002
   11.50805569  133.97700500    0.47999999    2.48000002
   11.50916672  136.83599854    0.47999999    2.48000002
   11.51138878  137.23599243    0.47999999    2.48000002
   11.51472187  141.22500610    0.47999999    2.48000002
   11.51805496  141.11799622    0.47999999    2.48000002
   11.52111053  139.47900391    0.47999999    2.48000002
   11.52444458  136.74499512    0.47999999    2.48000002
   11.52750015  141.71699524    0.47999999    2.48000002
   11.53361130  141.71699524    0.47999999    2.48000002
   11.53777790  139.81100464    0.47999999    2.48000002
   11.54111195  133.97599792    0.47999999    2.48000002
   11.54250050  138.08299255    0.47999999    2.48000002
   11.54444504  140.83799744    0.47999999    2.48000002
   11.54777813  138.01600647    0.47999999    2.50000000
   11.55083370  140.62500000    0.47999999    2.50000000
   11.55416679  136.15400696    0.47999999    2.50000000
   11.55749989  141.05099487    0.47999999    2.50000000
   11.56055546  136.01499939    0.47999999    2.50000000
   11.56388950  137.89399719    0.47999999    2.50000000
   11.56722260  137.67199707    0.47999999    2.50000000
   11.57027817  137.41900635    0.47999999    2.50000000
   11.57638836  137.41900635    0.46000001    2.50000000
   11.58055592  133.07299805    0.46000001    2.50000000
   11.58388901  142.63099670    0.46000001    2.51999998
   11.58722210  137.18299866    0.46000001    2.51999998
   11.59027767  135.08399963    0.46000001    2.51999998
   11.59361076  137.62500000    0.46000001    2.50000000
   11.59694386  135.85499573    0.46000001    2.50000000
   11.60000038  137.48300171    0.46000001    2.50000000
   11.60333347  132.18099976    0.47999999    2.51999998
   11.60666752  139.82099915    0.47999999    2.51999998
   11.60944462  135.69799805    0.46000001    2.50000000
   11.61000061  134.81700134    0.46000001    2.50000000
   11.61333370  136.30599976    0.47999999    2.51999998
   11.61944485  136.30599976    0.46000001    2.51999998
   11.62361145  135.84599304    0.46000001    2.51999998
   11.62666702  136.01600647    0.46000001    2.51999998
   11.63000011  130.75199890    0.46000001    2.51999998
   11.63305569  138.53999329    0.46000001    2.51999998
   11.63638878  133.21200562    0.46000001    2.51999998
   11.63972187  141.85099792    0.46000001    2.51999998
   11.64277744  138.11700439    0.46000001    2.51999998
   11.64305496  133.10299683    0.46000001    2.51999998
   11.64638901  139.59399414    0.46000001    2.51999998
   11.64944458  129.02900696    0.46000001    2.51999998
   11.65277767  134.58500671    0.46000001    2.53999996
   11.65611076  127.64800262    0.46000001    2.51999998
   11.66222191  127.64800262    0.46000001    2.51999998
   11.66638851  134.96099854    0.46000001    2.53999996
   11.66944504  133.88900757    0.46000001    2.53999996
   11.67277813  134.17999268    0.46000001    2.53999996
   11.67611122  136.92599487    0.46000001    2.53999996
   11.67638874  131.77600098    0.46000001    2.53999996
   11.67972279  139.31100464    0.46000001    2.53999996
   11.68277836  135.58200073    0.46000001    2.53999996
   11.68611145  127.69200134    0.46000001    2.53999996
   11.68944454  130.91099548    0.46000001    2.53999996
   11.69250011  132.66099548    0.46000001    2.53999996
   11.69583321  131.91600037    0.46000001    2.53999996
   11.69916630  135.59899902    0.46000001    2.53999996
   11.70499992  135.59899902    0.44000000    2.53999996
   11.70916653  131.19500732    0.44000000    2.53999996
   11.70972157  139.32600403    0.46000001    2.53999996
   11.71277714  134.77600098    0.44000000    2.55999994
   11.71611118  135.49099731    0.44000000    2.55999994
   11.71944427  131.77099609    0.44000000    2.53999996
   11.72249985  134.68200684    0.44000000    2.55999994
   11.72583294  129.49499512    0.46000001    2.55999994
   11.72916603  132.21200562    0.44000000    2.53999996
   11.73222160  135.83599854    0.44000000    2.53999996
   11.73555565  139.79800415    0.44000000    2.53999996
   11.73861122  132.62699890    0.44000000    2.53999996
   11.74194431  133.63499451    0.44000000    2.53999996
   11.75916672  132.89700317    0.44000000    2.55999994
   11.76333332  132.89700317    0.44000000    2.55999994
   11.76749992  133.83500671    0.44000000    2.55999994
   11.77083302  140.09100342    0.44000000    2.55999994
   11.77388859  149.47200012    0.44000000    2.55999994
   11.77722168  139.78500366    0.44000000    2.55999994
   11.78027725  140.12899780    0.44000000    2.55999994
   11.78361130  138.59800720    0.44000000    2.55999994
   11.78694534  138.02499390    0.44000000    2.55999994
   11.79000092  141.63600159    0.44000000    2.55999994
   11.79222298  140.10200500    0.41999999    2.55999994
   11.79361153  141.89700317    0.41999999    2.55999994
   11.79694462  135.70500183    0.41999999    2.57999992
   11.80000019  136.07299805    0.41999999    2.55999994
   11.80611134  136.07299805    0.41999999    2.55999994
   11.81027794  141.46099854    0.41999999    2.57999992
   11.81361103  141.39500427    0.44000000    2.55999994
   11.81694412  137.21400452    0.41999999    2.55999994
   11.81999969  137.21600342    0.41999999    2.55999994
   11.82333374  142.84300232    0.41999999    2.57999992
   11.82555580  146.43699646    0.41999999    2.55999994
   11.82694435  139.99699402    0.41999999    2.55999994
   11.83027744  135.96600342    0.41999999    2.57999992
   11.83333302  129.45199585    0.41999999    2.57999992
   11.83666611  137.32299805    0.44000000    2.57999992
   11.84000015  130.09899902    0.44000000    2.57999992
   11.84333324  135.13200378    0.41999999    2.55999994
   11.84888840  135.13200378    0.41999999    2.57999992
   11.85305595  136.96600342    0.41999999    2.59999990
   11.85638905  128.88200378    0.41999999    2.59999990
   11.85888958  138.39399719    0.41999999    2.57999992
   11.85972214  143.59899902    0.41999999    2.57999992
   11.86305618  134.45899963    0.41999999    2.57999992
   11.86611176  131.19500732    0.41999999    2.57999992
   11.86944485  133.36599731    0.41999999    2.57999992
   11.87277794  135.48899841    0.41999999    2.57999992
   11.87611103  135.05000305    0.41999999    2.57999992
   11.87916660  139.06100464    0.41999999    2.57999992
   11.88249969  134.97500610    0.41999999    2.57999992
   11.88583279  133.97500610    0.41999999    2.57999992
   11.89166641  133.97500610    0.41999999    2.59999990
   11.89583302  133.05499268    0.41999999    2.57999992
   11.89916611  140.26300049    0.41999999    2.59999990
   11.90249920  133.79400635    0.41999999    2.59999990
   11.90555477  136.54600525    0.41999999    2.59999990
   11.90888882  129.77600098    0.41999999    2.57999992
   11.91222191  131.07400513    0.41999999    2.59999990
   11.91527748  138.51800537    0.41999999    2.57999992
   11.91861153  146.56100464    0.40000001    2.57999992
   11.92194462  138.64199829    0.40000001    2.59999990
   11.92500019  140.43299866    0.40000001    2.59999990
   11.92694473  136.27499390    0.41999999    2.59999990
   11.92861176  137.64199829    0.41999999    2.59999990
   11.93472195  137.64199829    0.40000001    2.57999992
   11.93861103  132.60200500    0.40000001    2.59999990
   11.94194412  139.19299316    0.40000001    2.59999990
   11.94527817  135.55700684    0.40000001    2.59999990
   11.94861126  138.50999451    0.40000001    2.59999990
   11.95166683  129.86900330    0.40000001    2.59999990
   11.95499992  134.07000732    0.40000001    2.59999990
   11.95833302  135.16499329    0.40000001    2.61999989
   11.96027756  129.89300537    0.40000001    2.59999990
   11.96166611  131.59500122    0.40000001    2.59999990
   11.96500015  129.42300415    0.40000001    2.59999990
   11.96833324  127.95200348    0.40000001    2.59999990
   11.97138882  135.16499329    0.40000001    2.59999990
   11.97749996  135.16499329    0.40000001    2.59999990
   11.98138809  131.05400085    0.40000001    2.61999989
   11.98472214  130.11799622    0.38000000    2.61999989
   11.98805618  130.66799927    0.38000000    2.59999990
   11.99111176  131.86900330    0.38000000    2.61999989
   11.99361134  129.43600464    0.38000000    2.61999989
   11.99499989  129.72700500    0.38000000    2.59999990
   11.99805546  126.94599915    0.38000000    2.59999990
   12.00138855  133.97000122    0.38000000    2.61999989
   12.00444412  134.72799683    0.38000000    2.61999989
   12.00777817  128.43600464    0.40000001    2.61999989
   12.01111126  137.85699463    0.38000000    2.59999990
   12.01416683  131.72399902    0.40000001    2.61999989
   12.02027798  131.72399902    0.38000000    2.59999990
   12.02444458  135.00599670    0.38000000    2.61999989
   12.02694416  135.87100220    0.38000000    2.61999989
   12.02805519  134.36199951    0.38000000    2.61999989
   12.03111076  133.01699829    0.38000000    2.61999989
   12.03444481  126.97000122    0.38000000    2.61999989
   12.03750038  132.37399292    0.38000000    2.61999989
   12.04083347  131.11300659    0.38000000    2.61999989
   12.04416752  132.16400146    0.38000000    2.61999989
   12.04722309  132.67300415    0.38000000    2.64000010
   12.05055618  132.32000732    0.38000000    2.64000010
   12.05388927  135.16000366    0.38000000    2.61999989
   12.05694485  130.86700439    0.38000000    2.61999989
   12.06305599  130.86700439    0.38000000    2.61999989
   12.06722260  128.38999939    0.38000000    2.61999989
   12.07055569  132.84800720    0.38000000    2.61999989
   12.07361126  131.65600586    0.38000000    2.64000010
   12.07694435  135.21400452    0.38000000    2.64000010
   12.08027744  133.54699707    0.38000000    2.61999989
   12.08333302  132.28799438    0.38000000    2.61999989
   12.08666611  133.10899353    0.38000000    2.64000010
   12.08972168  137.61199951    0.38000000    2.64000010
   12.09305477  133.66499329    0.38000000    2.64000010
   12.09388828  134.02999878    0.38000000    2.64000010
   12.09666634  130.88699341    0.38000000    2.61999989
   12.10000038  133.25599670    0.38000000    2.61999989
   12.10583401  133.25599670    0.38000000    2.64000010
   12.11000061  134.69200134    0.40000001    2.64000010
   12.11333370  130.05999756    0.38000000    2.64000010
   12.11666679  134.90899658    0.38000000    2.64000010
   12.11972237  132.55900574    0.38000000    2.64000010
   12.12305546  120.92600250    0.38000000    2.64000010
   12.12611103  128.85400391    0.38000000    2.64000010
   12.12750053  131.43200684    0.38000000    2.64000010
   12.12972260  139.57600403    0.38000000    2.64000010
   12.13305569  125.34700012    0.38000000    2.64000010
   12.13611126  132.62300110    0.38000000    2.64000010
   12.13944435  131.38000488    0.38000000    2.64000010
   12.14277744  132.80499268    0.38000000    2.64000010
   12.14888859  132.80499268    0.38000000    2.64000010
   12.15277767  135.73100281    0.38000000    2.64000010
   12.15611076  130.05200195    0.38000000    2.64000010
   12.15944386  127.05500031    0.38000000    2.64000010
   12.16083336  133.83999634    0.38000000    2.64000010
   12.16305542  133.46800232    0.38000000    2.64000010
   12.16611099  129.24400330    0.38000000    2.64000010
   12.16944504  133.69200134    0.38000000    2.64000010
   12.17277813  135.47599792    0.38000000    2.64000010
   12.17583370  129.02999878    0.38000000    2.64000010
   12.17916679  128.71299744    0.38000000    2.66000009
   12.18249989  131.69299316    0.38000000    2.64000010
   12.18555546  130.10499573    0.38000000    2.66000009
   12.19166660  130.10499573    0.38000000    2.66000009
   12.19583321  129.30299377    0.38000000    2.64000010
   12.19888878  126.35199738    0.38000000    2.64000010
   12.20222187  129.44700623    0.38000000    2.66000009
   12.20555496  133.50900269    0.38000000    2.66000009
   12.20861053  135.98899841    0.38000000    2.64000010
   12.21194458  133.16499329    0.38000000    2.66000009
   12.21527767  132.48899841    0.38000000    2.66000009
   12.21833324  129.51699829    0.38000000    2.66000009
   12.22166634  131.09399414    0.38000000    2.66000009
   12.22472191  129.79100037    0.36000001    2.66000009
   12.22749996  133.46800232    0.36000001    2.66000009
   12.22861099  129.36799622    0.36000001    2.66000009
   12.23444462  129.36799622    0.36000001    2.66000009
   12.23861122  132.53300476    0.36000001    2.66000009
   12.24194431  132.46400452    0.36000001    2.66000009
   12.24499989  134.26499939    0.36000001    2.66000009
   12.24833393  133.39599609    0.38000000    2.66000009
   12.25166702  137.73599243    0.36000001    2.66000009
   12.25472260  134.43499756    0.36000001    2.66000009
   12.25805569  134.74600220    0.36000001    2.66000009
   12.26083374  133.38099670    0.36000001    2.66000009
   12.26166630  134.22099304    0.36000001    2.66000009
   12.26472187  134.51100159    0.38000000    2.66000009
   12.26805496  134.93299866    0.38000000    2.66000009
   12.27138901  134.73199463    0.36000001    2.67000008
   12.27722168  134.73199463    0.36000001    2.66000009
   12.28138828  128.67799377    0.38000000    2.66000009
   12.28472233  135.62500000    0.38000000    2.66000009
   12.28805637  128.83299255    0.38000000    2.66000009
   12.29111195  128.52499390    0.36000001    2.66000009
   12.29416752  133.65800476    0.36000001    2.67000008
   12.29472256  129.45700073    0.36000001    2.67000008
   12.29777813  134.10499573    0.36000001    2.67000008
   12.30111122  133.51199341    0.36000001    2.67000008
   12.30444431  132.99899292    0.36000001    2.67000008
   12.30749989  134.00100708    0.36000001    2.67000008
   12.31083393  132.97399902    0.36000001    2.67000008
   12.31416702  128.92700195    0.36000001    2.67000008
   12.32027817  128.92700195    0.36000001    2.67000008
   12.32444477  131.39700317    0.36000001    2.67000008
   12.32750034  129.32099915    0.36000001    2.66000009
   12.32805538  129.07699585    0.36000001    2.66000009
   12.33138847  134.50000000    0.36000001    2.66000009
   12.33444405  134.21499634    0.36000001    2.66000009
   12.33777714  132.17100525    0.36000001    2.67000008
   12.34083271  130.40100098    0.36000001    2.67000008
   12.34416676  131.68600464    0.36000001    2.67000008
   12.34749985  132.47500610    0.36000001    2.67000008
   12.35055637  131.66900635    0.36000001    2.67000008
   12.35388947  129.04600525    0.36000001    2.67000008
   12.35722256  132.86500549    0.36000001    2.67000008
   12.36305618  132.86500549    0.36000001    2.67000008
   12.36722279  131.36799622    0.36000001    2.67000008
   12.37027836  129.84500122    0.36000001    2.67000008
   12.37361145  137.08500671    0.36000001    2.67000008
   12.37694454  132.72599792    0.36000001    2.69000006
   12.38000011  137.60200500    0.36000001    2.67000008
   12.38333321  135.05900574    0.36000001    2.67000008
   12.38638878  136.35000610    0.36000001    2.67000008
   12.38972187  131.14100647    0.36000001    2.69000006
   12.39305496  133.25399780    0.36000001    2.67000008
   12.39416695  137.33599854    0.36000001    2.67000008
   12.39666653  134.29899597    0.36000001    2.67000008
   12.39999962  134.22900391    0.36000001    2.69000006
   12.40583324  134.22900391    0.36000001    2.69000006
   12.40999985  136.41999817    0.36000001    2.67000008
   12.41333294  139.65899658    0.36000001    2.67000008
   12.41638851  133.68800354    0.36000001    2.69000006
   12.41972256  131.03700256    0.36000001    2.69000006
   12.42277813  137.91700745    0.36000001    2.69000006
   12.42611122  137.19599915    0.36000001    2.67000008
   12.42750072  128.72500610    0.36000001    2.67000008
   12.42972279  128.82200623    0.36000001    2.67000008
   12.43305588  133.96499634    0.36000001    2.67000008
   12.43638897  131.05299377    0.36000001    2.71000004
   12.43944454  138.25399780    0.36000001    2.69000006
   12.44277763  130.83799744    0.36000001    2.69000006
   12.44861126  130.83799744    0.36000001    2.69000006
   12.45277786  133.62899780    0.36000001    2.69000006
   12.45611095  132.74800110    0.36000001    2.69000006
   12.45916653  131.97200012    0.36000001    2.69000006
   12.46111107  135.80900574    0.36000001    2.69000006
   12.46305561  136.74400330    0.36000001    2.69000006
   12.46611118  136.68899536    0.34000000    2.69000006
   12.46944427  134.45899963    0.36000001    2.69000006
   12.47277737  134.68099976    0.34000000    2.69000006
   12.47583294  134.14399719    0.36000001    2.71000004
   12.47916603  130.94900513    0.36000001    2.71000004
   12.48222160  131.23899841    0.36000001    2.69000006
   12.48555565  133.62699890    0.34000000    2.69000006
   12.49166679  133.62699890    0.34000000    2.69000006
   12.49555588  131.21699524    0.34000000    2.69000006
   12.49888897  130.97300720    0.34000000    2.71000004
   12.50222206  128.27299500    0.34000000    2.71000004
   12.50527763  126.88600159    0.34000000    2.69000006
   12.50861073  130.24499512    0.34000000    2.69000006
   12.51194477  133.71899414    0.36000001    2.69000006
   12.51500034  135.53900146    0.36000001    2.69000006
   12.51833344  129.32600403    0.36000001    2.69000006
   12.52138901  135.80999756    0.36000001    2.71000004
   12.52472210  135.99200439    0.34000000    2.69000006
   12.52777767  133.76699829    0.34000000    2.69000006
   12.52833271  134.66900635    0.34000000    2.69000006
   12.53444481  134.66900635    0.34000000    2.71000004
   12.53861141  134.29400635    0.34000000    2.71000004
   12.54166698  135.14399719    0.36000001    2.69000006
   12.54500008  133.17500305    0.34000000    2.69000006
   12.54833412  136.67399597    0.36000001    2.69000006
   12.55138874  130.51499939    0.36000001    2.69000006
   12.55472279  131.23800659    0.36000001    2.69000006
   12.55777836  129.61999512    0.34000000    2.69000006
   12.56111145  131.26899719    0.34000000    2.69000006
   12.56166649  134.04499817    0.34000000    2.71000004
   12.56472206  133.12600708    0.34000000    2.69000006
   12.56805515  130.41999817    0.34000000    2.71000004
   12.57138920  129.78399658    0.34000000    2.71000004
   12.57722187  129.78399658    0.34000000    2.71000004
   12.58138847  133.05900574    0.34000000    2.71000004
   12.58472157  140.46499634    0.34000000    2.69000006
   12.58777714  134.62699890    0.34000000    2.71000004
   12.59111118  131.50799561    0.34000000    2.71000004
   12.59416676  138.54299927    0.34000000    2.71000004
   12.59472179  132.58500671    0.34000000    2.71000004
   12.59805489  138.14300537    0.34000000    2.71000004
   12.60138893  137.19299316    0.34000000    2.71000004
   12.60444450  131.49899292    0.34000000    2.71000004
   12.60805607  134.91000366    0.34000000    2.71000004
   12.61138916  135.13800049    0.34000000    2.71000004
   12.61444473  129.65199280    0.34000000    2.71000004
   12.61999989  129.65199280    0.34000000    2.71000004
   12.62416649  135.81900024    0.34000000    2.69000006
   12.62750053  132.41000366    0.34000000    2.71000004
   12.62805557  131.98899841    0.34000000    2.71000004
   12.63111115  130.37699890    0.34000000    2.71000004
   12.63444424  135.49499512    0.34000000    2.71000004
   12.63777733  132.09500122    0.34000000    2.71000004
   12.64111137  129.96499634    0.34000000    2.71000004
   12.64416695  133.04299927    0.34000000    2.71000004
   12.64750004  132.55200195    0.34000000    2.71000004
   12.65055561  127.92199707    0.34000000    2.71000004
   12.65388870  130.19299316    0.34000000    2.71000004
   12.65722179  130.92500305    0.34000000    2.71000004
   12.66305542  130.92500305    0.34000000    2.71000004
   12.66694450  134.47999573    0.34000000    2.71000004
   12.67027855  130.88400269    0.34000000    2.71000004
   12.67361164  134.21800232    0.34000000    2.71000004
   12.67666721  132.66700745    0.34000000    2.71000004
   12.68000031  136.36300659    0.34000000    2.71000004
   12.68333340  125.12000275    0.34000000    2.71000004
   12.68638897  136.85299683    0.34000000    2.71000004
   12.68972206  133.08200073    0.34000000    2.71000004
   12.69305515  127.08499908    0.34000000    2.73000002
   12.69472218  133.91400146    0.34000000    2.73000002
   12.69666672  133.26600647    0.34000000    2.73000002
   12.69999981  134.55200195    0.34000000    2.73000002
   12.70583344  134.55200195    0.31999999    2.71000004
   12.71000004  130.48500061    0.34000000    2.71000004
   12.71305561  127.82399750    0.31999999    2.71000004
   12.71638870  137.08900452    0.31999999    2.71000004
   12.71972179  132.32200623    0.34000000    2.71000004
   12.72277737  129.99600220    0.31999999    2.73000002
   12.72611046  137.35400391    0.31999999    2.71000004
   12.72805500  132.18299866    0.34000000    2.73000002
   12.72972202  132.29899597    0.34000000    2.73000002
   12.73305511  130.79499817    0.31999999    2.71000004
   12.73611164  126.71600342    0.31999999    2.73000002
   12.73944473  133.30599976    0.31999999    2.73000002
   12.74250031  132.16200256    0.31999999    2.73000002
   12.74861145  132.16200256    0.31999999    2.73000002
   12.75277805  134.64700317    0.31999999    2.73000002
   12.75611115  142.26400757    0.31999999    2.73000002
   12.75916672  130.55599976    0.31999999    2.73000002
   12.77638817  134.74099731    0.31999999    2.73000002
   12.77916622  138.39799500    0.31999999    2.73000002
   12.78249931  135.38099670    0.31999999    2.73000002
   12.78583336  136.94999695    0.31999999    2.73000002
   12.79166698  136.94999695    0.31999999    2.73000002
   12.79583359  139.39700317    0.31999999    2.73000002
   12.79888916  143.45100403    0.31999999    2.73000002
   12.80222225  129.54699707    0.31999999    2.73000002
   12.80555534  136.82899475    0.31999999    2.73000002
   12.80861092  134.52999878    0.31999999    2.73000002
   12.80944443  140.25300598    0.31999999    2.73000002
   12.81222248  136.20300293    0.31999999    2.75000000
   12.81555557  131.09199524    0.31999999    2.73000002
   12.81861115  141.06300354    0.31999999    2.73000002
   12.82194424  139.05000305    0.31999999    2.73000002
   12.82499981  140.15699768    0.31999999    2.73000002
   12.82833290  139.25599670    0.31999999    2.73000002
   12.83444405  139.25599670    0.31999999    2.73000002
   12.83861065  145.54600525    0.31999999    2.73000002
   12.84194374  141.96099854    0.31999999    2.73000002
   12.84277725  137.77799988    0.31999999    2.73000002
   12.84555531  137.40699768    0.31999999    2.75000000
   12.84888840  138.61999512    0.31999999    2.75000000
   12.85194492  134.00500488    0.31999999    2.75000000
   12.85527802  140.44099426    0.31999999    2.75000000
   12.85833359  142.28999329    0.30000001    2.75000000
   12.86166668  140.83000183    0.31999999    2.73000002
   12.86500072  136.16600037    0.31999999    2.75000000
   12.86833382  131.99299622    0.31999999    2.75000000
   12.87138939  135.21699524    0.31999999    2.75000000
   12.87722206  135.21699524    0.30000001    2.75000000
   12.88138866  136.53199768    0.30000001    2.73000002
   12.88472176  134.40400696    0.31999999    2.73000002
   12.88805580  136.89500427    0.31999999    2.73000002
   12.89111137  139.39700317    0.31999999    2.75000000
   12.89444447  130.69999695    0.30000001    2.73000002
   12.89750004  136.25900269    0.30000001    2.73000002
   12.90083313  139.20300293    0.31999999    2.73000002
   12.90416622  128.96699524    0.31999999    2.75000000
   12.90722179  140.77799988    0.31999999    2.75000000
   12.90944386  139.92599487    0.31999999    2.75000000
   12.91083336  142.86999512    0.30000001    2.73000002
   12.91416645  134.36500549    0.30000001    2.73000002
   12.92027855  134.36500549    0.31999999    2.73000002
   12.92444515  133.71899414    0.30000001    2.75000000
   12.92750072  134.53799438    0.30000001    2.73000002
   12.93083382  137.01800537    0.30000001    2.73000002
   12.93416691  134.89900208    0.31999999    2.73000002
   12.93722248  133.08000183    0.31999999    2.73000002
   12.94055557  136.86599731    0.30000001    2.73000002
   12.94277763  139.09300232    0.30000001    2.73000002
   12.94416714  131.65800476    0.30000001    2.73000002
   12.94750023  134.96499634    0.30000001    2.75000000
   12.95055580  135.21699524    0.31999999    2.75000000
   12.95388889  139.23100281    0.30000001    2.75000000
   12.95722198  136.60400391    0.31999999    2.75000000
   12.96305561  136.60400391    0.30000001    2.75000000
   12.96722221  139.97500610    0.30000001    2.73000002
   12.97055531  136.58799744    0.31999999    2.75000000
   12.97361088  134.46899414    0.30000001    2.75000000
   12.97611046  134.81100464    0.31999999    2.75000000
   12.97722149  133.08900452    0.31999999    2.75000000
   12.98055553  140.48300171    0.31999999    2.75000000
   12.98361111  135.41299438    0.31999999    2.75000000
   12.98694515  133.37600708    0.31999999    2.75000000
   12.99027824  124.96299744    0.30000001    2.75000000
   12.99333382  137.24899292    0.30000001    2.75000000
   12.99666691  134.49699402    0.30000001    2.75000000
   13.00000000  138.22799683    0.30000001    2.75000000
   13.00583363  138.22799683    0.30000001    2.75000000
   13.01000023  135.36500549    0.30000001    2.75000000
   13.01333332  125.55699921    0.30000001    2.75000000
   13.01638889  124.82900238    0.30000001    2.75000000
   13.01972198  128.63999939    0.30000001    2.75000000
   13.02305508  137.60299683    0.30000001    2.75000000
   13.02611065  133.94700623    0.30000001    2.75000000
   13.02944374  135.74099731    0.30000001    2.75000000
   13.03277779  130.10299683    0.30000001    2.75000000
   13.03583336  128.89999390    0.30000001    2.75000000
   13.03916740  133.11799622    0.30000001    2.75000000
   13.04222298  132.05400085    0.30000001    2.75000000
   13.04277802  139.33200073    0.30000001    2.76999998
   13.04861164  139.33200073    0.30000001    2.75000000
   13.05277824  132.28199768    0.30000001    2.75000000
   13.05611134  136.92300415    0.31999999    2.75000000
   13.05944443  136.31700134    0.31999999    2.75000000
   13.06250000  133.41499329    0.31999999    2.75000000
   13.06583309  126.95899963    0.31999999    2.75000000
   13.06888866  128.12899780    0.31999999    2.75000000
   13.07222176  130.35800171    0.30000001    2.75000000
   13.07555580  132.28500366    0.30000001    2.75000000
   13.07611084  124.78099823    0.30000001    2.75000000
   13.07916641  123.43000031    0.30000001    2.76999998
   13.08249950  130.69099426    0.30000001    2.76999998
   13.08555508  132.64999390    0.30000001    2.76999998
   13.09166622  132.64999390    0.30000001    2.75000000
   13.09583282  126.34700012    0.30000001    2.75000000
   13.09888840  133.14399719    0.30000001    2.76999998
   13.10222244  140.39100647    0.30000001    2.75000000
   13.10527802  135.56599426    0.30000001    2.76999998
   13.10861111  127.65299988    0.30000001    2.76999998
   13.10972214  136.91400146    0.30000001    2.76999998
   13.11250019  137.02999878    0.30000001    2.75000000
   13.11555576  129.93499756    0.30000001    2.75000000
   13.11888885  134.45799255    0.30000001    2.76999998
   13.12194443  134.51800537    0.30000001    2.75000000
   13.12527752  133.03100586    0.30000001    2.76999998
   13.12861156  134.29100037    0.30000001    2.76999998
   13.13444424  134.29100037    0.30000001    2.76999998
   13.13861084  133.96299744    0.30000001    2.75000000
   13.14166641  131.87100220    0.30000001    2.76999998
   13.14277744  135.93099976    0.30000001    2.76999998
   13.14527798  136.37699890    0.30000001    2.75000000
   13.14861107  135.79400635    0.30000001    2.75000000
   13.15166664  129.60099792    0.30000001    2.75000000
   13.15499973  132.34899902    0.30000001    2.75000000
   13.15833282  136.45700073    0.30000001    2.76999998
   13.16138840  137.41499329    0.30000001    2.76999998
   13.16472149  134.39999390    0.30000001    2.76999998
   13.16777802  135.36500549    0.30000001    2.76999998
   13.17111111  130.72099304    0.30000001    2.76999998
   13.17722225  130.72099304    0.30000001    2.76999998
   13.18138885  132.05299377    0.28000000    2.76999998
   13.18472195  138.46200562    0.30000001    2.76999998
   13.18777752  130.72399902    0.30000001    2.76999998
   13.19111156  137.20199585    0.30000001    2.76999998
   13.19444466  135.28300476    0.30000001    2.76999998
   13.19750023  136.25500488    0.30000001    2.76999998
   13.20083332  135.34899902    0.30000001    2.76999998
   13.20416641  133.17700195    0.30000001    2.76999998
   13.20722198  133.36399841    0.28000000    2.76999998
   13.20972157  131.02400208    0.28000000    2.76999998
   13.21111107  136.88000488    0.28000000    2.76999998
   13.21416664  137.81100464    0.30000001    2.76999998
   13.21999931  137.81100464    0.30000001    2.76999998
   13.22416592  137.88999939    0.30000001    2.76999998
   13.22749996  131.60000610    0.30000001    2.76999998
   13.23083305  133.40800476    0.30000001    2.76999998
   13.23388958  140.48100281    0.30000001    2.76999998
   13.23722267  133.44200134    0.30000001    2.76999998
   13.24027824  139.60299683    0.30000001    2.76999998
   13.24305534  132.20899963    0.28000000    2.76999998
   13.24388885  135.32699585    0.28000000    2.76999998
   13.24722290  139.47399902    0.28000000    2.76999998
   13.25027752  129.68499756    0.28000000    2.76999998
   13.25361156  129.11399841    0.28000000    2.76999998
   13.25694466  128.62199402    0.30000001    2.76999998
   13.26305580  128.62199402    0.30000001    2.78999996
   13.26722240  134.81799316    0.30000001    2.78999996
   13.27027798  128.17300415    0.30000001    2.78999996
   13.27361107  128.30999756    0.30000001    2.78999996
   13.27638817  129.15400696    0.30000001    2.78999996
   13.27722168  133.32200623    0.28000000    2.78999996
   13.28055573  135.01699829    0.28000000    2.78999996
   13.28361130  132.04400635    0.30000001    2.76999998
   13.28694534  128.21800232    0.30000001    2.78999996
   13.29027843  135.94900513    0.30000001    2.78999996
   13.29361153  129.01400757    0.30000001    2.76999998
   13.29694462  130.59100342    0.30000001    2.76999998
   13.30000019  126.09300232    0.28000000    2.78999996
   13.30583382  126.09300232    0.30000001    2.76999998
   13.31000042  131.75100708    0.30000001    2.78999996
   13.31333351  141.33299255    0.28000000    2.76999998
   13.31638908  133.40100098    0.30000001    2.78999996
   13.31972218  132.43099976    0.30000001    2.78999996
   13.32277775  129.40199280    0.28000000    2.76999998
   13.32611084  131.90100098    0.30000001    2.78999996
   13.32944393  128.22700500    0.30000001    2.76999998
   13.33249950  129.47900391    0.30000001    2.76999998
   13.33583260  126.78700256    0.30000001    2.76999998
   13.33916664  136.01899719    0.28000000    2.76999998
   13.34222221  130.16499329    0.28000000    2.78999996
   13.34305477  128.16099548    0.28000000    2.78999996
   13.34861088  128.16099548    0.28000000    2.76999998
   13.35277843  124.88600159    0.30000001    2.78999996
   13.35611153  128.51199341    0.30000001    2.78999996
   13.35916710  128.07000732    0.28000000    2.78999996
   13.36250019  126.09100342    0.28000000    2.78999996
   13.36583328  130.88999939    0.28000000    2.78999996
   13.36916637  135.83299255    0.28000000    2.78999996
   13.37222195  140.91400146    0.28000000    2.78999996
   13.37555599  130.84800720    0.28000000    2.78999996
   13.37638855  129.86199951    0.28000000    2.78999996
   13.37916660  131.43400574    0.28000000    2.78999996
   13.38249969  145.27000427    0.28000000    2.78999996
   13.38555527  128.77499390    0.28000000    2.78999996
   13.39138889  128.77499390    0.28000000    2.78999996
   13.39555550  130.45799255    0.30000001    2.78999996
   13.39888859  133.32600403    0.28000000    2.78999996
   13.40222168  134.78300476    0.28000000    2.78999996
   13.40527725  133.23800659    0.28000000    2.78999996
   13.40861034  135.04400635    0.28000000    2.78999996
   13.40972137  129.16600037    0.28000000    2.78999996
   13.41222191  131.58000183    0.28000000    2.78999996
   13.41555500  130.99699402    0.28000000    2.78999996
   13.41888905  132.51100159    0.28000000    2.78999996
   13.42194462  136.07200623    0.28000000    2.78999996
   13.42527771  127.93599701    0.28000000    2.80999994
   13.42833328  126.93800354    0.28000000    2.78999996
   13.43444443  126.93800354    0.28000000    2.78999996
   13.43861103  128.29899597    0.28000000    2.78999996
   13.44166660  127.79699707    0.28000000    2.78999996
   13.44305515  128.47900391    0.28000000    2.78999996
   13.44527817  135.00900269    0.28000000    2.78999996
   13.44861126  136.94999695    0.28000000    2.78999996
   13.45166683  123.81400299    0.28000000    2.78999996
   13.45499992  130.55799866    0.28000000    2.78999996
   13.45833302  134.22799683    0.28000000    2.78999996
   13.46138859  132.90600586    0.28000000    2.78999996
   13.46472168  131.77499390    0.28000000    2.78999996
   13.46805477  133.49899292    0.28000000    2.80999994
   13.47111034  136.01600647    0.28000000    2.78999996
   13.47722149  136.01600647    0.28000000    2.78999996
   13.48138809  134.72099304    0.28000000    2.78999996
   13.48444462  131.98500061    0.28000000    2.78999996
   13.48777771  126.25900269    0.28000000    2.80999994
   13.49111176  128.86399841    0.28000000    2.80999994
   13.49416733  135.34800720    0.28000000    2.80999994
   13.49750042  130.05799866    0.28000000    2.80999994
   13.50083351  126.83999634    0.28000000    2.78999996
   13.50388908  130.36300659    0.28000000    2.78999996
   13.50722218  128.68899536    0.28000000    2.78999996
   13.50972176  129.26699829    0.28000000    2.78999996
   13.51083374  127.49099731    0.28000000    2.80999994
   13.51416683  127.50399780    0.28000000    2.78999996
   13.51999950  127.50399780    0.28000000    2.80999994
   13.52416611  131.04499817    0.28000000    2.78999996
   13.52750015  128.61099243    0.28000000    2.80999994
   13.53083324  131.41400146    0.28000000    2.78999996
   13.53388977  127.80200195    0.25999999    2.80999994
   13.53722286  130.75900269    0.25999999    2.80999994
   13.54027843  129.73500061    0.25999999    2.78999996
   13.54305553  126.71399689    0.28000000    2.78999996
   13.54388905  127.77799988    0.28000000    2.78999996
   13.54722309  130.64599609    0.25999999    2.80999994
   13.55055618  136.00399780    0.28000000    2.78999996
   13.55361176  135.42700195    0.28000000    2.78999996
   13.55694485  129.20300293    0.25999999    2.78999996
   13.56277752  129.20300293    0.25999999    2.80999994
   13.56694412  126.91000366    0.25999999    2.80999994
   13.57027817  133.18600464    0.25999999    2.78999996
   13.57361126  129.00399780    0.25999999    2.78999996
   13.57638836  131.34399414    0.25999999    2.78999996
   13.57694435  134.43200684    0.25999999    2.78999996
   13.58027744  121.36299896    0.25999999    2.80999994
   13.58361053  125.96099854    0.25999999    2.80999994
   13.58666611  125.27799988    0.25999999    2.80999994
   13.59000015  129.05299377    0.25999999    2.78999996
   13.59305477  130.05400085    0.25999999    2.78999996
   13.59638882  129.58000183    0.25999999    2.80999994
   13.59972191  130.50399780    0.25999999    2.78999996
   13.60583401  130.50399780    0.25999999    2.80999994
   13.61000061  130.30599976    0.25999999    2.80999994
   13.61305618  130.11000061    0.25999999    2.80999994
   13.61638927  132.20799255    0.25999999    2.80999994
   13.61944485  126.51399994    0.25999999    2.78999996
   13.62277794  131.09399414    0.25999999    2.80999994
   13.62611103  126.47799683    0.25999999    2.80999994
   13.62916660  128.83200073    0.25999999    2.80999994
   13.63249969  130.41000366    0.25999999    2.80999994
   13.63611126  140.27099609    0.25999999    2.78999996
   13.63916683  132.28599548    0.25999999    2.80999994
   13.64249992  128.42799377    0.25999999    2.80999994
   13.64305496  131.74699402    0.25999999    2.80999994
   13.64888859  131.74699402    0.25999999    2.82999992
   13.65305519  129.60699463    0.25999999    2.80999994
   13.65638828  131.64300537    0.25999999    2.80999994
   13.65944386  131.39700317    0.25999999    2.80999994
   13.66277695  126.55400085    0.25999999    2.80999994
   13.66611099  128.87800598    0.25999999    2.80999994
   13.66916656  128.44500732    0.25999999    2.80999994
   13.67250061  127.10700226    0.25999999    2.80999994
   13.67555618  128.52299500    0.25999999    2.80999994
   13.67638874  122.13700104    0.25999999    2.80999994
   13.67916679  130.81100464    0.25999999    2.80999994
   13.68249989  130.09500122    0.25999999    2.80999994
   13.68583298  126.81900024    0.25999999    2.80999994
   13.69166660  126.81900024    0.25999999    2.80999994
   13.69583321  126.26399994    0.25999999    2.80999994
   13.69888878  134.31500244    0.25999999    2.80999994
   13.70222187  132.02200317    0.25999999    2.80999994
   13.70555496  135.05200195    0.25999999    2.78999996
   13.70861053  134.08500671    0.25999999    2.80999994
   13.70972157  131.80599976    0.25999999    2.80999994
   13.71222210  134.45700073    0.25999999    2.80999994
   13.71555519  131.55700684    0.25999999    2.82999992
   13.71888828  128.28300476    0.25999999    2.80999994
   13.72194386  128.17599487    0.25999999    2.80999994
   13.72527695  130.57499695    0.25999999    2.80999994
   13.72861099  133.28300476    0.25999999    2.80999994
   13.73444462  133.28300476    0.25999999    2.82999992
   13.73833370  133.88000488    0.25999999    2.82999992
   13.74166679  128.77299500    0.25999999    2.80999994
   13.74305534  132.95399475    0.25999999    2.80999994
   13.74555588  132.94200134    0.25999999    2.80999994
   13.74861145  128.76400757    0.25999999    2.80999994
   13.75194454  130.74899292    0.25000000    2.80999994
   13.75500011  129.54400635    0.25000000    2.80999994
   13.75833321  128.27600098    0.25999999    2.82999992
   13.76166630  130.56700134    0.25999999    2.80999994
   13.76472187  133.50999451    0.25999999    2.82999992
   13.76805496  136.85800171    0.25000000    2.82999992
   13.77138901  136.03399658    0.25000000    2.82999992
   13.79361153  137.97300720    0.25999999    2.80999994
   13.79388905  133.62100220    0.25999999    2.80999994
   13.79722309  138.59199524    0.25000000    2.80999994
   13.80027771  131.48199463    0.25000000    2.82999992
   13.80361176  131.70199585    0.25999999    2.82999992
   13.80694485  137.55000305    0.25000000    2.82999992
   13.80972195  129.95100403    0.25000000    2.82999992
   13.81027794  135.70599365    0.25000000    2.82999992
   13.81361103  130.64999390    0.25000000    2.82999992
   13.81999969  130.64999390    0.25000000    2.80999994
   13.82416630  131.05000305    0.25000000    2.80999994
   13.82750034  135.54600525    0.25999999    2.82999992
   13.83055592  132.32800293    0.25999999    2.82999992
   13.83388901  127.19599915    0.25000000    2.82999992
   13.83722210  130.60200500    0.25000000    2.82999992
   13.84027767  134.94000244    0.25999999    2.82999992
   13.84305477  140.63299561    0.25999999    2.82999992
   13.84388828  133.07800293    0.25999999    2.82999992
   13.84722233  135.54200745    0.25000000    2.80999994
   13.85055637  132.08500671    0.25000000    2.80999994
   13.85361195  134.64799500    0.25000000    2.80999994
   13.85694504  134.69799805    0.25000000    2.80999994
   13.86277771  134.69799805    0.25999999    2.80999994
   13.86694431  140.69900513    0.25000000    2.82999992
   13.87027836  139.35699463    0.25000000    2.82999992
   13.87361145  136.65899658    0.25999999    2.80999994
   13.87638855  139.14399719    0.25000000    2.82999992
   13.87722206  138.52299500    0.25000000    2.82999992
   13.88027763  134.86999512    0.25999999    2.82999992
   13.88361073  136.58000183    0.25999999    2.82999992
   13.88694477  140.15299988    0.25999999    2.82999992
   13.89027786  141.16299438    0.25999999    2.80999994
   13.89333344  140.27600098    0.25000000    2.82999992
   13.89666653  147.61999512    0.25000000    2.82999992
   13.89999962  141.35800171    0.25999999    2.82999992
   13.90583324  141.35800171    0.25000000    2.80999994
   13.90972137  146.10099792    0.25000000    2.82999992
   13.91305542  143.94000244    0.25000000    2.82999992
   13.91638851  143.82200623    0.25000000    2.82999992
   13.91944504  139.35000610    0.25000000    2.82999992
   13.92277813  141.05900574    0.25000000    2.82999992
   13.92611122  132.78900146    0.25000000    2.82999992
   13.92916679  141.11900330    0.25000000    2.82999992
   13.93249989  142.35099792    0.25000000    2.80999994
   13.93555546  145.70199585    0.25000000    2.82999992
   13.93888855  139.77699280    0.25000000    2.82999992
   13.94222260  145.75300598    0.25000000    2.82999992
   13.94305515  144.08200073    0.25000000    2.82999992
   13.94861126  144.08200073    0.25000000    2.82999992
   13.95277786  143.44500732    0.25999999    2.82999992
   13.95583344  142.17199707    0.25000000    2.82999992
   13.95916653  144.00599670    0.25000000    2.80999994
   13.96249962  153.64700317    0.25000000    2.82999992
   13.96555519  148.42100525    0.25000000    2.82999992
   13.96888828  147.35800171    0.25000000    2.82999992
   13.97194386  135.64599609    0.25000000    2.82999992
   13.97527695  152.03799438    0.25000000    2.82999992
   13.97638798  142.37399292    0.25000000    2.82999992
   13.97888851  155.72300720    0.25000000    2.80999994
   13.98194408  155.85299683    0.25000000    2.82999992
   13.98527813  152.25900269    0.25000000    2.82999992
   13.99138927  152.25900269    0.25000000    2.82999992
   13.99555588  149.34300232    0.25000000    2.82999992
   13.99888897  152.38000488    0.25000000    2.80999994
   14.00194454  142.61599731    0.25000000    2.80999994
   14.00527763  153.26400757    0.25000000    2.82999992
   14.00833321  150.26499939    0.25000000    2.82999992
   14.00972176  149.36300659    0.25000000    2.80999994
   14.01222229  145.93800354    0.25000000    2.80999994
   14.01527786  151.82499695    0.25000000    2.84999990
   14.01861095  161.16299438    0.25000000    2.82999992
   14.02194405  153.98699951    0.25000000    2.82999992
   14.02499962  156.27499390    0.25000000    2.82999992
   14.02833271  162.21299744    0.25000000    2.82999992
   14.03416729  162.21299744    0.25000000    2.82999992
   14.03833389  165.00399780    0.25000000    2.82999992
   14.04166698  163.24200439    0.25000000    2.82999992
   14.04305553  157.81700134    0.25000000    2.82999992
   14.04527855  158.97700500    0.25000000    2.84999990
   14.04833412  167.23599243    0.25000000    2.82999992
   14.05166721  167.72799683    0.25000000    2.82999992
   14.05500031  163.36300659    0.25000000    2.82999992
   14.05805588  164.88499451    0.25000000    2.82999992
   14.06138897  158.54800415    0.25000000    2.82999992
   14.06472206  160.67100525    0.25000000    2.82999992
   14.06777763  157.88999939    0.25000000    2.84999990
   14.07111073  166.69900513    0.25000000    2.82999992
   14.07722187  166.69900513    0.25000000    2.82999992
   14.08111095  163.22599792    0.25000000    2.84999990
   14.08444405  169.68699646    0.25000000    2.82999992
   14.08777714  168.22500610    0.25000000    2.82999992
   14.09083271  166.74699402    0.25000000    2.82999992
   14.09416676  163.71499634    0.25000000    2.84999990
   14.09749985  167.32899475    0.25000000    2.82999992
   14.10055637  161.87899780    0.25000000    2.82999992
   14.10388947  165.57800293    0.25000000    2.82999992
   14.10694504  178.32600403    0.25000000    2.82999992
   14.10972214  171.56900024    0.25000000    2.82999992
   14.11083412  172.02000427    0.25000000    2.82999992
   14.11388969  174.41000366    0.25000000    2.84999990
   14.11999989  174.41000366    0.25000000    2.82999992
   14.12416649  183.43099976    0.25000000    2.82999992
   14.12722206  177.34599304    0.25999999    2.84999990
   14.13055611  174.32800293    0.25000000    2.82999992
   14.13388920  186.32600403    0.28000000    2.84999990
   14.13694477  176.30700684    0.25999999    2.84999990
   14.14027786  181.49099731    0.25999999    2.84999990
   14.14305496  179.27099609    0.25000000    2.84999990
   14.14388847  180.39999390    0.25000000    2.84999990
   14.14694405  190.35099792    0.25000000    2.84999990
   14.15027714  183.38299561    0.25000000    2.82999992
   14.15361118  192.59500122    0.25999999    2.84999990
   14.15666676  255.60200500    0.25999999    2.82999992
   14.16277695  255.60200500    0.25000000    2.82999992
   14.16694450  211.81900024    0.25000000    2.84999990
   14.17027855  207.66400146    0.25000000    2.82999992
   14.17333412  234.24600220    0.25000000    2.82999992
   14.17638874  229.82000732    0.25999999    2.82999992
   14.17694473  234.47000122    0.25999999    2.82999992
   14.18000031  244.73399353    0.25999999    2.82999992
   14.18333340  241.76499939    0.25000000    2.84999990
   14.18666649  219.88000488    0.25000000    2.84999990
   14.18972206  226.04499817    0.25999999    2.84999990
   14.19305515  235.39999390    0.25999999    2.82999992
   14.19638920  222.53300476    0.25999999    2.84999990
   14.19944477  219.86199951    0.25999999    2.82999992
   14.20555496  219.86199951    0.25000000    2.84999990
   14.20972157  219.56300354    0.25000000    2.84999990
   14.21305561  252.72900391    0.25000000    2.82999992
   14.21638870  238.67199707    0.25999999    2.82999992
   14.21944427  261.26699829    0.25999999    2.82999992
   14.22277737  261.04501343    0.25000000    2.82999992
   14.22611046  213.84500122    0.25000000    2.82999992
   14.22916603  196.30599976    0.25000000    2.82999992
   14.23249912  239.67500305    0.25000000    2.82999992
   14.23583317  268.92599487    0.25999999    2.84999990
   14.23888874  233.56799316    0.25000000    2.82999992
   14.24222279  252.49400330    0.25000000    2.82999992
   14.24305534  228.28900146    0.25000000    2.82999992
   14.24861145  228.28900146    0.25000000    2.82999992
   14.25249958  241.24400330    0.25000000    2.82999992
   14.25583363  227.01499939    0.25000000    2.84999990
   14.25916672  236.25000000    0.25000000    2.82999992
   14.26222229  233.60299683    0.25000000    2.84999990
   14.26555538  209.25199890    0.25000000    2.84999990
   14.26888847  243.41499329    0.25000000    2.84999990
   14.27194405  248.11199951    0.25000000    2.82999992
   14.27527714  254.82000732    0.25000000    2.82999992
   14.27638817  249.16999817    0.25000000    2.82999992
   14.27888870  244.38600159    0.25000000    2.82999992
   14.28194427  238.75199890    0.25000000    2.82999992
   14.28527832  242.33900452    0.25000000    2.82999992
   14.29138947  242.33900452    0.25000000    2.82999992
   14.29555607  258.47698975    0.25000000    2.84999990
   14.29861164  252.38099670    0.25000000    2.82999992
   14.30194473  246.32400513    0.25000000    2.82999992
   14.30527782  254.96800232    0.25000000    2.84999990
   14.30833340  234.51400757    0.25000000    2.84999990
   14.30972195  257.69000244    0.25000000    2.84999990
   14.31194496  260.43399048    0.25000000    2.84999990
   14.31500053  234.89700317    0.25000000    2.84999990
   14.31833363  222.93200684    0.25000000    2.84999990
   14.32166672  242.05700684    0.25000000    2.84999990
   14.32472229  236.84100342    0.25999999    2.84999990
   14.32805538  235.10699463    0.25999999    2.84999990
   14.33416653  235.10699463    0.25999999    2.84999990
   14.33833313  235.05999756    0.25999999    2.84999990
   14.34166622  242.14799500    0.25999999    2.82999992
   14.34305477  250.76100159    0.25000000    2.84999990
   14.34527779  242.30200195    0.25999999    2.84999990
   14.34833336  227.58700562    0.25000000    2.84999990
   14.35166740  239.68400574    0.25999999    2.86999989
   14.35500050  234.55200195    0.25999999    2.84999990
   14.35805607  226.43200684    0.25999999    2.82999992
   14.36138916  258.91101074    0.25999999    2.84999990
   14.36472225  254.08299255    0.25999999    2.84999990
   14.36777782  245.20100403    0.25999999    2.84999990
   14.37111092  270.86999512    0.25999999    2.84999990
   14.37694454  270.86999512    0.25999999    2.84999990
   14.38111115  270.06698608    0.25999999    2.84999990
   14.38444424  300.32501221    0.25999999    2.84999990
   14.38749981  262.37100220    0.25999999    2.86999989
   14.39083290  255.97799683    0.25999999    2.84999990
   14.39416695  265.54199219    0.25999999    2.84999990
   14.39722252  291.50100708    0.25999999    2.84999990
   14.40055561  267.87298584    0.25999999    2.84999990
   14.40388870  282.32000732    0.25999999    2.84999990
   14.40694427  274.81298828    0.25999999    2.84999990
   14.40972137  314.76998901    0.25999999    2.84999990
   14.41055489  326.82800293    0.25999999    2.84999990
   14.41361046  314.13500977    0.25999999    2.84999990
   14.41972256  314.13500977    0.25999999    2.84999990
   14.42388916  328.27999878    0.25999999    2.84999990
   14.42722225  268.03698730    0.25999999    2.84999990
   14.43055630  311.93301392    0.25999999    2.84999990
   14.43361092  263.52899170    0.25999999    2.84999990
   14.43694496  305.09600830    0.25999999    2.84999990
   14.44027805  260.91198730    0.25999999    2.84999990
   14.44305515  324.00698853    0.25999999    2.84999990
   14.44388866  305.62600708    0.25999999    2.84999990
   14.44694424  329.15499878    0.25999999    2.84999990
   14.45027733  335.33599854    0.25999999    2.84999990
   14.45361137  328.47100830    0.25999999    2.84999990
   14.45666695  352.48498535    0.25999999    2.86999989
   14.46277714  352.48498535    0.25999999    2.84999990
   14.46694374  315.51000977    0.25999999    2.84999990
   14.46999931  351.72198486    0.25999999    2.86999989
   14.47333336  348.94699097    0.25999999    2.84999990
   14.47638798  355.57199097    0.25999999    2.84999990
   14.47694397  353.06698608    0.25999999    2.84999990
   14.47999954  359.42898560    0.25999999    2.84999990
   14.48333359  346.13198853    0.25999999    2.84999990
   14.48666668  347.43399048    0.25999999    2.84999990
   14.48972225  326.48901367    0.25999999    2.84999990
   14.49305534  334.76000977    0.25999999    2.84999990
   14.49638939  374.34899902    0.25999999    2.84999990
   14.49944496  312.46301270    0.25999999    2.86999989
   14.50555515  312.46301270    0.25999999    2.86999989
   14.50972176  337.18099976    0.25999999    2.84999990
   14.51027775  337.26400757    0.25999999    2.84999990
   14.51333332  329.50299072    0.25999999    2.84999990
   14.51666641  317.50900269    0.25999999    2.84999990
   14.51999950  351.64300537    0.25999999    2.84999990
   14.52305508  319.47900391    0.25999999    2.84999990
   14.52638817  343.19699097    0.25999999    2.84999990
   14.52972221  356.82598877    0.25999999    2.84999990
   14.53277779  347.69500732    0.25999999    2.86999989
   14.53611183  320.66699219    0.25999999    2.84999990
   14.53916740  308.88000488    0.25999999    2.84999990
   14.54250050  343.89700317    0.25999999    2.84999990
   14.54361153  301.29000854    0.25999999    2.84999990
   14.54833412  301.29000854    0.25999999    2.82999992
   14.55249977  325.88800049    0.25999999    2.86999989
   14.55583382  309.05300903    0.25999999    2.84999990
   14.55888939  330.19400024    0.25999999    2.86999989
   14.56222248  340.75698853    0.25999999    2.86999989
   14.56555557  334.61300659    0.25999999    2.86999989
   14.56888866  321.05899048    0.25999999    2.86999989
   14.57194424  318.83499146    0.25999999    2.86999989
   14.57527733  317.16198730    0.25999999    2.86999989
   14.57694435  322.98001099    0.25999999    2.84999990
   14.57861137  319.45199585    0.25999999    2.84999990
   14.58194447  312.11499023    0.25999999    2.84999990
   14.58527756  335.81399536    0.25999999    2.84999990
   14.59111118  335.81399536    0.25999999    2.84999990
   14.59527779  310.45700073    0.25999999    2.84999990
   14.59861088  317.70498657    0.25999999    2.84999990
   14.71805477   -1.00000000   -1.00000000   -1.00000000
   14.85888958   -1.00000000   -1.00000000   -1.00000000
   15.04111195   -1.00000000   -1.00000000   -1.00000000
   15.06972218   77.82730103    0.30000001    2.86999989
   15.07277775  127.75000000    0.28000000    2.86999989
   15.07611084  133.84800720    0.28000000    2.84999990
   15.07916641  127.01399994    0.28000000    2.84999990
   15.08249950  137.14300537    0.28000000    2.84999990
   15.08583260  129.78900146    0.28000000    2.86999989
   15.09000015  129.78900146    0.28000000    2.86999989
   15.09416676  136.28500366    0.28000000    2.86999989
   15.09722233  137.98699951    0.28000000    2.86999989
   15.10055637  134.63200378    0.28000000    2.86999989
   15.10305595  136.29299927    0.28000000    2.86999989
   15.10388947  126.49199677    0.28000000    2.86999989
   15.10722256  135.82800293    0.28000000    2.86999989
   15.11055565  137.52200317    0.30000001    2.86999989
   15.11361122  141.31900024    0.28000000    2.84999990
   15.11694431  134.06799316    0.55000001    2.84999990
   15.12027836  135.87199402    0.31999999    2.84999990
   15.12333393  139.27299500    0.64999998    2.84999990
   15.12666702  136.29200745    0.73000002    2.86999989
   15.13277817  136.29200745    1.88000000    2.86999989
   15.13694477  140.24600220    1.26999998    2.86999989
   15.14000034  138.77799988    4.90999985    2.59999990
   15.14333344  208.63099670    4.90999985    2.93000007
   15.14666653   -1.00000000    4.90999985    1.55999994
   15.14972210  185.25900269    4.90999985    1.85000002
   15.15305519  142.80999756    4.90999985    3.00000000
   15.15611076   -1.00000000    4.90999985    1.94000006
   15.15944386   -1.00000000    4.90999985    2.11999989
   15.16277695   -1.00000000    4.90999985    1.51999998
   15.16583252   -1.00000000    4.90999985    2.25000000
   15.16916656  161.61999512    4.90999985    1.80999994
   15.16972256  135.40199280    4.90999985    1.80999994
   15.17555618  135.40199280    4.90999985    2.82999992
   15.17972279  124.26200104    4.90999985    2.89000010
   15.18305588  129.20599365    4.90999985    2.86999989
   15.18611145  167.45300293    4.90999985    2.89000010
   15.18944454  160.68099976    4.90999985    2.26999998
   15.19250011  190.51199341    4.90999985    2.55999994
   15.19583321  135.03900146    4.90999985    1.91999996
   15.19916630  130.47300720    4.90999985    2.91000009
   15.20222187  154.83799744    4.90999985    2.86999989
   15.20305538  147.91799927    4.90999985    2.86999989
   15.20611095   -1.00000000    4.90999985    2.69000006
   15.20916653  199.25900269    4.90999985    1.63000000
   15.21249962  127.21399689    4.90999985    2.94000006
   15.21833324  127.21399689    4.90999985    2.71000004
   15.22249985  127.66100311    3.45000005    2.84999990
   15.22583294  122.88700104    0.30000001    2.84999990
   15.22888851  133.85600281    0.28000000    2.86999989
   15.23222160  128.22399902    0.30000001    2.86999989
   15.23555565  132.72000122    3.07999992    2.86999989
   15.23638916  126.50599670    4.90999985    2.86999989
   15.23888874  124.09600067    4.57999992    2.66000009
   15.24222279  122.47299957    0.25999999    2.84999990
   15.24555588  125.17199707    0.30000001    2.86999989
   15.24861145  128.40299988    0.38000000    2.86999989
   15.25194454  126.15499878    0.41999999    2.86999989
   15.25527763  122.64099884    2.30999994    2.84999990
   15.26138878  122.64099884    1.46000004    2.86999989
   15.26527786  125.81300354    1.16999996    2.86999989
   15.26861095  128.45100403    1.94000006    2.89000010
   15.26972198  132.66900635    3.23000002    2.86999989
   15.27250004  130.76100159    4.90999985    2.89000010
   15.27583313  132.06300354    4.90999985    2.66000009
   15.27888870  132.70700073    4.90999985    2.00000000
   15.28222179  127.36799622    0.86000001    2.86999989
   15.28527832  126.86199951    0.31999999    2.86999989
   15.28861141  127.33000183    0.79000002    2.86999989
   15.29194450  135.17900085    0.41999999    2.86999989
   15.29500008  125.69799805    0.51999998    2.86999989
   15.29833412  132.08700562    0.75000000    2.86999989
   15.30416679  132.08700562    4.90999985    2.64000010
   15.30833340   -1.00000000    4.90999985    2.39000010
   15.31138897  145.99499512    4.90999985    1.91999996
   15.31472206  149.26800537    4.90999985    2.55999994
   15.31805515  134.66200256    4.90999985    2.71000004
   15.32111073  184.40400696    4.90999985    2.57999992
   15.32444477  159.56199646    4.90999985    2.55999994
   15.32750034  152.08599854    4.90999985    2.32999992
   15.33083344  131.65600586    4.90999985    2.59999990
   15.33416653   -1.00000000    4.90999985    1.66999996
   15.33749962  128.73100281    4.90999985    1.71000004
   15.34083271  129.84399414    4.90999985    2.40000010
   15.34694386  129.84399414    4.90999985    1.78999996
   15.35111141  122.36299896    4.90999985    1.98000002
   15.35444450  145.93899536    4.90999985    1.75000000
   15.35750008  139.85499573    4.90999985    2.78999996
   15.36083412  130.73300171    4.90999985    2.86999989
   15.36388969  131.87800598    1.07000005    2.84999990
   15.36722279  138.11099243    4.90999985    2.76999998
   15.36972237  125.62100220    4.90999985    2.69000006
   15.37083340  126.94699860    2.61999989    2.86999989
   15.37416649  131.88699341    0.36000001    2.86999989
   15.37750053  141.36300659    0.46000001    2.86999989
   15.38055611  125.81800079    4.90999985    2.84999990
   15.38388920  123.17500305    4.90999985    2.84999990
   15.38972187  123.17500305    2.39000010    2.86999989
   15.39388847  121.83200073    2.05999994    2.84999990
   15.39722252  119.04100037    4.30999994    2.86999989
   15.40027714  123.38800049    0.25999999    2.86999989
   15.40305519  122.15000153    0.25000000    2.86999989
   15.40388870  120.96800232    0.25000000    2.86999989
   15.40722179  130.32299805    0.25000000    2.84999990
   15.41055489  122.66000366    0.25000000    2.86999989
   15.41361046  127.34999847    0.30000001    2.86999989
   15.41694450  131.01699829    0.30000001    2.86999989
   15.42027855  129.31500244    0.28000000    2.86999989
   15.42361164  130.70399475    0.28000000    2.89000010
   15.42666721  123.74900055    0.25999999    2.84999990
   15.43277836  123.74900055    0.25999999    2.86999989
   15.43666649  127.79699707    0.25000000    2.86999989
   15.44000053  123.88999939    0.25000000    2.89000010
   15.44333363  130.20399475    0.25999999    2.86999989
   15.44638920  125.76300049    0.25999999    2.86999989
   15.44972229  127.10199738    0.25000000    2.86999989
   15.45305538  130.16099548    0.25999999    2.86999989
   15.45611095  119.68499756    0.25000000    2.86999989
   15.45944405  120.90699768    0.25000000    2.86999989
   15.46249962  127.07900238    0.25000000    2.86999989
   15.46583271  124.92500305    0.25999999    2.86999989
   15.46916580  118.45300293    0.25999999    2.86999989
   15.46972179  120.67500305    0.25999999    2.86999989
   15.47555542  120.67500305    0.25999999    2.86999989
   15.47972202  117.94200134    0.28000000    2.89000010
   15.48277760  115.99099731    0.25999999    2.86999989
   15.48611164  115.56300354    0.25999999    2.86999989
   15.48944473  119.29399872    0.25999999    2.86999989
   15.49250031  119.41200256    0.25999999    2.89000010
   15.49583340  120.27200317    0.25999999    2.86999989
   15.49916649  120.27600098    0.25999999    2.86999989
   15.50222206  123.05200195    0.25999999    2.86999989
   15.50305557  124.55599976    0.25999999    2.86999989
   15.50611115  127.83300018    0.25999999    2.86999989
   15.50944424  122.45700073    0.25999999    2.86999989
   15.51249981  122.89600372    0.25999999    2.86999989
   15.51833344  122.89600372    0.50000000    2.89000010
   15.52250004  124.35900116    0.30000001    2.86999989
   15.52583313  121.77799988    0.28000000    2.86999989
   15.52888870  122.11599731    0.30000001    2.86999989
   15.53222179  122.15000153    0.31999999    2.86999989
   15.53555584  124.95700073    4.90999985    2.67000008
   15.53638935  124.70200348    4.90999985    2.86999989
   15.53916740  129.74499512    4.90999985    2.89000010
   15.54222298  133.84500122    2.69000006    2.89000010
   15.54555607  140.51100159    4.90999985    2.61999989
   15.54861164  122.44200134    4.90999985    2.73000002
   15.55194473  127.75499725    4.90999985    2.69000006
   15.55527782  136.59800720    4.90999985    2.59999990
   15.56111145  136.59800720    4.90999985    2.89000010
   15.56527805  145.99800110    4.90999985    2.71000004
   15.56861115  127.14199829    4.90999985    2.75000000
   15.56972218  183.18400574    4.90999985    2.80999994
   15.57222176  159.51300049    4.90999985    2.05999994
   15.57527733  141.13099670    4.90999985    2.80999994
   15.57861137  122.65499878    4.90999985    2.53999996
   15.58166695  122.08599854    0.52999997    2.89000010
   15.58500004  119.22799683    1.73000002    2.89000010
   15.58833313  127.24299622    4.90999985    2.89000010
   15.59138870  142.28500366    4.90999985    2.75000000
   15.59472179  126.59899902    4.90999985    2.64000010
   15.59805489  157.78199768    4.90999985    2.51999998
   15.60416698  157.78199768    3.75000000    2.84999990
   15.60805607  120.70400238    1.25000000    2.89000010
   15.61138916  119.79399872    0.46000001    2.86999989
   15.61472225  131.77000427    0.40000001    2.89000010
   15.61777782  128.53900146    0.36000001    2.89000010
   15.62111092  127.00199890    0.92000002    2.86999989
   15.62444496  126.24299622    1.46000004    2.86999989
   15.62750053  125.65299988    2.69000006    2.86999989
   15.63083363  129.76499939    0.86000001    2.86999989
   15.63388920  128.12600708    0.86000001    2.86999989
   15.63638878  127.43599701    0.88000000    2.86999989
   15.63777733  119.30500031    0.88000000    2.86999989
   15.64083290  122.57299805    0.61000001    2.86999989
   15.64694405  122.57299805    1.51999998    2.86999989
   15.65111065  126.70400238    4.90999985    2.82999992
   15.65416622  128.54899597    0.80000001    2.86999989
   15.65749931  125.44300079    0.51999998    2.86999989
   15.66083336  125.76499939    0.56999999    2.86999989
   15.66388893  125.60600281    0.40000001    2.84999990
   15.66722298  127.97299957    0.28000000    2.86999989
   15.66972256  120.27300262    0.28000000    2.86999989
   15.67111111  121.19000244    0.25999999    2.86999989
   15.67416668  119.97200012    0.25999999    2.89000010
   15.67750072  125.24700165    0.28000000    2.86999989
   15.68055630  119.92900085    0.25999999    2.86999989
   15.68388939  121.53900146    0.28000000    2.86999989
   15.68972206  121.53900146    0.25999999    2.86999989
   15.69388866  125.60299683    0.25999999    2.89000010
   15.69722271  125.62599945    0.25999999    2.89000010
   15.70027733  115.96199799    0.25999999    2.89000010
   15.70305538  121.42199707    0.25999999    2.86999989
   15.70416641  118.47200012    0.25000000    2.86999989
   15.70722198  123.28199768    0.25999999    2.86999989
   15.71055508  124.37100220    0.25000000    2.86999989
   15.71361065  124.05000305    0.25000000    2.86999989
   15.71694374  127.14499664    0.25999999    2.86999989
   15.72027779  125.01000214    0.25999999    2.89000010
   15.72333336  126.60399628    0.25000000    2.89000010
   15.72666645  123.54699707    0.25000000    2.86999989
   15.73249912  123.54699707    0.25000000    2.86999989
   15.73666668  116.46700287    0.25000000    2.86999989
   15.74000072  123.51300049    0.25000000    2.86999989
   15.74305534  125.50499725    0.25000000    2.89000010
   15.74638939  118.67199707    0.25000000    2.89000010
   15.74972248  119.16699982    0.25000000    2.86999989
   15.75277805  117.13200378    0.25000000    2.86999989
   15.75611115  130.81399536    0.25000000    2.86999989
   15.75944424  126.42299652    0.25000000    2.86999989
   15.76249981  123.55400085    0.25000000    2.86999989
   15.76583290  124.00900269    0.25000000    2.86999989
   15.76916599  123.08499908    0.25000000    2.86999989
   15.76972198  118.11399841    0.25000000    2.86999989
   15.77555561  118.11399841    0.23000000    2.86999989
   15.77944374  124.97599792    0.23000000    2.89000010
   15.78277779  121.55100250    0.25999999    2.86999989
   15.78611183  125.63200378    0.25999999    2.86999989
   15.78916740  124.91400146    0.28000000    2.86999989
   15.79250050  133.21600342    0.34000000    2.86999989
   15.79583359  120.43399811    0.31999999    2.86999989
   15.79888916  123.59500122    0.36000001    2.86999989
   15.80222225  120.15899658    0.61000001    2.86999989
   15.80305576  124.69300079    0.75000000    2.86999989
   15.80583382  124.38500214    0.64999998    2.86999989
   15.80888939  125.68299866    0.36000001    2.86999989
   15.81222248  120.69000244    0.38000000    2.86999989
   15.81833363  120.69000244    0.36000001    2.86999989
   15.82250023  119.84899902    0.38000000    2.86999989
   15.82555580  117.43599701    0.36000001    2.86999989
   15.82888889  117.60199738    0.70999998    2.86999989
   15.83222198  122.37599945    3.32999992    2.78999996
   15.83527756  116.59899902    2.80999994    2.89000010
   15.83638859  115.97399902    0.73000002    2.86999989
   15.83888817  123.21600342    0.40000001    2.89000010
   15.84194374  115.06500244    0.38000000    2.86999989
   15.84527779  124.49500275    0.41999999    2.86999989
   15.84861088  119.05100250    0.41999999    2.86999989
   15.85166740  123.59700012    0.40000001    2.86999989
   15.85500050  120.44000244    0.36000001    2.86999989
   15.86111164  120.44000244    0.30000001    2.86999989
   15.86527824  124.61299896    0.28000000    2.86999989
   15.86861134  123.07099915    0.28000000    2.86999989
   15.86972237  123.15200043    0.25999999    2.86999989
   15.87222195  123.90899658    0.25999999    2.86999989
   15.87527752  121.08999634    0.25999999    2.89000010
   15.87861156  122.34500122    0.25999999    2.86999989
   15.88194466  126.35500336    0.28000000    2.89000010
   15.88500023  122.13899994    0.28000000    2.89000010
   15.88833332  123.84999847    0.25999999    2.86999989
   15.89138889  120.67299652    0.25999999    2.89000010
   15.89472198  126.12100220    0.25999999    2.89000010
   15.89805508  122.56099701    0.25999999    2.86999989
   15.90388870  122.56099701    0.25999999    2.86999989
   15.90805531  123.26000214    0.28000000    2.89000010
   15.91138840  121.22299957    0.28000000    2.89000010
   15.91444397  121.92299652    0.25999999    2.86999989
   15.91777802  122.93900299    0.31999999    2.86999989
   15.92111111  118.82399750    0.47999999    2.86999989
   15.92444515  120.36299896    0.30000001    2.89000010
   15.92750072  125.12599945    0.30000001    2.89000010
   15.93083382  122.26799774    0.28000000    2.86999989
   15.93388939  122.89800262    0.28000000    2.86999989
   15.93638897  118.44899750    0.30000001    2.86999989
   15.93777752  120.22100067    0.30000001    2.86999989
   15.94083309  124.98300171    0.25000000    2.86999989
   15.94694424  124.98300171    0.25000000    2.86999989
   15.95111084  122.68299866    0.25000000    2.86999989
   15.95416641  120.71199799    0.47999999    2.86999989
   15.95749950  115.65599823    0.83999997    2.86999989
   15.96055508  127.88400269    1.33000004    2.86999989
   15.96388912  120.87300110    1.28999996    2.86999989
   15.96722221  124.15000153    4.90999985    2.78999996
   15.96972179  128.52200317    4.90999985    2.42000008
   15.97083282  128.27799988    4.90999985    2.78999996
   15.97388840  122.44899750    4.90999985    2.84999990
   15.97722149  116.76599884    4.90999985    2.94000006
   15.98055553  120.96900177    4.90999985    2.89000010
   15.98361111  119.62999725    1.83000004    2.89000010
   15.98972225  119.62999725    0.31999999    2.89000010
   15.99388885  127.50099945    1.30999994    2.89000010
   15.99694443  123.66100311    3.28999996    2.86999989
   16.00027847  123.09200287    2.80999994    2.86999989
   16.00305557  122.89499664    2.00000000    2.86999989
   16.00388908  123.94499969    2.00000000    2.86999989
   16.00694466  120.76599884    1.34000003    2.86999989
   16.01027870  125.14499664    1.34000003    2.86999989
   16.01361084  120.23100281    0.34000000    2.86999989
   16.01666641  124.69300079    0.89999998    2.89000010
   16.02000046  123.77999878    0.80000001    2.89000010
   16.02305603  122.99500275    0.67000002    2.86999989
   16.02638817  126.19599915    0.38000000    2.86999989
   16.03249931  126.19599915    0.36000001    2.86999989
   16.03666687  125.11100006    0.31999999    2.89000010
   16.03999901  120.19999695    0.31999999    2.89000010
   16.04305458  121.54499817    0.31999999    2.86999989
   16.04638863  128.54100037    0.30000001    2.86999989
   16.04944420  125.07399750    0.30000001    2.86999989
   16.05277634  125.76599884    0.30000001    2.86999989
   16.05611038  124.27500153    0.30000001    2.86999989
   16.05916595  127.27700043    0.34000000    2.86999989
   16.06250000  121.99099731    0.50000000    2.86999989
   16.06583214  121.54100037    1.91999996    2.86999989
   16.06888962  127.48600006    1.80999994    2.86999989
   16.06972313  129.03100586    1.80999994    2.86999989
   16.09055710  129.03100586    0.50000000    2.86999989
   16.09472275  119.68399811    0.61000001    2.86999989
   16.09777832  123.95800018    1.01999998    2.86999989
   16.10111237  125.41400146    1.01999998    2.86999989
   16.10305595  118.02500153    1.05999994    2.89000010
   16.10472298  122.35600281    1.05999994    2.89000010
   16.10805511  121.65200043    1.07000005    2.89000010
   16.11111069  121.98000336    1.14999998    2.86999989
   16.11444473  121.03299713    0.50000000    2.89000010
   16.11750031  121.64600372    0.63000000    2.86999989
   16.12083435  123.25299835    0.70999998    2.89000010
   16.12416649  123.22299957    1.58000004    2.86999989
   16.12722206  119.41300201    1.23000002    2.86999989
   16.13333321  119.41300201    4.90999985    2.82999992
   16.13750076  124.86199951    4.90999985    2.76999998
   16.14055634  124.64499664    1.75000000    2.86999989
   16.14388847  122.80899811    4.78000021    2.86999989
   16.14694405  123.58300018    3.89000010    2.84999990
   16.15027809  123.62200165    2.09999990    2.86999989
   16.15361023  123.47100067    4.90999985    2.84999990
   16.15666580  124.44100189    4.90999985    2.80999994
   16.15999985  119.48899841    4.90999985    2.84999990
   16.16333389  126.30899811    2.28999996    2.82999992
   16.16638756  120.20999908    2.11999989    2.84999990
   16.16972160  123.57599640    2.36999989    2.84999990
   16.17027664  121.25499725    2.36999989    2.84999990
   16.17611122  121.25499725    4.28999996    2.78999996
   16.18027687  124.58699799    4.90999985    2.76999998
   16.18333244  125.17099762    2.67000008    2.89000010
   16.18666649  131.72700500    4.78000021    2.86999989
   16.18999863  123.59100342    4.90999985    2.78999996
   16.19305420  120.82599640    3.30999994    2.82999992
   16.19638824  113.32399750    0.83999997    2.86999989
   16.19972038  119.72000122    0.79000002    2.89000010
   16.20277786  127.65000153    1.01999998    2.86999989
   16.20361137  118.47100067    1.01999998    2.86999989
   16.20639038  121.03800201    4.90999985    2.75000000
   16.20972252  122.18699646    4.90999985    2.80999994
   16.21305656  123.61100006    4.76000023    2.78999996
   16.21888924  123.61100006    4.15999985    2.80999994
   16.22305679  113.65299988    2.98000002    2.86999989
   16.22638893  114.48799896    4.71999979    2.86999989
   16.22944450  127.42099762    3.93000007    2.84999990
   16.23277855  126.66600037    4.90999985    2.78999996
   16.23611069  123.26100159    4.90999985    2.69000006
   16.23694420  134.10400391    4.90999985    2.66000009
   16.23944473  126.14299774    4.90999985    2.64000010
   16.24277878  121.37200165    4.90999985    2.73000002
   16.24611092  118.07199860    4.90999985    2.84999990
   16.24916649  119.26000214    4.90999985    2.86999989
   16.25250053  126.68800354    4.90999985    2.80999994
   16.25555611  124.70500183    4.90999985    2.75000000
   16.26166725  124.70500183    4.90999985    2.53999996
   16.26583290  123.69599915    4.90999985    2.76999998
   16.26916695  130.49099731    3.48000002    2.84999990
   16.27027702  120.47699738    3.32999992    2.82999992
   16.27277756  117.98400116    3.64000010    2.82999992
   16.27611160  124.66200256    4.90999985    2.84999990
   16.27944374  127.87799835    4.90999985    2.82999992
   16.28249931  128.46800232    3.50000000    2.80999994
   16.28583336  124.77400208    2.66000009    2.86999989
   16.28888893  124.62400055    2.21000004    2.86999989
   16.29222107  122.69400024    1.53999996    2.84999990
   16.29555511  120.01699829    0.81999999    2.89000010
   16.29861069  125.41799927    0.25999999    2.89000010
   16.30472183  125.41799927    0.34000000    2.89000010
   16.30888748  121.46900177    0.36000001    2.86999989
   16.31194305  122.55699921    0.38000000    2.89000010
   16.31527710  120.76999664    0.34000000    2.86999989
   16.31833458  118.45200348    0.25000000    2.89000010
   16.32166672  119.27100372    0.25000000    2.86999989
   16.32500076  127.93900299    0.25999999    2.89000010
   16.32805634  123.79900360    0.28000000    2.86999989
   16.33139038  123.87000275    0.28000000    2.89000010
   16.33472252  125.72599792    0.28000000    2.86999989
   16.33694458  128.03799438    0.28000000    2.86999989
   16.33805656  118.62799835    0.28000000    2.86999989
   16.34138870  122.63600159    0.25999999    2.89000010
   16.34749985  122.63600159    2.28999996    2.86999989
   16.35166740  122.95999908    0.70999998    2.86999989
   16.35472298  123.39499664    0.52999997    2.86999989
   16.35805511  118.70999908    0.31999999    2.89000010
   16.36138916  119.43800354    1.63000000    2.89000010
   16.36444473  124.02700043    3.05999994    2.75000000
   16.36777878  114.73100281    2.91000009    2.75000000
   16.37027740  118.30799866    1.41999996    2.86999989
   16.37138939  129.49000549    1.66999996    2.80999994
   16.37472153  124.09400177    4.09999990    2.80999994
   16.37805557  133.43800354    4.90999985    2.71000004
   16.38111115  133.15400696    4.90999985    2.53999996
   16.38444519  123.30200195    4.90999985    2.71000004
   16.39027786  123.30200195    1.51999998    2.84999990
   16.39444351  124.12799835    0.94000000    2.84999990
   16.39777756  133.17799377    2.89000010    2.80999994
   16.40083313  126.65899658    4.90999985    2.57999992
   16.40361023  124.87300110    4.90999985    2.61999989
   16.40444374  123.31999969    4.90999985    2.69000006
   16.40777779  123.69699860    4.90999985    2.78999996
   16.41110992  126.36000061    2.50000000    2.86999989
   16.41416550  124.76200104    1.46000004    2.86999989
   16.41749954  117.56099701    0.52999997    2.86999989
   16.42055511  123.44300079    0.41999999    2.89000010
   16.42388916  124.96399689    4.73999977    2.82999992
   16.42722130  126.90100098    4.90999985    2.76999998
   16.43305397  126.90100098    4.90999985    2.61999989
   16.43722153  172.21899414    4.90999985    2.30999994
   16.44055557  154.46699524    4.90999985    2.28999996
   16.44388771  128.35600281    4.90999985    2.42000008
   16.44694328  130.33000183    4.90999985    2.69000006
   16.45027924  127.31900024    4.90999985    2.67000008
   16.45333481  122.19699860    4.90999985    2.76999998
   16.45666695  120.32199860    3.26999998    2.78999996
   16.46000099  115.01699829    0.64999998    2.86999989
   16.46305656  124.37200165    0.38000000    2.86999989
   16.46638870  126.03099823    0.31999999    2.86999989
   16.46972275  119.72899628    0.31999999    2.86999989
   16.47027779  119.40699768    0.31999999    2.86999989
   16.47611237  119.40699768    0.36000001    2.86999989
   16.48027802  118.67400360    0.31999999    2.86999989
   16.48333359  121.75199890    0.34000000    2.86999989
   16.48666763  123.13400269    0.34000000    2.86999989
   16.48972321  118.06099701    0.31999999    2.89000010
   16.49305534  120.85500336    0.34000000    2.86999989
   16.49638939  121.39199829    0.34000000    2.86999989
   16.49944496  121.52899933    0.41999999    2.86999989
   16.50277710  116.99600220    0.38000000    2.89000010
   16.50361061  121.19599915    0.34000000    2.86999989
   16.50611115  116.18399811    0.34000000    2.86999989
   16.50944519  117.68599701    0.34000000    2.89000010
   16.51277733  121.19599915    0.31999999    2.86999989
   16.51888847  121.19599915    0.31999999    2.89000010
   16.52305603  119.44999695    0.31999999    2.89000010
   16.52611160  125.45099640    0.30000001    2.86999989
   16.52944374  115.81600189    0.31999999    2.86999989
   16.53277779  119.56600189    0.30000001    2.86999989
   16.53583336  119.82099915    0.31999999    2.89000010
   16.53694344  125.52799988    0.31999999    2.89000010
   16.53972244  124.22899628    0.31999999    2.86999989
   16.54277802  124.81400299    0.31999999    2.86999989
   16.54611015  121.85900116    0.31999999    2.86999989
   16.54916573  129.07600403    0.31999999    2.86999989
   16.55249977  120.44599915    0.55000001    2.86999989
   16.55583191  121.74900055    0.34000000    2.86999989
   16.56166649  121.74900055    0.44000000    2.86999989
   16.56583214  124.56300354    0.63000000    2.86999989
   16.56916809  123.58599854    0.34000000    2.86999989
   16.57027817  122.95800018    0.34000000    2.86999989
   16.57250023  121.19999695    0.34000000    2.86999989
   16.57583427  114.93399811    0.36000001    2.86999989
   16.57916832  115.69899750    0.36000001    2.86999989
   16.58222389  122.12999725    0.36000001    2.86999989
   16.58555603  111.67900085    0.34000000    2.86999989
   16.58889008  113.84899902    0.34000000    2.86999989
   16.59194565  113.15299988    0.31999999    2.86999989
   16.59527779  118.15799713    0.36000001    2.86999989
   16.59889030  116.45099640    0.41999999    2.86999989
   16.60444450  116.45099640    0.36000001    2.86999989
   16.60861206  121.39199829    0.36000001    2.86999989
   16.61194420  117.83300018    0.61000001    2.86999989
   16.61527824  124.26599884    0.46000001    2.89000010
   16.61833382  123.84400177    0.38000000    2.86999989
   16.62166595  123.41999817    0.38000000    2.86999989
   16.62472153  116.29599762    0.34000000    2.86999989
   16.62805557  121.74500275    0.34000000    2.86999989
   16.63138962  129.38800049    0.34000000    2.86999989
   16.63444519  115.27500153    0.34000000    2.89000010
   16.63694382  119.29699707    0.34000000    2.89000010
   16.63805580  121.15100098    0.34000000    2.86999989
   16.64138794  121.71499634    0.56999999    2.86999989
   16.64749908  121.71499634    0.40000001    2.86999989
   16.65166664  116.46099854    0.44000000    2.86999989
   16.65472221  116.40399933    0.40000001    2.86999989
   16.65805435  127.95400238    0.40000001    2.86999989
   16.66110992  123.00599670    0.41999999    2.86999989
   16.66444397  118.47499847    0.41999999    2.86999989
   16.66777802  118.69300079    0.40000001    2.86999989
   16.67027664  118.31400299    0.34000000    2.86999989
   16.67111015  120.46499634    0.34000000    2.86999989
   16.67444420  122.96600342    0.31999999    2.86999989
   16.67777634  119.01399994    0.34000000    2.89000010
   16.68083191  116.22899628    0.31999999    2.86999989
   16.68416595  119.21099854    0.31999999    2.86999989
   16.69027710  119.21099854    0.34000000    2.86999989
   16.69444275  116.84600067    0.46000001    2.86999989
   16.69777679  175.30000305    0.69000000    2.86999989
   16.70083427  116.70700073    4.90999985    2.51999998
   16.70361137  117.54499817    0.51999998    2.86999989
   16.70472336  117.13400269    0.50000000    2.86999989
   16.70777893  120.08699799    0.47999999    2.86999989
   16.71111107  119.29699707    0.40000001    2.86999989
   16.71416664  115.22799683    0.41999999    2.86999989
   16.71750069  120.09100342    0.41999999    2.86999989
   16.72083473  118.40000153    0.40000001    2.86999989
   16.72389030  119.14199829    0.40000001    2.86999989
   16.72722244  116.07599640    0.44000000    2.86999989
   16.73305511  116.07599640    0.69000000    2.86999989
   16.73722267  118.09300232    0.46000001    2.86999989
   16.74055672  124.36199951    0.46000001    2.86999989
   16.74361229  115.81300354    0.46000001    2.86999989
   16.74694443  125.03399658    0.46000001    2.86999989
   16.75027847  116.32700348    0.56999999    2.86999989
   16.75333405  119.82700348    0.56999999    2.86999989
   16.75666618  121.63400269    0.81999999    2.86999989
   16.76000023  115.11799622    0.76999998    2.86999989
   16.76305580  119.80400085    0.76999998    2.86999989
   16.76638794  124.73699951    0.61000001    2.86999989
   16.76972198  125.22299957    0.63000000    2.86999989
   16.77027702  124.62000275    0.63000000    2.86999989
   16.77583313  124.62000275    0.69000000    2.84999990
   16.78000069  119.00700378    0.81999999    2.84999990
   16.78333282  119.70200348    0.70999998    2.86999989
   16.78666687  120.07399750    0.61000001    2.86999989
   16.78972244  117.71299744    0.55000001    2.86999989
   16.79305458  116.62300110    0.52999997    2.86999989
   16.79638863  117.05200195    0.52999997    2.86999989
   16.79944420  119.03500366    0.55000001    2.86999989
   16.80277634  119.67299652    0.56999999    2.86999989
   16.80360985  118.42600250    0.56999999    2.86999989
   16.80638885  121.50900269    0.58999997    2.86999989
   16.80944443  116.76200104    0.61000001    2.86999989
   16.81277657  122.55000305    0.63000000    2.86999989
   16.81888962  122.55000305    0.64999998    2.86999989
   16.82305717  120.17400360    0.64999998    2.86999989
   16.82611275  114.61900330    0.64999998    2.86999989
   16.82944489  122.73300171    0.64999998    2.86999989
   16.83250046  117.74299622    0.64999998    2.84999990
   16.83583450  125.31500244    0.69000000    2.86999989
   16.83694458  121.62500000    0.69000000    2.86999989
   16.83944511  115.55999756    0.69000000    2.86999989
   16.84250069  119.79799652    1.05999994    2.80999994
   16.84583473  121.62699890    1.63000000    2.84999990
   16.84916687  119.00700378    1.63000000    2.84999990
   16.85222244  119.57399750    1.75000000    2.82999992
   16.85555649  115.82900238    0.55000001    2.86999989
   16.86194420  115.82900238    0.51999998    2.86999989
   16.86583328  123.01399994    0.47999999    2.86999989
   16.86916733  115.10700226    0.47999999    2.86999989
   16.87027740  118.29900360    0.41999999    2.86999989
   16.87277794  117.57800293    0.41999999    2.86999989
   16.87583351  115.88200378    0.41999999    2.86999989
   16.87916756  114.42400360    0.86000001    2.84999990
   16.88222313  121.39900208    0.86000001    2.84999990
   16.88555527  112.00399780    0.47999999    2.86999989
   16.88888931  118.97899628    0.47999999    2.89000010
   16.89194489  124.51899719    0.44000000    2.86999989
   16.89527702  117.99800110    0.63000000    2.86999989
   16.89861107  120.42500305    0.73000002    2.86999989
   16.90444374  120.42500305    4.90999985    2.76999998
   16.90861130  120.42099762    0.83999997    2.86999989
   16.91194344  119.43599701    0.51999998    2.86999989
   16.91499901  119.89399719    0.50000000    2.84999990
   16.91833305  118.50000000    0.47999999    2.84999990
   16.92166519  123.31300354    0.47999999    2.86999989
   16.92472076  129.39599609    0.50000000    2.84999990
   16.92805481  120.22200012    0.47999999    2.86999989
   16.93111038  126.91899872    0.47999999    2.86999989
   16.93444443  120.74700165    0.47999999    2.86999989
   16.93694305  119.74199677    0.47999999    2.86999989
   16.93805504  123.74299622    0.46000001    2.86999989
   16.94111061  129.90899658    0.46000001    2.86999989
   16.94722176  129.90899658    0.79000002    2.84999990
   16.95138931  118.34999847    0.76999998    2.84999990
   16.95472336  121.56199646    0.70999998    2.86999989
   16.95805550  124.51499939    0.55000001    2.86999989
   16.96111107  119.92500305    0.47999999    2.86999989
   16.96444511  120.77500153    0.47999999    2.86999989
   16.96750069  114.01100159    0.52999997    2.86999989
   16.97027779  120.81099701    0.50000000    2.86999989
   16.97138977  118.62000275    0.50000000    2.86999989
   16.97444534  114.84899902    0.61000001    2.86999989
   16.97777748  123.51000214    0.70999998    2.86999989
   16.98111153  159.65800476    4.90999985    2.61999989
   16.98416710  129.71400452    4.90999985    2.26999998
   16.99027824  129.71400452    4.90999985    2.64000010
   16.99444389  123.24600220    4.40999985    2.78999996
   16.99749947  123.65200043    3.95000005    2.78999996
   17.00083351  126.63700104    3.45000005    2.78999996
   17.00361061  118.18499756    1.88000000    2.84999990
   17.00444412  120.54399872    1.51999998    2.86999989
   17.00749969  119.80500031    1.55999994    2.84999990
   17.01083374  118.60399628    1.88000000    2.84999990
   17.01416588  121.64800262    3.28999996    2.82999992
   17.01722145  118.48000336    4.90999985    2.71000004
   17.02055550  125.41200256    4.90999985    2.75000000
   17.02361107  124.91300201    4.90999985    2.78999996
   17.02694511  199.53199768    4.90999985    2.61999989
   17.03305435  199.53199768    4.90999985    2.39000010
   17.03722191  129.95300293    4.90999985    2.53999996
   17.04027748  124.23600006    4.13999987    2.82999992
   17.04361153  126.79100037    2.40000010    2.84999990
   17.04694366  127.36299896    4.65999985    2.80999994
   17.04999924  203.83000183    4.90999985    2.78999996
   17.05333328  129.18699646    4.90999985    2.78999996
   17.05666542  132.33399963    4.05999994    2.84999990
   17.05972099  137.64199829    4.90999985    2.61999989
   17.06305504  127.34500122    4.90999985    2.86999989
   17.06611061  124.23100281    1.38000000    2.86999989
   17.06944466  125.33999634    1.14999998    2.84999990
   17.07027817  125.62899780    1.14999998    2.84999990
   17.07583427  125.62899780    2.57999992    2.84999990
   17.08000183  130.47599792    1.71000004    2.84999990
   17.08333397  122.45800018    2.26999998    2.84999990
   17.08638954  129.56599426    1.94000006    2.84999990
   17.10416794  120.94599915    4.26999998    2.76999998
   17.10639000  121.59500122    4.90999985    2.86999989
   17.10972214  121.69400024    2.57999992    2.86999989
   17.11305618  138.10899353    2.39000010    2.89000010
   17.11888885  138.10899353    4.90999985    2.86999989
   17.12305641  184.59500122    4.90999985    1.75000000
   17.12611198   -1.00000000    4.90999985    2.01999998
   17.12944412  158.66299438    4.90999985    1.39999998
   17.13277817  128.96200562    4.90999985    2.55999994
   17.13583374  133.48599243    4.90999985    2.89000010
   17.13722229  136.23500061    4.90999985    2.93000007
   17.13944435  130.24400330    4.90999985    2.44000006
   17.14277840  154.95300293    4.90999985    2.64000010
   17.14583397  134.48399353    4.90999985    2.36999989
   17.14916611  132.62800598    4.90999985    2.76999998
   17.15222168  228.84500122    4.90999985    2.71000004
   17.15555573  128.78700256    4.90999985    1.94000006
   17.16166687  128.78700256    4.90999985    2.93000007
   17.16583252  125.68900299    4.90999985    2.71000004
   17.16916656  122.33499908    3.61999989    2.82999992
   17.17055511  127.48300171    4.80999994    2.84999990
   17.17277718  127.75399780    4.90999985    2.71000004
   17.17611122  120.25499725    1.05999994    2.86999989
   17.17916679  119.71499634    0.83999997    2.86999989
   17.18249893  125.90599823    0.46000001    2.86999989
   17.18583298  124.69100189    0.56999999    2.86999989
   17.18916512  115.59100342    0.89999998    2.86999989
   17.19222069  146.90400696    4.90999985    2.64000010
   17.19555473  154.26499939    4.90999985    1.96000004
   17.19861031   -1.00000000    4.90999985    1.78999996
   17.20861244   -1.00000000    4.90999985    0.55000001
   17.21194458   -1.00000000    4.90999985    0.70999998
   17.21500015  132.33599854    4.90999985    1.51999998
   17.21833420  125.76100159    4.90999985    2.86999989
   17.22166634  124.62200165    1.01999998    2.86999989
   17.22472191  137.39300537    0.81999999    2.89000010
   17.22805595  256.80200195    4.90999985    2.75000000
   17.23139000   -1.00000000    4.90999985    1.60000002
   17.23444557   -1.00000000    4.90999985    0.98000002
   17.23805618   -1.00000000    4.90999985    1.33000004
   17.24111176  131.10899353    4.90999985    2.25000000
   17.25138855   -1.00000000    4.90999985    1.05999994
   17.25472260   -1.00000000    4.90999985    1.16999996
   17.25805473  328.21499634    4.90999985    0.81999999
   17.26111031  127.67299652    4.90999985    2.75000000
   17.26444435  156.90899658    4.90999985    2.76999998
   17.26777840  140.25999451    4.90999985    2.23000002
   17.27055550  202.09100342    4.90999985    1.28999996
   17.27111053  234.93099976    4.90999985    1.64999998
   17.27444458  127.76100159    4.90999985    1.76999998
   17.27777672  132.30900574    4.90999985    2.89000010
   17.28083229  139.63600159    2.07999992    2.84999990
   17.28416634  137.87100220    4.90999985    2.80999994
   17.29027748  137.87100220    4.90999985    2.89000010
   17.29444313  123.77100372    4.90999985    2.84999990
   17.29749870  157.70100403    4.90999985    2.84999990
   17.30083275  131.88999939    4.90999985    2.34999990
   17.30444336   -1.00000000    4.90999985    1.46000004
   17.30749893   -1.00000000    4.90999985    1.61000001
   17.31083298  132.59100342    4.90999985    1.64999998
   17.31416512  127.99600220    4.23999977    2.89000010
   17.31722260  135.69500732    3.05999994    2.82999992
   17.32055664  126.95200348    4.73999977    2.80999994
   17.32389069  130.92700195    2.39000010    2.86999989
   17.32694626  130.34800720    3.95000005    2.82999992
   17.33305550  130.34800720    2.05999994    2.86999989
   17.33722305  124.97399902    0.58999997    2.86999989
   17.33777809  129.02000427    0.58999997    2.86999989
   17.34111214  125.34600067    2.03999996    2.84999990
   17.34416771  132.61300659    4.90999985    2.69000006
   17.34749985  127.99099731    4.90999985    2.80999994
   17.35083389  139.18299866    4.90999985    2.86999989
   17.35388947  130.63099670    4.90999985    2.51999998
   17.35722351  127.38600159    4.90999985    2.42000008
   17.36055565  128.69000244    4.90999985    2.39000010
   17.36361122  126.88200378    4.90999985    2.82999992
   17.36694527  122.95800018    4.26000023    2.86999989
   17.37000084  190.63099670    4.90999985    2.80999994
   17.37583351   -1.00000000    4.90999985    1.03999996
   17.38000107  130.44299316    4.90999985    1.78999996
   17.38333321  147.07200623    4.15999985    2.84999990
   17.38666725  132.51600647    4.90999985    2.84999990
   17.38972282   -1.00000000    4.90999985    2.82999992
   17.39305496  131.20199585    4.90999985    2.39000010
   17.39611053  154.53799438    4.90999985    2.73000002
   17.39944458  127.05200195    4.90999985    2.57999992
   17.40277672  138.86199951    4.26000023    2.78999996
   17.40444374  146.24600220    4.90999985    2.67000008
   17.40638924  132.56199646    4.90999985    2.32999992
   17.40944481  123.30200195    4.90999985    2.82999992
   17.41277695   -1.00000000    4.90999985    2.55999994
   17.41888809   -1.00000000    4.90999985    2.23000002
   17.42305565  128.88099670    4.90999985    2.51999998
   17.42611122  128.01300049    4.90999985    2.82999992
   17.42944336  126.37200165    3.51999998    2.59999990
   17.43249893  138.29400635    4.51000023    2.78999996
   17.43583298  124.08499908    4.90999985    2.30999994
   17.43777657  128.04699707    4.90999985    2.67000008
   17.43944359  134.18800354    4.53999996    2.78999996
   17.44249916  132.50500488    4.90999985    2.46000004
   17.44583321  128.26699829    4.90999985    2.69000006
   17.44916534  129.15600586    4.90999985    2.73000002
   17.45222282  176.28799438    4.90999985    2.69000006
   17.45555687  129.72999573    4.90999985    2.71000004
   17.46166801  129.72999573    4.90999985    2.75000000
   17.46583366  145.81900024    4.90999985    2.05999994
   17.46888924  122.46499634    4.90999985    2.30999994
   17.47111130  126.01899719    4.90999985    2.76999998
   17.47277832  127.62400055    3.07999992    2.82999992
   17.47583389  127.03800201    1.98000002    2.84999990
   17.47916794  248.35099792    4.90999985    2.57999992
   17.48250008  279.89700317    4.90999985    1.91999996
   17.48555565  171.29899597    4.90999985    2.30999994
   17.48888969  135.07400513    4.90999985    2.42000008
   17.49194527  119.16999817    4.90999985    2.80999994
   17.49527740  128.33000183    1.01999998    2.84999990
   17.49861145  127.35600281    0.63000000    2.86999989
   17.50444412  127.35600281    3.97000003    2.82999992
   17.50861168  128.10099792    4.90999985    2.48000002
   17.51194382  136.42999268    4.90999985    2.64000010
   17.51499939  133.03399658    4.90999985    2.73000002
   17.51833344  130.45199585    4.90999985    2.73000002
   17.52166557   -1.00000000    4.90999985    1.25000000
   17.52472115  115.65899658    4.90999985    1.36000001
   17.52805519  131.26400757    4.90999985    2.86999989
   17.53138924  146.74800110    4.90999985    2.61999989
   17.53444481  136.00500488    4.90999985    2.78999996
   17.53777695  125.68699646    4.90999985    2.46000004
   17.53833199  127.46600342    4.90999985    2.46000004
   17.54138756  146.71600342    4.90999985    2.78999996
   17.54722214  146.71600342    4.90999985    1.88000000
   17.55138779  132.73500061    4.90999985    2.48000002
   17.55472183  123.84899902    1.58000004    2.82999992
   17.55805397  118.01200104    3.84999990    2.80999994
   17.56110954  127.04799652    4.90999985    2.15000010
   17.56444359  168.47300720    4.90999985    2.46000004
   17.56750107  133.25100708    4.90999985    2.26999998
   17.57083511  131.57699585    4.90999985    2.48000002
   17.57139015  129.85899353    4.90999985    2.64000010
   17.57472229  139.21899414    4.90999985    2.55999994
   17.57777786  131.27400208    4.90999985    2.55999994
   17.58111191  280.02801514    4.90999985    2.44000006
   17.58416748  169.85400391    4.90999985    1.85000002
   17.59027863  169.85400391    4.90999985    2.34999990
   17.59444427  138.23399353    2.59999990    2.84999990
   17.59749985  135.00199890    4.90999985    2.71000004
   17.60083389  133.53100586    4.90999985    2.76999998
   17.60388947  127.62999725    0.75000000    2.86999989
   17.60472298  136.96899414    0.70999998    2.86999989
   17.60777855  131.55099487    0.76999998    2.84999990
   17.61083412  137.10699463    4.90999985    2.44000006
   17.61416626  123.78500366    4.61999989    2.78999996
   17.61750031  123.92099762    1.41999996    2.84999990
   17.62055588  128.92500305    4.90999985    2.53999996
   17.62388992  129.68400574    4.90999985    2.67000008
   17.62722206  135.59700012    4.90999985    2.78999996
   17.63305473  135.59700012    0.98000002    2.84999990
   17.63722229  124.84899902    0.76999998    2.86999989
   17.63805580  124.78700256    1.11000001    2.86999989
   17.64083290  127.08799744    2.75000000    2.82999992
   17.64388847  118.43399811    2.17000008    2.78999996
   17.64722252  125.47799683    2.07999992    2.84999990
   17.65027809  119.36399841    0.64999998    2.84999990
   17.65361023  119.83399963    0.64999998    2.84999990
   17.65694427  121.51200104    0.73000002    2.84999990
   17.65999985  129.83799744    0.75000000    2.84999990
   17.66333389  130.29100037    0.75000000    2.84999990
   17.66666603  123.70500183    0.75000000    2.84999990
   17.66972160  123.23699951    0.79000002    2.84999990
   17.67138863  123.79799652    0.76999998    2.86999989
   17.67583275  123.79799652    0.79000002    2.86999989
   17.68000031  123.37500000    0.80000001    2.86999989
   17.68333244  129.47599792    0.76999998    2.84999990
   17.68638802  122.66300201    0.76999998    2.84999990
   17.68972206  121.71700287    0.76999998    2.84999990
   17.69305420  120.62599945    0.76999998    2.84999990
   17.69638824  128.85699463    0.75000000    2.84999990
   17.69944382  124.13999939    0.75000000    2.84999990
   17.70277786  125.55300140    0.75000000    2.84999990
   17.70472336  122.86299896    0.75000000    2.84999990
   17.70639038  124.65499878    0.81999999    2.84999990
   17.70944595  128.51100159    0.81999999    2.84999990
   17.71277809  128.87399292    1.39999998    2.84999990
   17.71861076  128.87399292    0.83999997    2.86999989
   17.72277832  127.83999634    1.11000001    2.84999990
   17.72611237  131.91999817    4.88999987    2.73000002
   17.72944450  125.64099884    4.90999985    2.67000008
   17.73250008  128.67999268    4.90999985    2.80999994
   17.73583412  128.42399597    2.25000000    2.80999994
   17.73805618  124.13400269    0.98000002    2.84999990
   17.73916626  121.50000000    1.03999996    2.84999990
   17.74250031  125.20600128    1.71000004    2.84999990
   17.74583435  123.57299805    0.89999998    2.86999989
   17.74888992  123.87100220    0.88000000    2.84999990
   17.75222206  124.71499634    0.89999998    2.86999989
   17.75555611  123.85099792    0.92000002    2.84999990
   17.76166725  123.85099792    1.09000003    2.84999990
   17.76583290  131.12699890    3.82999992    2.78999996
   17.76888847  120.98799896    2.46000004    2.80999994
   17.77138901  127.59600067    4.78000021    2.82999992
   17.77277756  127.35099792    4.90999985    2.78999996
   17.77583313  126.20300293    4.90999985    2.76999998
   17.77916718  124.09100342    4.67999983    2.76999998
   17.78249931  124.13300323    3.09999990    2.80999994
   17.78555489  125.26200104    1.00000000    2.84999990
   17.78888893  122.48200226    0.92000002    2.84999990
   17.79194450  124.55799866    0.89999998    2.84999990
   17.79527664  127.57199860    0.92000002    2.84999990
   17.79861069  120.88200378    0.94000000    2.84999990
   17.80444336  120.88200378    0.92000002    2.84999990
   17.80861092  129.25999451    1.36000001    2.84999990
   17.81166649  124.44300079    1.55999994    2.84999990
   17.81499863  127.11900330    3.23000002    2.82999992
   17.81833458  131.41700745    4.57999992    2.75000000
   17.82139015  136.90899658    4.90999985    2.76999998
   17.82472229  129.46600342    4.90999985    2.53999996
   17.82805634  130.30900574    4.90999985    2.76999998
   17.83111191  128.20700073    1.53999996    2.84999990
   17.83444595  122.33799744    0.94000000    2.84999990
   17.83750153  124.09899902    1.36000001    2.84999990
   17.83944511  122.76100159    2.86999989    2.76999998
   17.84138870  127.88500214    4.90999985    2.82999992
   17.84722328  127.88500214    4.90999985    2.75000000
   17.85138893  127.63300323    4.90999985    2.75000000
   17.85472298  131.59700012    4.90999985    2.78999996
   17.85805511  131.22999573    4.90999985    2.71000004
   17.86111069  126.63899994    4.90999985    2.51999998
   17.86444473  129.03199768    4.90999985    2.71000004
   17.86777878  131.86399841    4.90999985    2.76999998
   17.87083435  129.92100525    4.90999985    2.67000008
   17.87277794  127.28299713    4.90999985    2.75000000
   17.87444496  122.37500000    4.90999985    2.82999992
   17.87750053  136.37500000    2.21000004    2.82999992
   17.88083267  126.78399658    1.53999996    2.84999990
   17.88416672  123.30500031    1.85000002    2.80999994
   17.88999939  123.30500031    4.90999985    2.71000004
   17.89416695  123.21399689    4.90999985    2.66000009
   17.89749908  129.00999451    2.66000009    2.80999994
   17.90083313  138.46299744    4.90999985    2.67000008
   17.90388870  127.76999664    3.25000000    2.82999992
   17.90638924  131.90800476    1.58000004    2.84999990
   17.90749931  127.82299805    1.58000004    2.84999990
   17.91083336  130.16799927    0.98000002    2.84999990
   17.91416550  126.08799744    0.94000000    2.84999990
   17.91722107  120.97100067    0.94000000    2.84999990
   17.92055511  127.76599884    0.94000000    2.84999990
   17.92388916  127.44899750    0.94000000    2.84999990
   17.92694473  119.19699860    0.94000000    2.84999990
   17.93305397  119.19699860    0.94000000    2.84999990
   17.93722153  125.31900024    1.60000002    2.84999990
   17.93972206  125.94000244    1.64999998    2.84999990
   17.94055557  123.80200195    1.64999998    2.84999990
   17.94388771  127.08000183    1.66999996    2.84999990
   17.94722176  127.01200104    1.66999996    2.84999990
   17.95027924  123.01899719    1.46000004    2.84999990
   17.95361137  123.61199951    3.32999992    2.82999992
   17.95666695  125.44000244    3.39000010    2.82999992
   17.96000099  127.76100159    3.43000007    2.80999994
   17.96333504  125.41999817    2.89000010    2.80999994
   17.96638870  131.69900513    1.30999994    2.84999990
   17.96972275  128.57099915    1.21000004    2.84999990
   17.97583389  128.57099915    1.26999998    2.84999990
   17.98000145  120.67500305    1.03999996    2.86999989
   17.98305511  121.51899719    0.98000002    2.86999989
   17.98638916  124.45200348    1.01999998    2.84999990
   17.98972321  125.40899658    1.07000005    2.82999992
   17.99277878  122.68199921    1.13000000    2.84999990
   17.99611092  126.54399872    1.39999998    2.84999990
   17.99944496  126.79499817    1.44000006    2.84999990
   18.00250053  122.54499817    1.46000004    2.84999990
   18.00583267  121.28199768    1.48000002    2.84999990
   18.00666618  124.29000092    1.48000002    2.84999990
   18.00944519  123.85199738    1.44000006    2.84999990
   18.01250076  125.45999908    1.33000004    2.84999990
   18.01861000  125.45999908    1.48000002    2.84999990
   18.02277756  123.90200043    1.71000004    2.84999990
   18.02611160  131.51699829    1.78999996    2.82999992
   18.02944374  126.08200073    1.78999996    2.82999992
   18.03249931  126.35800171    1.83000004    2.82999992
   18.03583336  128.73800659    1.94000006    2.82999992
   18.03888893  129.70799255    2.03999996    2.80999994
   18.03999901  125.12699890    2.03999996    2.80999994
   18.04277802  128.28599548    2.00000000    2.84999990
   18.04583359  120.15799713    1.85000002    2.84999990
   18.04916573  123.21800232    1.78999996    2.84999990
   18.05249977  127.93099976    1.78999996    2.84999990
   18.05555534  124.21700287    1.85000002    2.84999990
   18.06138802  124.21700287    1.83000004    2.84999990
   18.06555557  122.21700287    1.85000002    2.82999992
   18.06888962  117.05999756    1.80999994    2.84999990
   18.07222366  123.04699707    1.80999994    2.84999990
   18.07361221  123.20300293    1.75000000    2.82999992
   18.07583427  122.33200073    1.94000006    2.84999990
   18.07888985  124.16600037    2.25000000    2.82999992
   18.08222389  127.29599762    2.40000010    2.84999990
   18.08527756  126.10600281    3.78999996    2.80999994
   18.08861160  124.83300018    4.40999985    2.80999994
   18.09194565  130.99299622    3.89000010    2.82999992
   18.09500122  131.71499634    2.91000009    2.82999992
   18.09833336  126.60700226    2.36999989    2.84999990
   18.10444450  126.60700226    2.00000000    2.82999992
   18.12277794  122.17400360    2.25000000    2.84999990
   18.12583351  119.98999786    2.61999989    2.82999992
   18.12916756  122.68599701    3.39000010    2.75000000
   18.13249969  125.39900208    2.57999992    2.82999992
   18.13555527  125.98100281    2.44000006    2.80999994
   18.13888931  130.29299927    2.80999994    2.82999992
   18.14222145  123.30000305    4.90999985    2.71000004
   18.14749908  123.30000305    4.90999985    2.78999996
   18.15138817  133.88800049    4.90999985    2.66000009
   18.15472221  122.86699677    4.90999985    2.67000008
   18.15583229  181.85699463    4.90999985    2.51999998
   18.15833282  120.36599731    4.90999985    2.40000010
   18.16166687  119.10900116    4.90999985    2.78999996
   18.16499901  126.73600006    4.90999985    2.78999996
   18.16805458  120.40699768    4.90999985    2.73000002
   18.17138863  119.68099976    3.73000002    2.84999990
   18.17444420  123.28199768    1.89999998    2.84999990
   18.17777634  126.38999939    1.83000004    2.82999992
   18.18111038  121.79499817    1.73000002    2.82999992
   18.18416595  128.72300720    1.36000001    2.82999992
   18.19027710  128.72300720    1.48000002    2.82999992
   18.19444275  129.19400024    1.51999998    2.82999992
   18.19749832  124.52500153    1.63000000    2.82999992
   18.20083427  126.62300110    1.63000000    2.82999992
   18.20416832  126.49600220    1.69000006    2.82999992
   18.20722389  125.45500183    1.80999994    2.82999992
   18.21055603  126.13099670    2.09999990    2.82999992
   18.21361160  123.76200104    2.28999996    2.80999994
   18.21694565  127.57199860    2.44000006    2.82999992
   18.22027779  118.86399841    2.44000006    2.82999992
   18.22249985  122.33000183    2.73000002    2.82999992
   18.22361183  121.89700317    2.75000000    2.82999992
   18.22694588  123.01899719    2.46000004    2.82999992
   18.23305511  123.01899719    2.36999989    2.82999992
   18.23722267  125.05000305    2.15000010    2.80999994
   18.24055672  129.30999756    2.01999998    2.82999992
   18.24361229  127.66200256    1.91999996    2.82999992
   18.24694443  116.35199738    2.01999998    2.82999992
   18.25027847  121.22699738    2.01999998    2.82999992
   18.25333405  128.90499878    1.98000002    2.80999994
   18.25583267  125.52500153    2.61999989    2.82999992
   18.25694466  129.28900146    4.90999985    2.71000004
   18.26027870  123.32599640    4.90999985    2.78999996
   18.26361084  119.56500244    4.90999985    2.76999998
   18.26666641  124.68199921    4.90999985    2.71000004
   18.27000046  120.43900299    4.90999985    2.78999996
   18.27583313  120.43900299    2.23000002    2.84999990
   18.28000069  115.80799866    3.34999990    2.78999996
   18.28333282  119.85199738    2.71000004    2.82999992
   18.28666687  116.04900360    2.17000008    2.84999990
   18.28916550  120.10099792    2.13000011    2.82999992
   18.29027748  122.27700043    2.13000011    2.82999992
   18.29333305  124.66899872    2.26999998    2.84999990
   18.29666710  124.45300293    2.34999990    2.82999992
   18.29972076  118.16799927    2.50000000    2.82999992
   18.30305481  134.00100708    4.44999981    2.76999998
   18.30638885  126.55300140    4.90999985    2.75000000
   18.30944443  121.65899658    4.90999985    2.71000004
   18.31277657  120.73799896    4.90999985    2.61999989
   18.31888962  120.73799896    4.90999985    1.91999996
   18.32277870  120.07299805    4.90999985    2.66000009
   18.32611275  152.68699646    4.90999985    2.75000000
   18.32944489  243.94099426    4.90999985    2.17000008
   18.33250046  174.12800598    4.90999985    2.28999996
   18.33583450  147.30799866    4.90999985    2.48000002
   18.33916664  131.63299561    4.90999985    2.69000006
   18.34222221  130.38400269    4.90999985    2.66000009
   18.34555626  123.29699707    4.90999985    2.61999989
   18.34861183  122.72399902    4.90999985    2.76999998
   18.35194397  120.65000153    4.26000023    2.78999996
   18.35527802  123.09300232    4.90999985    2.78999996
   18.35583305  120.14399719    4.90999985    2.75000000
   18.36166763  120.14399719    4.90999985    2.78999996
   18.36583328  123.60500336    4.17999983    2.78999996
   18.36888885  125.60500336    3.84999990    2.78999996
   18.37222290  126.90699768    4.30999994    2.78999996
   18.37527847  128.37300110    4.90999985    2.66000009
   18.37861061  124.28299713    4.90999985    2.67000008
   18.38194466  123.27500153    4.90999985    2.75000000
   18.38500023  121.15899658    3.51999998    2.80999994
   18.38833237  122.28900146    3.78999996    2.80999994
   18.38916588  121.58000183    3.45000005    2.80999994
   18.39194489  120.93900299    3.23000002    2.80999994
   18.39527702  120.99299622    3.72000003    2.80999994
   18.39861107  120.65299988    3.75000000    2.80999994
   18.40444374  120.65299988    3.36999989    2.78999996
   18.40861130  122.57399750    3.68000007    2.78999996
   18.41166687  123.43599701    3.70000005    2.76999998
   18.41499901  122.68299866    3.16000009    2.80999994
   18.41833305  117.84500122    2.57999992    2.80999994
   18.42138863  121.57900238    2.84999990    2.80999994
   18.42249870  119.55500031    2.69000006    2.80999994
   18.42499924  119.66200256    2.67000008    2.80999994
   18.42833328  121.74500275    2.28999996    2.82999992
   18.43166542  116.54100037    2.15000010    2.82999992
   18.43472099  121.56900024    1.89999998    2.80999994
   18.43805504  123.60399628    1.75000000    2.82999992
   18.44111061  125.06199646    1.61000001    2.80999994
   18.44722176  125.06199646    1.53999996    2.80999994
   18.45138931  124.58200073    1.61000001    2.82999992
   18.45472336  122.61599731    1.63000000    2.80999994
   18.45583344  123.29900360    1.63000000    2.80999994
   18.45805550  123.76699829    2.00000000    2.80999994
   18.46138954  120.81900024    2.23000002    2.80999994
   18.46472359  125.89099884    1.66999996    2.82999992
   18.46777916  119.23799896    1.63000000    2.80999994
   18.47111130  119.53500366    1.75000000    2.82999992
   18.47444534  124.58799744    1.78999996    2.80999994
   18.47750092  121.61299896    3.21000004    2.80999994
   18.48083305  117.86599731    4.23999977    2.76999998
   18.48388863  127.01899719    4.90999985    2.80999994
   18.49027824  127.01899719    3.46000004    2.76999998
   18.49416733  114.45200348    1.69000006    2.80999994
   18.49749947  120.91899872    1.26999998    2.82999992
   18.50083351  116.20899963    1.25000000    2.80999994
   18.50388908  116.80799866    1.26999998    2.82999992
   18.50722313  115.72799683    2.64000010    2.76999998
   18.51083374  130.72999573    4.90999985    2.66000009
   18.51388931  122.72899628    4.90999985    2.57999992
   18.51722145  122.32099915    4.90999985    2.73000002
   18.52055550  126.02100372    4.90999985    2.76999998
   18.52249908  120.86499786    4.90999985    2.73000002
   18.52388954  120.57299805    4.28999996    2.80999994
   18.52722168  128.20300293    3.91000009    2.78999996
   18.53305435  128.20300293    4.76000023    2.80999994
   18.53722191  125.93099976    4.07999992    2.78999996
   18.54027748  126.96199799    4.76000023    2.76999998
   18.54361153  126.84799957    4.90999985    2.78999996
   18.54694366  122.29599762    4.90999985    2.76999998
   18.54999924  120.57599640    4.90999985    2.76999998
   18.55333328  123.86100006    4.80999994    2.76999998
   18.55583191  122.58599854    4.76000023    2.76999998
   18.55666542  120.83599854    4.55999994    2.78999996
   18.55999947  118.91300201    4.21999979    2.78999996
   18.56333351  117.83799744    4.01999998    2.78999996
   18.56638718  116.92400360    4.09999990    2.78999996
   18.56972313  125.79900360    4.65999985    2.78999996
   18.57583427  125.79900360    4.90999985    2.66000009
   18.58000183  125.37200165    4.90999985    2.64000010
   18.58333397  128.87300110    4.90999985    2.73000002
   18.58638954  125.93299866    4.90999985    2.55999994
   18.58916664  129.56100464    4.90999985    2.71000004
   18.59000015  128.93600464    4.90999985    2.61999989
   18.59333420  122.08399963    4.90999985    2.71000004
   18.59666824  132.67399597    4.32999992    2.78999996
   18.59972191  124.63300323    3.95000005    2.78999996
   18.60305595  122.18800354    4.15999985    2.76999998
   18.60639000  117.88099670    3.73000002    2.78999996
   18.60944557  116.71800232    3.50000000    2.78999996
   18.61277771  117.71299744    2.80999994    2.76999998
   18.61861038  117.71299744    2.09999990    2.80999994
   18.62277794  113.44899750    2.28999996    2.80999994
   18.62611198  117.84899902    2.82999992    2.78999996
   18.62944412  112.39099884    2.66000009    2.78999996
   18.63249969  114.81300354    2.26999998    2.78999996
   18.63583374  122.49199677    1.80999994    2.78999996
   18.63916588  117.89299774    1.69000006    2.80999994
   18.64222145  116.63600159    1.34000003    2.80999994
   18.64555550  111.58599854    1.25000000    2.80999994
   18.64888954  116.54000092    1.48000002    2.80999994
   18.65194321  118.88500214    1.48000002    2.80999994
   18.65527725  115.23600006    1.48000002    2.80999994
   18.65583229  112.24600220    1.48000002    2.80999994
   18.66138840  112.24600220    1.41999996    2.80999994
   18.66555595  121.47399902    2.28999996    2.80999994
   18.66916656  123.42800140    3.99000001    2.78999996
   18.67249870  123.64600372    4.90999985    2.71000004
   18.67555428  122.03099823    4.90999985    2.57999992
   18.67888832  120.53900146    4.90999985    2.26999998
   18.68222237  114.32499695    4.90999985    2.73000002
   18.68527603  117.55300140    4.80000019    2.78999996
   18.68861008  127.88999939    3.73000002    2.78999996
   18.68916512  121.60500336    3.73000002    2.78999996
   18.69222069  115.72899628    2.53999996    2.80999994
   18.69527626  118.51699829    2.13000011    2.80999994
   18.69861031  123.45899963    2.15000010    2.80999994
   18.70444489  123.45899963    1.94000006    2.80999994
   18.70861244  120.21099854    1.86000001    2.80999994
   18.71166801  119.12400055    2.25000000    2.78999996
   18.71500015  118.44100189    2.67000008    2.80999994
   18.71833420  113.03099823    4.90999985    2.76999998
   18.72138977  122.72299957    4.90999985    2.73000002
   18.72249985  118.26100159    4.90999985    2.48000002
   18.72500038  118.58899689    4.90999985    2.71000004
   18.72833443  117.96399689    4.90999985    2.57999992
   18.73166656  122.95099640    4.90999985    2.57999992
   18.73472214  128.38600159    4.90999985    2.46000004
   18.73805618  130.54100037    4.90999985    2.44000006
   18.74138832  122.19300079    4.90999985    2.46000004
   18.74722290  122.19300079    4.90999985    2.64000010
   18.75138855  120.01899719    4.90999985    2.76999998
   18.75444412  123.14800262    3.57999992    2.78999996
   18.75583267  127.35399628    3.25000000    2.78999996
   18.75805473  115.96600342    4.17999983    2.76999998
   18.76138878  125.32499695    4.19999981    2.76999998
   18.76472282  122.10199738    4.23999977    2.76999998
   18.76777840  124.52300262    3.73000002    2.76999998
   18.77111053  121.99099731    3.32999992    2.76999998
   18.77444458  122.20200348    2.86999989    2.78999996
   18.77750015  109.54499817    2.32999992    2.78999996
   18.78083229  114.81600189    2.86999989    2.78999996
   18.78388786  115.51399994    2.42000008    2.78999996
   18.78999901  115.51399994    1.89999998    2.78999996
   18.79416656  116.91400146    1.76999998    2.80999994
   18.79749870  120.41799927    1.55999994    2.78999996
   18.80055428  122.03500366    2.25000000    2.78999996
   18.80388832  119.13999939    2.40000010    2.76999998
   18.80722237  116.95400238    2.48000002    2.80999994
   18.81027794  124.50700378    4.03999996    2.78999996
   18.81361008  123.82499695    4.90999985    2.75000000
   18.81666756  120.75299835    4.90999985    2.73000002
   18.82000160  126.18699646    4.90999985    2.76999998
   18.82250023  118.64700317    4.76000023    2.75000000
   18.82389069  118.98799896    4.38999987    2.75000000
   18.82694626  124.00199890    3.61999989    2.78999996
   18.83277893  124.00199890    2.15000010    2.78999996
   18.83694458  122.70500183    1.98000002    2.78999996
   18.84027863  117.98799896    2.93000007    2.78999996
   18.84361267  122.98200226    3.75000000    2.80999994
   18.84666824  127.35900116    4.90999985    2.57999992
   18.85000038  118.72799683    4.90999985    2.67000008
   18.85305595  118.12400055    4.40999985    2.78999996
   18.85583305  118.32399750    4.40999985    2.78999996
   18.85694504  120.56500244    4.40999985    2.78999996
   18.86000061  121.36199951    3.91000009    2.73000002
   18.86333466  124.78800201    4.90999985    2.67000008
   18.86638832  123.71399689    2.46000004    2.80999994
   18.86972237  120.55999756    4.90999985    2.71000004
   18.87583351  120.55999756    4.90999985    2.64000010
   18.88000107  129.57600403    4.90999985    2.78999996
   18.88305473  124.64099884    2.82999992    2.78999996
   18.88638878  127.41400146    3.16000009    2.76999998
   18.88916588  123.63800049    2.73000002    2.78999996
   18.88999939  127.36199951    2.73000002    2.78999996
   18.89305496  122.24900055    4.40999985    2.78999996
   18.89638901  123.78600311    4.90999985    2.73000002
   18.89944458  123.88600159    4.90999985    2.76999998
   18.90277672  118.62100220    3.23000002    2.78999996
   18.90611076  126.34200287    3.73000002    2.76999998
   18.90916634  111.18099976    4.71999979    2.75000000
   18.91250038  125.81400299    4.90999985    2.76999998
   18.91860962  125.81400299    4.90999985    2.73000002
   18.92277718  123.38800049    4.90999985    2.67000008
   18.92583275  127.13600159    4.90999985    2.69000006
   18.92916679  123.83100128    4.90999985    2.73000002
   18.93249893  123.19899750    4.90999985    2.75000000
   18.93555450  120.40499878    4.90999985    2.78999996
   18.93888855  127.61399841    3.73000002    2.76999998
   18.94222069  118.69200134    3.26999998    2.76999998
   18.94527626  121.32599640    4.26000023    2.71000004
   18.94861031  136.92500305    4.90999985    2.61999989
   18.95166779  126.48799896    4.90999985    2.48000002
   18.95499992  125.29499817    4.90999985    2.73000002
   18.95583344  123.60500336    4.90999985    2.73000002
   18.96138954  123.60500336    4.65999985    2.73000002
   18.96555710  118.45999908    2.93000007    2.76999998
   18.96888924  153.63299561    2.80999994    2.78999996
   18.97194481  127.38300323    2.30999994    2.78999996
   18.97527885  131.90499878    4.44999981    2.75000000
   18.97861099  132.54699707    4.69999981    2.75000000
   18.98194504  135.07299805    4.90999985    2.71000004
   18.98500061  127.50700378    4.88999987    2.73000002
   18.98833275  123.65200043    2.86999989    2.76999998
   18.98916626  126.09100342    2.67000008    2.78999996
   18.99194527  129.14500427    2.11999989    2.78999996
   18.99500084  127.41400146    1.98000002    2.78999996
   18.99833298  124.49900055    1.78999996    2.78999996
   19.00416756  124.49900055    2.86999989    2.76999998
   19.00833321  129.68899536    2.84999990    2.78999996
   19.01166725  124.59700012    2.55999994    2.78999996
   19.01499939  130.79400635    2.32999992    2.78999996
   19.01805496  128.33500671    2.39000010    2.78999996
   19.02138901  128.37100220    2.46000004    2.78999996
   19.02249908  121.27400208    2.91000009    2.76999998
   19.02499962  121.34100342    2.44000006    2.76999998
   19.02805519  120.83000183    2.64000010    2.78999996
   19.03138924  126.24299622    4.11999989    2.73000002
   19.03444481  123.00700378    4.84999990    2.73000002
   19.03777695  121.28800201    3.95000005    2.76999998
   19.04111099  126.36399841    3.26999998    2.78999996
   19.04722214  126.36399841    1.85000002    2.78999996
   19.05138779  120.33000183    3.25000000    2.69000006
   19.05444336  127.15899658    3.32999992    2.78999996
   19.05583191  131.45899963    2.59999990    2.78999996
   19.05833244  130.95799255    1.61000001    2.78999996
   19.06138802  129.05999756    1.28999996    2.78999996
   19.06472206  130.87199402    1.07000005    2.78999996
   19.06805611  134.21000671    1.03999996    2.78999996
   19.07111168  133.15400696    1.46000004    2.80999994
   19.07444572  128.07699585    1.53999996    2.78999996
   19.07750130  135.33099365    1.39999998    2.78999996
   19.08083344  134.92300415    2.11999989    2.78999996
   19.08416748  136.97200012    4.28999996    2.71000004
   19.09000015  136.97200012    4.90999985    2.73000002
   19.09416771  136.17999268    4.90999985    2.71000004
   19.09722328  125.14099884    4.21999979    2.76999998
   19.10055542  126.67400360    4.15999985    2.73000002
   19.10388947  129.20700073    4.90999985    2.75000000
   19.10694504  130.21699524    4.90999985    2.59999990
   19.11027908  132.62600708    4.90999985    2.66000009
   19.11361122  134.32299805    4.90999985    2.64000010
   19.11666679  123.11199951    4.90999985    2.71000004
   19.12000084  137.71499634    4.90999985    2.69000006
   19.12249947  128.38699341    4.90999985    2.55999994
   19.14305496  128.38699341    0.95999998    2.78999996
   19.14722252  121.00299835    1.14999998    2.78999996
   19.15055466  122.20099640    2.28999996    2.78999996
   19.15361023  126.72000122    3.14000010    2.75000000
   19.15583229  133.11000061    3.70000005    2.76999998
   19.15749931  132.13499451    4.90999985    2.71000004
   19.16083336  135.94000244    4.90999985    2.67000008
   19.16388893  129.51899719    4.90999985    2.75000000
   19.16722107  121.60800171    1.88000000    2.76999998
   19.17027664  129.23599243    1.46000004    2.78999996
   19.17361069  125.94300079    1.69000006    2.78999996
   19.17694473  127.75800323    2.71000004    2.71000004
   19.18000031  128.69900513    2.53999996    2.78999996
   19.18583298  128.69900513    1.19000006    2.78999996
   19.18999863  126.03099823    1.71000004    2.76999998
   19.19333267  128.01600647    2.26999998    2.78999996
   19.19638824  127.73000336    4.90999985    2.64000010
   19.19972038  128.37399292    4.90999985    2.71000004
   19.20277786  126.28900146    3.39000010    2.71000004
   19.20611191  127.49800110    2.50000000    2.76999998
   19.20944595  127.57299805    1.60000002    2.78999996
   19.21250153  125.19999695    1.53999996    2.78999996
   19.21583366  123.88700104    1.50000000    2.78999996
   19.21916771  115.57299805    1.66999996    2.78999996
   19.22222328  134.58599854    2.23000002    2.78999996
   19.22277832  126.88899994    2.23000002    2.78999996
   19.22861099  126.88899994    3.72000003    2.73000002
   19.23277855  124.43199921    3.53999996    2.75000000
   19.23611069  128.77600098    3.26999998    2.78999996
   19.23916626  157.38200378    4.90999985    2.75000000
   19.24250031  142.51199341    4.90999985    2.48000002
   19.24583435  146.28999329    4.90999985    2.46000004
   19.24888992  137.77699280    4.90999985    2.50000000
   19.25222206  145.67599487    4.90999985    2.51999998
   19.25555611  141.66999817    4.90999985    2.46000004
   19.25611115  134.30400085    4.90999985    2.46000004
   19.25916672  126.13700104    4.90999985    2.71000004
   19.26222229  134.38900757    4.90999985    2.73000002
   19.26555634  127.04599762    4.90999985    2.66000009
   19.27166557  127.04599762    4.90999985    2.59999990
   19.27555466  140.03500366    4.90999985    2.30999994
   19.27888870  132.92199707    4.90999985    2.61999989
   19.28222275  120.52100372    4.53000021    2.73000002
   19.28527641  132.79400635    2.86999989    2.75000000
   19.28861046  126.97699738    1.94000006    2.76999998
   19.28944397  123.37500000    1.78999996    2.78999996
   19.29222107  127.40200043    2.13000011    2.76999998
   19.29527664  125.54399872    3.36999989    2.76999998
   19.29861069  125.98300171    2.89000010    2.76999998
   19.30166626  120.09600067    2.61999989    2.75000000
   19.30499840  120.53600311    4.90999985    2.66000009
   19.30833244  116.72200012    4.90999985    2.73000002
   19.31444359  116.72200012    4.61999989    2.78999996
   19.31861115  146.75000000    4.90999985    2.26999998
   19.32166672  143.92300415    4.90999985    2.26999998
   19.32277870  148.54899597    4.90999985    2.26999998
   19.32555580  128.99000549    4.90999985    2.28999996
   19.32861137  123.93399811    4.67999983    2.78999996
   19.33194542  129.11500549    4.90999985    2.75000000
   19.33527756  131.92999268    4.90999985    2.69000006
   19.33833313  129.00700378    4.90999985    2.64000010
   19.34166718  126.79499817    3.66000009    2.76999998
   19.34472275  128.39500427    2.78999996    2.78999996
   19.34805679  134.81700134    4.90999985    2.61999989
   19.35138893  134.26499939    4.90999985    2.64000010
   19.35722351  134.26499939    4.90999985    2.64000010
   19.36138916  137.98199463    4.90999985    2.53999996
   19.36472321  128.85400391    4.90999985    2.59999990
   19.36777878  137.88400269    4.90999985    2.67000008
   19.37111092  156.39300537    4.90999985    2.40000010
   19.37416649  133.90499878    4.90999985    1.98000002
   19.37750053  223.76300049    4.90999985    1.71000004
   19.38083267  156.69200134    4.90999985    2.03999996
   19.38388824  141.58299255    4.90999985    2.23000002
   19.38722229  129.52799988    4.90999985    2.59999990
   19.38944435  133.76600647    4.86999989    2.67000008
   19.39083290  127.75299835    4.11999989    2.67000008
   19.39388847  127.02600098    3.25000000    2.73000002
   19.39999962  127.02600098    4.90999985    2.75000000
   19.40416718  141.38299561    4.90999985    2.53999996
   19.40749931   21.19779968    4.90999985    2.48000002
   19.41055489   -1.00000000    4.90999985    1.63000000
   19.41388893   -1.00000000    4.90999985    1.16999996
   19.41722107   -1.00000000    4.90999985    1.58000004
   19.42027664  142.91000366    4.90999985    1.76999998
   19.42277718  127.60199738    4.90999985    2.64000010
   19.42416573  125.45899963    4.90999985    2.75000000
   19.42722130  135.98399353    3.76999998    2.64000010
   19.43055534  131.01899719    4.78000021    2.71000004
   19.43388748  124.94599915    4.90999985    2.57999992
   19.43694305  131.49699402    4.90999985    2.59999990
   19.44305420  131.49699402    2.42000008    2.75000000
   19.44694328  129.12199402    3.55999994    2.73000002
   19.45027924  129.81300354    4.23999977    2.69000006
   19.45361137  126.69499969    3.82999992    2.75000000
   19.45611191  130.61500549    3.78999996    2.66000009
   19.45722389  127.25299835    4.48999977    2.61999989
   19.46027946  123.43599701    4.46999979    2.69000006
   19.46361160  137.06700134    4.90999985    2.75000000
   19.46694565  149.44099426    4.90999985    2.61999989
   19.47000122  158.46000671    4.90999985    2.34999990
   19.47333336  166.78999329    4.90999985    2.25000000
   19.47638893  138.26199341    4.90999985    2.40000010
   19.47972298  132.10600281    4.90999985    2.55999994
   19.48583412  132.10600281    4.90999985    2.23000002
   19.48999977  131.24200439    4.90999985    2.53999996
   19.49305534  128.12199402    4.90999985    2.64000010
   19.49638939  127.40799713    3.20000005    2.73000002
   19.49972153  123.25499725    1.85000002    2.73000002
   19.50277710  122.20300293    1.94000006    2.75000000
   19.50611115  131.57000732    2.00000000    2.76999998
   19.50916672  150.17900085    4.90999985    2.57999992
   19.51250076  207.70599365    4.90999985    1.71000004
   19.51583290  139.32200623    4.90999985    2.34999990
   19.51888847  129.72399902    4.90999985    2.59999990
   19.52222252   -1.00000000    4.90999985    2.55999994
   19.52861023   -1.00000000    4.90999985    1.36000001
   19.53277779  145.41499329    4.90999985    1.55999994
   19.53610992  145.09899902    4.90999985    2.42000008
   19.53916550  132.28799438    4.90999985    2.36999989
   19.54249954   -1.00000000   -1.00000000   -1.00000000
   19.54555511   -1.00000000    4.90999985    1.25000000
   19.54888916  157.07800293    4.90999985    1.19000006
   19.55222130   -1.00000000    4.90999985    1.58000004
   19.55527687   -1.00000000    4.90999985    1.63000000
   19.55888748  181.76600647    4.90999985    1.78999996
   19.56194305  134.08399963    4.90999985    2.61999989
   19.56527710  132.28300476    4.90999985    2.66000009
   19.57139015  132.28300476    2.69000006    2.75000000
   19.57555580  127.34799957    2.40000010    2.75000000
   19.57888985  126.08000183    1.83000004    2.75000000
   19.58194542  128.13099670    1.64999998    2.73000002
   19.58527756  122.50599670    1.33000004    2.76999998
   19.58861160  119.73200226    1.09000003    2.76999998
   19.58944511  125.03900146    1.09000003    2.76999998
   19.59222221  151.21800232    1.07000005    2.76999998
   19.59527779   -1.00000000    4.90999985    2.64000010
   19.59861183  173.05700684    4.90999985    1.53999996
   19.60194397  181.60000610    4.90999985    2.21000004
   19.60499954  140.40100098    4.90999985    2.25000000
   19.60833359  127.94499969    4.90999985    2.71000004
   19.61444473  127.94499969    2.50000000    2.75000000
   19.61833382  126.44799805    4.90999985    2.73000002
   19.62166595  164.43400574    4.90999985    2.66000009
   19.62277794  135.75000000    4.90999985    2.40000010
   19.62527847  155.87899780    4.90999985    2.57999992
   19.62833405  144.55700684    4.90999985    2.17000008
   19.63166618  130.47399902    4.90999985    2.53999996
   19.63500023  131.15600586    4.90999985    2.69000006
   19.63805580  132.14399719    4.61999989    2.73000002
   19.64138794  130.41200256    3.76999998    2.73000002
   19.64472198  129.60800171    3.50000000    2.75000000
   19.64777756  128.98300171    3.11999989    2.75000000
   19.65111160  124.67199707    3.16000009    2.75000000
   19.65722275  124.67199707    3.50000000    2.73000002
   19.66138840  129.52000427    3.43000007    2.73000002
   19.66444397  130.46800232    4.46999979    2.73000002
   19.66777802  130.84399414    4.90999985    2.71000004
   19.67111015  129.35899353    4.90999985    2.67000008
   19.67416573  130.13900757    4.90999985    2.51999998
   19.67749977  147.56199646    4.90999985    2.55999994
   19.68055534  130.21499634    4.90999985    2.59999990
   19.68388748  128.47700500    4.90999985    2.76999998
   19.68722153  121.70700073    4.90999985    2.76999998
   19.68944359  123.55500031    4.90999985    2.82999992
   19.69083214  121.77899933    4.90999985    2.78999996
   19.69388771  126.66600037    4.90999985    2.76999998
   19.70000076  126.66600037    4.90999985    2.64000010
   19.70416832  127.77799988    4.90999985    2.71000004
   19.70750046  146.49200439    4.90999985    2.59999990
   19.71055603  151.90899658    4.90999985    2.13000011
   19.71389008  133.14399719    4.90999985    2.53999996
   19.71694565  228.66099548    4.90999985    1.88000000
   19.72027779  139.50500488    4.90999985    2.03999996
   19.72277832  134.77000427    4.90999985    2.61999989
   19.72389030  135.78700256    4.90999985    2.64000010
   19.72694588  134.86500549    4.90999985    2.48000002
   19.73027802  217.59800720    4.90999985    2.51999998
   19.73361206   -1.00000000    4.90999985    1.78999996
   19.73666763   -1.00000000    4.90999985    1.86000001
   19.74277878   -1.00000000    4.90999985    2.17000008
   19.74694443  132.19500732    4.90999985    2.59999990
   19.75027847  128.36599731    4.90999985    2.73000002
   19.75361061  123.80699921    3.30999994    2.75000000
   19.75611115  121.72599792    2.21000004    2.73000002
   19.75722313  118.34400177    2.19000006    2.73000002
   19.76027870  114.36900330    2.76999998    2.73000002
   19.76361084  116.00000000    4.90999985    2.71000004
   19.76694489  121.53700256    4.90999985    2.66000009
   19.77000046  124.81900024    4.90999985    2.61999989
   19.77333260  126.00199890    4.90999985    2.67000008
   19.77666664  124.38700104    4.90999985    2.71000004
   19.77972221  124.29000092    4.90999985    2.73000002
   19.78583336  124.29000092    4.90999985    2.64000010
   19.78972244  199.28799438    4.90999985    1.88000000
   19.79305458  164.90400696    4.90999985    2.09999990
   19.79638863  155.63600159    4.90999985    1.64999998
   19.79944420   47.78179932    4.90999985    2.07999992
   19.80277634  103.93099976    4.90999985    1.73000002
   19.80611038  172.10400391    4.90999985    2.21000004
   19.80916595  210.70899963    4.90999985    2.40000010
   19.81250000   -1.00000000    4.90999985    2.03999996
   19.81555557  152.61500549    4.90999985    0.70999998
   19.81888962  154.16999817    4.90999985    2.55999994
   19.82222366  131.52400208    4.90999985    2.73000002
   19.82277870  133.60299683    4.90999985    2.73000002
   19.82861137  133.60299683    1.94000006    2.73000002
   19.83277893  129.22500610    2.05999994    2.71000004
   19.83583450  124.84999847    1.44000006    2.73000002
   19.83916664  124.54000092    1.64999998    2.75000000
   19.84250069  124.12400055    1.85000002    2.73000002
   19.84555626  122.94499969    3.39000010    2.71000004
   19.84889030  162.06399536    4.90999985    2.75000000
   19.99222183  125.04499817    4.90999985    2.61999989
   19.99555588  120.48300171    4.90999985    2.64000010
   19.99888992  120.15399933    4.90999985    2.71000004
   20.00194359  122.22799683    2.53999996    2.71000004
   20.00527763  118.84700012    2.55999994    2.71000004
   20.00861168  122.30799866    2.67000008    2.71000004
   20.01277733  122.30799866    3.80999994    2.67000008
   20.01666641  121.15499878    2.71000004    2.71000004
   20.02000046  120.97399902    2.15000010    2.71000004
   20.02333260  124.66600037    2.50000000    2.71000004
   20.02555466  121.12500000    3.26999998    2.69000006
   20.02694511  124.45099640    3.78999996    2.69000006
   20.03027725  124.31800079    4.90999985    2.53999996
   20.03333282  125.52500153    4.90999985    2.61999989
   20.03666687  128.86399841    4.90999985    2.46000004
   20.03999901  134.41299438    4.90999985    2.44000006
   20.04305458  132.68800354    4.90999985    2.42000008
   20.04638863  123.36499786    4.90999985    2.44000006
   20.04944420  135.87600708    4.90999985    2.42000008
   20.05555534  135.87600708    4.90999985    2.36999989
   20.05972099  142.19299316    4.90999985    2.01999998
   20.06277657  127.07399750    4.90999985    2.46000004
   20.06611061  152.24600220    4.90999985    2.46000004
   20.06944466  133.65100098    4.90999985    2.42000008
   20.07250023  132.56799316    4.90999985    2.32999992
   20.07583427  138.28700256    4.90999985    2.50000000
   20.07888985  140.91400146    4.90999985    2.44000006
   20.08222389  152.22799683    4.90999985    2.13000011
   20.08555603  154.28100586    4.90999985    2.05999994
   20.08861160  130.39199829    4.90999985    2.42000008
   20.09194565  128.02499390    4.90999985    2.53999996
   20.09250069  127.31999969    4.90999985    2.59999990
   20.09833336  127.31999969    4.90999985    2.55999994
   20.10250092  150.60800171    4.90999985    2.36999989
   20.10583305  160.92599487    4.90999985    2.30999994
   20.10888863  226.13699341    4.90999985    2.19000006
   20.11222267  182.93699646    4.90999985    2.00000000
   20.11527824  150.75300598    4.90999985    2.17000008
   20.11861038  159.40299988    4.90999985    2.36999989
   20.12194443  133.10499573    4.90999985    2.36999989
   20.12500000  253.03100586    4.90999985    2.55999994
   20.12583351   79.75289917    4.90999985    2.39000010
   20.12861061   -1.00000000    4.90999985    0.38000000
   20.13194466   -1.00000000    4.90999985    1.76999998
   20.13527679   -1.00000000    4.90999985    0.75000000
   20.14111137   -1.00000000    4.90999985    1.11000001
   20.14527702   -1.00000000    4.90999985    1.39999998
   20.14861107  361.50698853    4.90999985    1.48000002
   20.15166664  135.38600159    4.90999985    2.53999996
   20.15499878  119.09799957    4.90999985    2.67000008
   20.15833282  124.26200104    4.38999987    2.64000010
   20.15916634  124.66500092    4.05999994    2.64000010
   20.16166687  130.16400146    3.36999989    2.66000009
   20.16499901  124.76000214    3.25000000    2.67000008
   20.16833305  127.21399689    4.90999985    2.71000004
   20.17138863  107.26200104    4.90999985    2.64000010
   20.17472076   -1.00000000    4.90999985    1.48000002
   20.17805481   -1.00000000    4.90999985    1.66999996
   20.18805504   -1.00000000    4.90999985    1.13000000
   20.19138718   -1.00000000    4.90999985    0.28000000
   20.19472122   -1.00000000    4.90999985    0.28000000
   20.19805527   -1.00000000    4.90999985    0.23000000
   20.20111275   -1.00000000    4.90999985    0.30000001
   20.20444489   -1.00000000    4.90999985    0.13000000
   20.20777893   -1.00000000    4.90999985    0.07000000
   20.21083450   -1.00000000    4.90999985    0.15000001
   20.21416664   -1.00000000    4.90999985    0.15000001
   20.21750069   -1.00000000    4.90999985    0.28000000
   20.22055626   -1.00000000    4.90999985    0.79000002
   20.22694588   -1.00000000    4.90999985    1.76999998
   20.23111153  152.43899536    4.90999985    1.85000002
   20.23416710  141.07200623    4.90999985    2.57999992
   20.23750114  129.69999695    4.90999985    2.57999992
   20.24083328  125.78500366    4.90999985    2.66000009
   20.24388885  138.42399597    4.05999994    2.55999994
   20.24722290  127.24500275    3.50000000    2.67000008
   20.25027847  127.98200226    1.46000004    2.69000006
   20.25361061  125.84999847    1.28999996    2.69000006
   20.25694466  126.73799896    1.13000000    2.69000006
   20.25916672  123.33100128    1.11000001    2.69000006
   20.26027870  129.06599426    1.13000000    2.69000006
   20.26361084  123.75800323    2.69000006    2.69000006
   20.26972198  123.75800323    4.90999985    2.69000006
   20.27388954  165.61900330    4.90999985    2.32999992
   20.27722168  280.39199829    4.90999985    2.21000004
   20.28027725  152.94700623    4.90999985    1.78999996
   20.28361130   -1.00000000    4.90999985    1.96000004
   20.28666687   -1.00000000    4.90999985    1.07000005
   20.28999901   -1.00000000    4.90999985    1.26999998
   20.29361153   -1.00000000    4.90999985    1.01999998
   20.29694366   -1.00000000    4.90999985    0.50000000
   20.29999924   -1.00000000    4.90999985    0.44000000
   20.30333328   -1.00000000    4.90999985    0.28000000
   20.30666542   -1.00000000    4.90999985    0.40000001
   20.31666756   -1.00000000    4.90999985    0.36000001
   20.32000160   -1.00000000    4.90999985    0.41999999
   20.32305717   -1.00000000    4.90999985    0.20999999
   20.32666779   -1.00000000    4.90999985    0.07000000
   20.33000183   -1.00000000    4.90999985    0.07000000
   20.33333397   -1.00000000    4.90999985    0.09000000
   20.33638954   -1.00000000    4.90999985    0.15000001
   20.33972359   -1.00000000    4.90999985    0.20999999
   20.34277916   -1.00000000    4.90999985    0.17000000
   20.34611130   -1.00000000    4.90999985    0.30000001
   20.34944534   -1.00000000    4.90999985    0.40000001
   20.35944557   -1.00000000    4.90999985    0.69000000
   20.36277771   -1.00000000    4.90999985    1.14999998
   20.36611176   -1.00000000    4.90999985    0.76999998
   20.36916733  283.97198486    4.90999985    1.19000006
   20.37249947  149.42399597    4.90999985    2.28999996
   20.37555504  142.56100464    4.90999985    2.34999990
   20.37888908  142.60899353    4.90999985    2.42000008
   20.38222313  131.67500305    4.90999985    2.48000002
   20.38527679  133.42199707    4.90999985    2.50000000
   20.38861084  134.80299377    4.90999985    2.53999996
   20.39194489  129.22900391    4.90999985    2.59999990
   20.39249992  131.61199951    4.90999985    2.59999990
   20.39833260  131.61199951    4.90999985    1.86000001
   20.40250015  209.97099304    4.90999985    1.66999996
   20.40555573  209.91999817    4.90999985    2.01999998
   20.40888786  160.01499939    4.90999985    2.13000011
   20.41222191  148.37199402    4.90999985    2.36999989
   20.41527748  124.50499725    4.90999985    2.40000010
   20.41860962  240.38299561    4.90999985    2.25000000
   20.42166519   -1.00000000    4.90999985    1.16999996
   20.42499924   -1.00000000    4.90999985    0.69000000
   20.42833328   -1.00000000    4.90999985    0.36000001
   20.43166542   -1.00000000    4.90999985    0.30000001
   20.43499947   -1.00000000    4.90999985    0.30000001
   20.44527626   -1.00000000    4.90999985    0.69000000
   20.44833183   -1.00000000    4.90999985    0.89999998
   20.45166779   -1.00000000    4.90999985    1.13000000
   20.45499992   -1.00000000    4.90999985    1.33000004
   20.45805550   -1.00000000    4.90999985    1.28999996
   20.46166801   -1.00000000    4.90999985    1.48000002
   20.46500015   -1.00000000    4.90999985    1.36000001
   20.46833420   -1.00000000    4.90999985    1.26999998
   20.47138977   80.93399811    4.90999985    1.26999998
   20.47472191  264.67898560    4.90999985    1.64999998
   20.47777748  248.22900391    4.90999985    1.86000001
   20.48388863  248.22900391    4.90999985    1.89999998
   20.48805618  160.94200134    4.90999985    2.21000004
   20.49138832  152.45599365    4.90999985    2.32999992
   20.49250031  166.81799316    4.90999985    2.28999996
   20.49500084  142.77600098    4.90999985    2.28999996
   20.49805641  144.16499329    4.90999985    2.40000010
   20.50138855  143.33700562    4.90999985    2.46000004
   20.50444412  137.22200012    4.90999985    2.53999996
   20.50777817  128.16000366    4.90999985    2.61999989
   20.51111031  122.43699646    3.61999989    2.61999989
   20.51416588  129.60800171    2.96000004    2.64000010
   20.51749992  125.18299866    2.84999990    2.64000010
   20.52083397  123.48799896    2.66000009    2.64000010
   20.52694511  123.48799896    2.42000008    2.64000010
   20.53083229  117.40899658    2.26999998    2.66000009
   20.53416634  125.68599701    3.97000003    2.66000009
   20.53750038  126.65799713    4.90999985    2.67000008
   20.54055595  212.76899719    4.90999985    2.71000004
   20.54388809  133.75199890    4.90999985    2.09999990
   20.54722214  151.62300110    4.90999985    2.21000004
   20.55027771   -1.00000000    4.90999985    2.23000002
   20.55360985  164.81399536    4.90999985    1.61000001
   20.55666542  182.09899902    4.90999985    2.40000010
   20.55916595  133.68200684    4.90999985    2.19000006
   20.56055450  160.69999695    4.90999985    2.25000000
   20.56361008  135.33700562    4.90999985    2.40000010
   20.56972313  135.33700562    4.90999985    2.36999989
   20.57389069   -1.00000000    4.90999985    1.60000002
   20.57694626   -1.00000000    4.90999985    1.11000001
   20.58027840   -1.00000000    4.90999985    1.01999998
   20.58361244   -1.00000000    4.90999985    0.50000000
   20.58666801   -1.00000000    4.90999985    0.25999999
   20.59000015   -1.00000000    4.90999985    0.58999997
   20.59333420   -1.00000000    4.90999985    0.83999997
   20.59666824   -1.00000000    4.90999985    0.63000000
   20.60000038   -1.00000000    4.90999985    0.25000000
   20.60305595   -1.00000000    4.90999985    0.34000000
   20.60639000   -1.00000000    4.90999985    0.50000000
   20.61250114   -1.00000000    4.90999985    1.26999998
   20.61666679  155.75900269    4.90999985    2.17000008
   20.62000084  143.19099426    4.90999985    2.21000004
   20.62305641  135.85800171    4.90999985    2.34999990
   20.62583351  135.00399780    4.90999985    2.44000006
   20.62694550  139.00100708    4.90999985    2.42000008
   20.63000107  134.69299316    4.90999985    2.40000010
   20.63333321  132.24099731    4.90999985    2.50000000
   20.63638878  123.12799835    4.90999985    2.55999994
   20.63972282  162.24400330    4.90999985    2.28999996
   20.64305496  164.78999329    4.90999985    2.25000000
   20.64611053   -1.00000000    4.90999985    1.23000002
   20.64944458   -1.00000000    4.90999985    0.55000001
   20.65944481   -1.00000000    4.90999985    0.19000000
   20.66277695   -1.00000000    4.90999985    0.46000001
   20.66583252   -1.00000000    4.90999985    0.89999998
   20.66916656   -1.00000000    4.90999985    0.88000000
   20.67249870  120.79299927    4.90999985    1.48000002
   20.67555428  277.75299072    4.90999985    1.66999996
   20.67888832  143.93699646    4.90999985    2.15000010
   20.68194389  130.34899902    4.90999985    2.50000000
   20.68527603  132.50399780    4.90999985    2.57999992
   20.68861008   -1.00000000    4.90999985    2.07999992
   20.69166565   -1.00000000    4.90999985    1.03999996
   20.70222282   -1.00000000    4.90999985    0.86000001
   20.70555687   -1.00000000    4.90999985    0.79000002
   20.70888901   -1.00000000    4.90999985    0.79000002
   20.71194458   -1.00000000    4.90999985    0.83999997
   20.71527863   -1.00000000    4.90999985    1.03999996
   20.71861076   -1.00000000    4.90999985    0.69000000
   20.72166634   -1.00000000    4.90999985    0.50000000
   20.72500038   -1.00000000    4.90999985    0.46000001
   20.72861099   -1.00000000    4.90999985    0.36000001
   20.73166656   -1.00000000    4.90999985    0.52999997
   20.73500061   -1.00000000    4.90999985    0.79000002
   20.74111176   -1.00000000    4.90999985    1.28999996
   20.74527740  160.48800659    4.90999985    2.23000002
   20.74833298  146.00500488    4.90999985    2.36999989
   20.75166702  135.38200378    4.90999985    2.50000000
   20.75499916  125.58499908    4.90999985    2.53999996
   20.75805473  126.85199738    4.90999985    2.57999992
   20.75916672  131.99699402    4.90999985    2.55999994
   20.76166725  185.55000305    4.90999985    2.55999994
   20.76472282   -1.00000000    4.90999985    1.60000002
   20.76805496   -1.00000000    4.90999985    0.75000000
   20.77138901   -1.00000000    4.90999985    0.63000000
   20.77444458   -1.00000000    4.90999985    0.58999997
   20.77777672   -1.00000000    4.90999985    0.25999999
