    HOUR (UT)   FLARE FACTOR    SKY TESTER    SUN TESTER
   11.39222240   -1.00000000   -1.00000000   -1.00000000
   11.41444397  343.18899536    4.90999985    1.51999998
   11.41888905  376.35501099    4.90999985    1.53999996
   11.42277813  364.42700195    4.90999985    1.53999996
   11.42694473  346.91900635    4.90999985    1.53999996
   11.43027782  333.77700806    4.90999985    1.55999994
   11.43472195  337.70098877    4.90999985    1.55999994
   11.43777752  309.19799805    4.90999985    1.55999994
   11.44111156  303.15499878    4.90999985    1.58000004
   11.44416714  335.14401245    4.90999985    1.58000004
   11.44750023  305.20098877    4.90999985    1.60000002
   11.44805527  296.52999878    4.90999985    1.60000002
   11.45138836  309.78399658    4.90999985    1.58000004
   11.45444393  307.30801392    4.90999985    1.60000002
   11.45777798  303.40499878    4.90999985    1.60000002
   11.46111107  295.32901001    4.90999985    1.60000002
   11.46416664  288.04098511    4.90999985    1.61000001
   11.46749973  308.13598633    4.90999985    1.61000001
   11.47055531  287.54598999    4.90999985    1.61000001
   11.47388840  250.83700562    4.90999985    1.61000001
   11.47722149  269.46899414    4.90999985    1.61000001
   11.48027706  280.83999634    4.90999985    1.63000000
   11.48138809  267.57501221    4.90999985    1.63000000
   11.48416710  249.22300720    4.90999985    1.63000000
   11.48722267  263.37399292    4.90999985    1.63000000
   11.49055576  248.14399719    4.90999985    1.63000000
   11.49388885  259.22198486    4.90999985    1.63000000
   11.49694443  260.49398804    4.90999985    1.64999998
   11.50027752  247.97300720    4.90999985    1.64999998
   11.50361156  263.47299194    4.90999985    1.64999998
   11.50666714  261.12799072    4.90999985    1.66999996
   11.51000023  246.86300659    4.90999985    1.66999996
   11.51305580  254.03500366    4.90999985    1.66999996
   11.51472187  281.62701416    4.90999985    1.66999996
   11.51694393  243.83799744    4.90999985    1.69000006
   11.51999950  257.02899170    4.90999985    1.69000006
   11.52333355  242.97399902    4.90999985    1.69000006
   11.52666664  235.47999573    4.90999985    1.69000006
   11.52972221  230.03399658    4.90999985    1.69000006
   11.53305531  200.35200500    4.90999985    1.71000004
   11.53638935  233.98599243    4.90999985    1.69000006
   11.53944492  242.09399414    4.90999985    1.71000004
   11.54277802  221.56500244    4.90999985    1.71000004
   11.54583359  220.18699646    4.90999985    1.71000004
   11.54805565  221.88600159    4.90999985    1.71000004
   11.54972267  219.08900452    4.90999985    1.71000004
   11.55277824  211.74000549    4.90999985    1.73000002
   11.55611134  215.47900391    4.90999985    1.73000002
   11.55944443  227.29800415    4.90999985    1.73000002
   11.56250000  200.63900757    4.90999985    1.73000002
   11.56583309  218.30799866    4.90999985    1.73000002
   11.56916618  206.24800110    4.90999985    1.73000002
   11.57222176  200.60299683    4.90999985    1.75000000
   11.57555580  205.90499878    4.90999985    1.75000000
   11.57888889  215.07000732    4.90999985    1.75000000
   11.58138847  187.11399841    4.90999985    1.75000000
   11.58249950  214.13099670    4.90999985    1.75000000
   11.58555508  204.74000549    4.90999985    1.76999998
   11.58888817  209.35400391    4.90999985    1.76999998
   11.59222221  210.89900208    4.90999985    1.76999998
   11.59527779  200.22000122    4.90999985    1.76999998
   11.59861088  218.85400391    4.90999985    1.76999998
   11.60194492  205.03300476    4.90999985    1.76999998
   11.60500050  214.74899292    4.90999985    1.76999998
   11.60833359  210.17799377    4.90999985    1.76999998
   11.61138916  209.91999817    4.90999985    1.78999996
   11.61472225  211.38499451    4.90999985    1.78999996
   11.61527824  192.00799561    4.90999985    1.78999996
   11.61833382  182.28900146    4.90999985    1.78999996
   11.62166691  199.89700317    4.90999985    1.78999996
   11.62500000  209.34100342    4.90999985    1.80999994
   11.62805557  192.78900146    4.90999985    1.80999994
   11.63138866  207.61599731    4.90999985    1.80999994
   11.63472176  206.22799683    4.90999985    1.80999994
   11.63777733  201.94999695    4.90999985    1.83000004
   11.64111137  204.35499573    4.90999985    1.83000004
   11.64416695  203.92900085    4.90999985    1.83000004
   11.64750004  207.25000000    4.90999985    1.83000004
   11.64805508  191.66799927    4.90999985    1.83000004
   11.65111065  201.46899414    4.90999985    1.85000002
   11.65416622  178.58099365    4.90999985    1.85000002
   11.65749931  191.64399719    4.90999985    1.85000002
   11.66083336  200.23399353    4.90999985    1.85000002
   11.66416645  192.50000000    4.90999985    1.85000002
   11.66722298  195.73699951    4.90999985    1.85000002
   11.67055607  205.70599365    4.90999985    1.86000001
   11.67361164  209.68200684    4.90999985    1.86000001
   11.67694473  181.73800659    4.90999985    1.86000001
   11.68027782  190.22999573    4.90999985    1.86000001
   11.68138885  180.37199402    4.90999985    1.86000001
   11.68388939  193.24400330    4.90999985    1.86000001
   11.68694496  190.03700256    4.90999985    1.88000000
   11.69027805  196.78799438    4.90999985    1.88000000
   11.69361115  186.93200684    4.90999985    1.88000000
   11.69666672  179.76499939    4.90999985    1.88000000
   11.69999981  189.85499573    4.90999985    1.88000000
   11.70333290  175.19400024    4.90999985    1.88000000
   11.70638847  179.66000366    4.90999985    1.88000000
   11.70972157  188.75100708    4.90999985    1.89999998
   11.71277714  170.16499329    4.90999985    1.89999998
   11.71472168  177.54600525    4.90999985    1.89999998
   11.71666622  174.78399658    4.90999985    1.89999998
   11.71972179  165.79100037    4.90999985    1.89999998
   11.72305489  183.04100037    4.90999985    1.89999998
   11.72638798  184.71200562    4.90999985    1.91999996
   11.72944355  170.18899536    4.90999985    1.91999996
   11.73277760  178.73899841    4.90999985    1.91999996
   11.73611164  167.47000122    4.90999985    1.94000006
   11.73916721  170.80999756    4.90999985    1.91999996
   11.74250031  165.55299377    4.90999985    1.91999996
   11.74583340  166.59700012    4.90999985    1.94000006
   11.74805546  162.98599243    4.90999985    1.94000006
   11.74944496  158.01199341    4.90999985    1.91999996
   11.75249958  165.97900391    4.90999985    1.94000006
   11.75583363  166.92199707    4.90999985    1.94000006
   11.75916672  176.14300537    4.90999985    1.94000006
   11.76222229  174.82000732    4.90999985    1.94000006
   11.76555538  177.98800659    4.90999985    1.94000006
   11.76888847  175.68800354    4.90999985    1.96000004
   11.77194405  176.53900146    4.90999985    1.96000004
   11.77527714  174.44900513    4.90999985    1.96000004
   11.77833271  166.54499817    4.90999985    1.96000004
   11.78138828  130.16900635    4.90999985    1.96000004
   11.78222179  168.12500000    4.90999985    1.96000004
   11.78555584  166.12800598    4.90999985    1.98000002
   11.78861141  166.62300110    4.90999985    1.96000004
   11.79194450  179.18400574    4.90999985    1.96000004
   11.79500008  160.72900391    4.90999985    1.98000002
   11.79833412  161.43499756    4.90999985    1.98000002
   11.80166721  168.19799805    4.90999985    1.98000002
   11.80472279  165.00599670    4.90999985    1.98000002
   11.80805588  161.39599609    4.90999985    1.98000002
   11.81138897  166.40600586    4.90999985    1.98000002
   11.81444454  159.09700012    4.90999985    1.98000002
   11.81500053  171.84599304    4.90999985    1.98000002
   11.81833363  151.41700745    4.90999985    1.98000002
   11.82138920  160.27600098    4.90999985    2.00000000
   11.82472229  171.02900696    4.90999985    2.00000000
   11.82805538  155.37500000    4.90999985    2.00000000
   11.83138847  158.53199768    4.90999985    2.00000000
   11.83444405  153.37199402    4.90999985    2.00000000
   11.83777714  144.42500305    4.90999985    2.01999998
   11.84083271  161.10699463    4.90999985    2.01999998
   11.84416676  162.95399475    4.90999985    2.01999998
   11.84749985  157.98399353    4.90999985    2.01999998
   11.84833336  157.38699341    4.90999985    2.01999998
   11.85111141  165.67300415    4.90999985    2.01999998
   11.85416698  164.31599426    4.90999985    2.01999998
   11.85750008  160.62300110    4.90999985    2.01999998
   11.86083412  162.56199646    4.90999985    2.01999998
   11.86388969  161.50999451    4.90999985    2.01999998
   11.86722279  160.34300232    4.90999985    2.03999996
   11.87055588  162.63999939    4.90999985    2.03999996
   11.87361145  148.01300049    4.90999985    2.03999996
   11.87694454  161.77099609    4.90999985    2.05999994
   11.88000011  159.73199463    4.90999985    2.03999996
   11.88166714  152.67599487    4.90999985    2.03999996
   11.88388920  165.19599915    4.90999985    2.03999996
   11.88694477  150.30499268    4.90999985    2.03999996
   11.89027786  161.29600525    4.90999985    2.03999996
   11.89361095  167.08099365    4.90999985    2.03999996
   11.89666653  150.93099976    4.90999985    2.03999996
   11.89999962  150.42399597    4.90999985    2.03999996
   11.90333271  143.71899414    4.90999985    2.05999994
   11.90638828  155.26600647    4.90999985    2.05999994
   11.90972137  160.13800049    4.90999985    2.05999994
   11.91305542  139.76300049    4.90999985    2.05999994
   11.91499996  141.88299561    4.90999985    2.05999994
   11.91666698  169.37100220    4.90999985    2.05999994
   11.92000008  160.96499634    4.90999985    2.05999994
   11.92305565  149.53599548    4.90999985    2.05999994
   11.92638874  166.22500610    4.90999985    2.07999992
   11.92944431  153.30799866    4.90999985    2.07999992
   11.93277836  144.66200256    4.90999985    2.07999992
   11.93611145  181.23399353    4.90999985    2.07999992
   11.93916702  197.04600525    4.90999985    2.07999992
   11.94250011  146.00700378    4.90999985    2.07999992
   11.94583321  160.10800171    4.90999985    2.09999990
   11.94833374  158.08900452    4.90999985    2.09999990
   11.94944477  143.21800232    4.90999985    2.09999990
   11.95249939  181.20399475    4.90999985    2.09999990
   11.95583344  141.81599426    4.90999985    2.09999990
   11.95916653  147.53100586    4.90999985    2.09999990
   11.96222210  138.61700439    4.90999985    2.07999992
   11.96555519  146.32099915    4.90999985    2.09999990
   11.96888828  164.94200134    4.90999985    2.09999990
   11.97194386  145.30200195    4.90999985    2.09999990
   11.97527695  161.92900085    4.90999985    2.09999990
   11.97833252  148.57499695    4.90999985    2.09999990
   11.98166656  146.43899536    4.90999985    2.09999990
   11.98222160  135.20700073    4.90999985    2.09999990
   11.98527813  138.12399292    4.90999985    2.11999989
   11.98861122  139.72799683    4.90999985    2.09999990
   11.99194431  141.47300720    4.90999985    2.11999989
   11.99499989  138.89799500    4.90999985    2.11999989
   11.99833393  153.30599976    4.90999985    2.11999989
   12.00166702  142.56399536    4.90999985    2.11999989
   12.00472260  129.72000122    4.90999985    2.11999989
   12.00805569  151.82099915    4.90999985    2.11999989
   12.01138878  136.25000000    4.90999985    2.11999989
   12.01444435  140.83599854    4.90999985    2.13000011
   12.01500034  145.88400269    4.90999985    2.13000011
   12.01805496  135.96200562    4.90999985    2.13000011
   12.02111053  138.47799683    4.90999985    2.13000011
   12.02444458  138.19999695    4.90999985    2.13000011
   12.02777767  135.11199951    4.90999985    2.13000011
   12.03083324  139.80599976    4.90999985    2.13000011
   12.03416729  144.19799805    4.90999985    2.13000011
   12.03750038  135.45199585    4.90999985    2.13000011
   12.04055595  134.67900085    4.90999985    2.13000011
   12.04388905  146.74299622    4.90999985    2.13000011
   12.04694462  150.24800110    4.90999985    2.13000011
   12.04833412  157.72099304    4.90999985    2.13000011
   12.05083370  131.94999695    4.90999985    2.13000011
   12.05388927  132.96800232    4.90999985    2.13000011
   12.05722237  135.53700256    4.90999985    2.15000010
   12.06055546  146.57600403    4.90999985    2.15000010
   12.06361103  125.53399658    4.90999985    2.15000010
   12.06694412  136.73899841    4.90999985    2.15000010
   12.07027817  130.58999634    4.90999985    2.15000010
   12.07333374  134.11700439    4.90999985    2.15000010
   12.07666683  150.53900146    4.90999985    2.15000010
   12.07999992  136.08200073    4.90999985    2.15000010
   12.08166695  136.32800293    4.90999985    2.17000008
   12.08361053  129.43899536    4.90999985    2.17000008
   12.08694458  126.57199860    4.90999985    2.17000008
   12.09000015  132.21499634    4.90999985    2.17000008
   12.09333324  127.76999664    4.90999985    2.17000008
   12.09638882  133.03599548    4.90999985    2.17000008
   12.09972191  132.48599243    4.90999985    2.17000008
   12.10305595  129.66299438    4.90999985    2.17000008
   12.10611153  130.07099915    4.90999985    2.17000008
   12.10944462  132.19999695    4.90999985    2.17000008
   12.11277771  130.98699951    4.90999985    2.17000008
   12.11500072  138.00000000    4.90999985    2.17000008
   12.11638927  126.62400055    4.90999985    2.17000008
   12.11972237  133.11799622    4.90999985    2.17000008
   12.12277794  135.68600464    4.90999985    2.17000008
   12.12611103  131.50900269    4.90999985    2.17000008
   12.12916660  132.71200562    4.90999985    2.19000006
   12.13249969  130.08399963    4.90999985    2.17000008
   12.13583279  126.46199799    4.90999985    2.17000008
   12.13888836  137.49899292    4.90999985    2.17000008
   12.14222240  133.67700195    4.90999985    2.19000006
   12.14527798  129.85499573    4.90999985    2.19000006
   12.14833355  125.39900208    4.90999985    2.19000006
   12.14916611  134.75500488    4.90999985    2.19000006
   12.15222168  121.68800354    4.90999985    2.19000006
   12.15555477  121.94899750    4.90999985    2.19000006
   12.15888882  128.01600647    4.90999985    2.19000006
   12.16194439  133.52699280    4.90999985    2.21000004
   12.16527748  124.71199799    4.90999985    2.19000006
   12.16861153  124.22599792    4.90999985    2.19000006
   12.17166710  130.67100525    4.90999985    2.19000006
   12.17500019  126.67900085    4.90999985    2.19000006
   12.17805576  134.22900391    4.90999985    2.19000006
   12.18138885  136.69099426    4.90999985    2.21000004
   12.18194485  132.10600281    4.90999985    2.21000004
   12.18527794  123.95200348    4.90999985    2.21000004
   12.18833351  129.78100586    4.90999985    2.21000004
   12.19166660  123.34100342    4.90999985    2.21000004
   12.19499969  133.73399353    4.90999985    2.21000004
   12.19805527  128.15499878    4.90999985    2.23000002
   12.20138836  146.60099792    4.90999985    2.23000002
   12.20472240  129.91099548    4.90999985    2.23000002
   12.20777798  145.63600159    4.90999985    2.23000002
   12.21111107  199.60800171    4.90999985    2.21000004
   12.21416664  201.99899292    4.90999985    2.23000002
   12.21527767  210.64900208    4.90999985    2.21000004
   12.21805477  187.59300232    4.90999985    2.23000002
   12.22111034  229.38600159    4.90999985    2.23000002
   12.22444439  217.02900696    4.90999985    2.23000002
   12.22777748  167.42399597    4.90999985    2.23000002
   12.23083305  189.66900635    4.90999985    2.23000002
   12.23416710  190.43299866    4.90999985    2.23000002
   12.23750019  191.71600342    4.90999985    2.23000002
   12.24055576  215.94599915    4.90999985    2.25000000
   12.24388885  209.36099243    4.90999985    2.25000000
   12.24722290  198.00500488    4.90999985    2.23000002
   12.24861145  198.88499451    4.90999985    2.23000002
   12.25083351  181.71400452    4.90999985    2.23000002
   12.25388908  201.34100342    4.90999985    2.23000002
   12.25722218  169.64799500    4.90999985    2.23000002
   12.26055527  189.71200562    4.90999985    2.25000000
   12.26361084  188.40299988    4.90999985    2.25000000
   12.26694393  190.70899963    4.90999985    2.25000000
   12.26999950  189.31300354    4.90999985    2.25000000
   12.27333355  205.03199768    4.90999985    2.25000000
   12.27666664  218.37399292    4.90999985    2.25000000
   12.27972221  199.28700256    4.90999985    2.25000000
   12.28194427  208.37699890    4.90999985    2.25000000
   12.28361130  211.79600525    4.90999985    2.25000000
   12.28694534  181.25799561    4.90999985    2.25000000
   12.29000092  188.32800293    4.90999985    2.25000000
   12.29333401  175.24899292    4.90999985    2.25000000
   12.29638958  202.66700745    4.90999985    2.26999998
   12.29972267  158.28199768    4.90999985    2.25000000
   12.30305576  217.68400574    4.90999985    2.26999998
   12.30611134  187.32400513    4.90999985    2.26999998
   12.30944443  197.82000732    4.90999985    2.26999998
   12.31250000  174.86900330    4.90999985    2.26999998
   12.31527805  184.18400574    4.90999985    2.26999998
   12.31638908  170.75999451    4.90999985    2.26999998
   12.31972218  180.47700500    4.90999985    2.26999998
   12.32277775  173.55799866    4.90999985    2.26999998
   12.32611084  179.52600098    4.90999985    2.26999998
   12.32916641  178.04400635    4.90999985    2.26999998
   12.33249950  143.80900574    4.90999985    2.28999996
   12.33583260  122.77999878    4.90999985    2.26999998
   12.33888817  157.97300720    4.90999985    2.28999996
   12.34222221  161.20500183    4.90999985    2.26999998
   12.34527779  141.53900146    4.90999985    2.26999998
   12.34861088  169.81300354    4.90999985    2.26999998
   12.34916592  148.48899841    4.90999985    2.26999998
   12.35222244  136.30200195    4.90999985    2.26999998
   12.35555553  147.65800476    4.90999985    2.26999998
   12.35888958  150.15299988    4.90999985    2.28999996
   12.36194515  173.41700745    4.90999985    2.28999996
   12.36527824  147.03999329    4.90999985    2.28999996
   12.36861134  131.48100281    4.90999985    2.28999996
   12.37166691  127.95500183    4.90999985    2.28999996
   12.37500000  123.29199982    4.90999985    2.28999996
   12.37805557  137.20500183    4.90999985    2.30999994
   12.38138866  142.37899780    4.90999985    2.28999996
   12.38194466  145.41999817    4.90999985    2.28999996
   12.38500023  142.46800232    4.90999985    2.28999996
   12.38805580  156.01699829    4.90999985    2.28999996
   12.39138889  181.75700378    4.90999985    2.28999996
   12.40388870  128.75900269    0.00000000    0.00000000
   12.40722179  167.61900330    4.90999985    2.28999996
   12.41027737  142.17100525    4.90999985    2.30999994
   12.41361046  146.52200317    4.90999985    2.30999994
   12.41694450  128.84199524    4.90999985    2.30999994
   12.41944504  114.26399994    4.90999985    2.30999994
   12.42055607  133.07899475    4.90999985    2.28999996
   12.44027805  117.30300140    4.90999985    2.30999994
   12.45277786  130.54200745    0.00000000    0.00000000
   12.45333290  114.78500366    4.90999985    2.30999994
   12.45638847  123.46700287    4.90999985    2.32999992
   12.45944405  117.40499878    4.90999985    2.30999994
   12.46305561  110.21299744    4.90999985    2.30999994
   12.47499943  113.71399689    0.00000000    0.00000000
   12.47833252  116.91600037    4.90999985    2.32999992
   12.48138809  110.82900238    4.90999985    2.32999992
   12.48472214  120.26100159    4.90999985    2.32999992
   12.48805618  106.34400177    4.90999985    2.32999992
   12.49944496  119.97599792    4.90999985    2.32999992
   12.50055599  122.21399689    4.90999985    2.32999992
   12.50388908  112.31999969    4.90999985    2.32999992
   12.50694466  116.58699799    4.90999985    2.32999992
   12.51027775  110.56900024    4.90999985    2.32999992
   12.51361084  115.35500336    4.90999985    2.32999992
   12.51666641  108.11699677    4.90999985    2.32999992
   12.51999950  115.64099884    4.90999985    2.32999992
   12.52333355  110.25499725    4.90999985    2.32999992
   12.52388859  107.05799866    4.90999985    2.32999992
   12.52694416  110.67299652    4.90999985    2.32999992
   12.53027725  114.26899719    4.90999985    2.32999992
   12.53333378  114.17299652    4.90999985    2.32999992
   12.53666687  112.23799896    4.90999985    2.32999992
   12.54000092  106.98200226    4.90999985    2.34999990
   12.54305553  104.75000000    4.90999985    2.34999990
   12.54638958  108.63600159    4.90999985    2.34999990
   12.54944515  101.32499695    4.90999985    2.36999989
   12.55277824  112.29100037    4.90999985    2.34999990
   12.55611134  103.08699799    4.90999985    2.36999989
   12.55749989  117.12500000    4.90999985    2.34999990
   12.55972195  107.52999878    4.90999985    2.36999989
   12.56305599  107.05699921    4.90999985    2.36999989
   12.56611156  113.43299866    4.90999985    2.34999990
   12.56944466  109.48400116    4.90999985    2.34999990
   12.57277775  111.04599762    4.90999985    2.34999990
   12.57583332  106.49800110    4.90999985    2.36999989
   12.57916641  112.02300262    4.90999985    2.36999989
   12.58249950  118.23899841    4.90999985    2.34999990
   12.58555508  116.31400299    4.90999985    2.36999989
   12.58888817  115.24400330    4.90999985    2.36999989
   12.59083271  117.97499847    4.90999985    2.36999989
   12.59249973  110.98400116    4.90999985    2.36999989
   12.59583282  112.75399780    4.90999985    2.36999989
   12.59888840  112.19699860    4.90999985    2.36999989
   12.60222244  109.44999695    4.90999985    2.39000010
   12.60555553  105.16500092    4.90999985    2.36999989
   12.60861111  106.68699646    4.90999985    2.39000010
   12.61194515  109.64900208    4.90999985    2.39000010
   12.61527824  110.61399841    4.90999985    2.39000010
   12.61833382  100.01899719    4.90999985    2.39000010
   12.62166691  117.43699646    4.90999985    2.39000010
   12.62416649  102.45999908    4.90999985    2.39000010
   12.62527752  113.56400299    4.90999985    2.39000010
   12.62861156  116.83899689    4.90999985    2.39000010
   12.63194466  105.87699890    4.90999985    2.39000010
   12.63500023  109.43800354    4.90999985    2.39000010
   12.63833332  116.91600037    4.90999985    2.39000010
   12.64138889  115.94300079    4.90999985    2.39000010
   12.64472198  111.01499939    4.90999985    2.39000010
   12.64805508  110.55200195    4.90999985    2.39000010
   12.65138817  109.53399658    4.90999985    2.39000010
   12.65472221  113.77500153    4.90999985    2.40000010
   12.65805531  113.22000122    4.90999985    2.40000010
   12.65888882  106.87999725    4.90999985    2.39000010
   12.66222191  115.53900146    4.90999985    2.39000010
   12.66527748  112.69400024    4.90999985    2.40000010
   12.66861153  103.92800140    4.90999985    2.40000010
   12.67194462  106.18499756    4.90999985    2.40000010
   12.67500019  111.65299988    4.90999985    2.40000010
   12.67833328  105.57399750    4.90999985    2.40000010
   12.68166733  111.46199799    4.90999985    2.40000010
   12.68472195  109.19300079    4.90999985    2.40000010
   12.68805599  111.66400146    4.90999985    2.40000010
   12.69083309  114.60700226    4.90999985    2.40000010
   12.69166660  110.74700165    4.90999985    2.40000010
   12.69499969  107.55400085    4.90999985    2.40000010
   12.69833374  110.23799896    4.90999985    2.40000010
   12.70138836  125.05999756    4.90999985    2.40000010
   12.70472240  114.33000183    4.90999985    2.40000010
   12.70777798  116.28600311    4.90999985    2.40000010
   12.71111107  109.92500305    4.90999985    2.40000010
   12.71444416  117.05699921    4.90999985    2.40000010
   12.71749973  108.90499878    4.90999985    2.40000010
   12.72083282  114.45500183    4.90999985    2.42000008
   12.72416592  104.41000366    4.90999985    2.42000008
   12.72444439  117.99299622    4.90999985    2.42000008
   12.72777748  121.78800201    4.90999985    2.42000008
   12.73111057  118.67500305    4.90999985    2.42000008
   12.73416710  120.26499939    4.90999985    2.42000008
   12.73750019  114.08699799    4.90999985    2.42000008
   12.74055576  117.48200226    4.90999985    2.42000008
   12.74388885  121.00700378    4.90999985    2.42000008
   12.74722290  114.59100342    4.90999985    2.42000008
   12.75027752  108.28700256    4.90999985    2.42000008
   12.75361156  109.25399780    4.90999985    2.40000010
   12.75694466  103.87300110    4.90999985    2.42000008
   12.75749969  113.73000336    4.90999985    2.42000008
   12.76027775  112.27799988    4.90999985    2.42000008
   12.76361084  111.58899689    4.90999985    2.42000008
   12.76694393  100.50199890    4.90999985    2.42000008
   12.76999950  112.36199951    4.90999985    2.44000006
   12.77333355  106.65699768    4.90999985    2.44000006
   12.77666664  111.70800018    4.90999985    2.44000006
   12.77972221  109.23500061    4.90999985    2.42000008
   12.78305531  118.17400360    4.90999985    2.42000008
   12.78638935  109.15299988    4.90999985    2.42000008
   12.78944492  114.88400269    4.90999985    2.44000006
   12.79083347  107.57399750    4.90999985    2.44000006
   12.79305553  105.96700287    4.90999985    2.42000008
   12.79638958  106.66799927    4.90999985    2.42000008
   12.79972267  103.15100098    4.90999985    2.42000008
   12.80277824  106.23500061    4.90999985    2.44000006
   12.80611134  112.79599762    4.90999985    2.44000006
   12.80916691  109.57099915    4.90999985    2.44000006
   12.81250000  109.52400208    4.90999985    2.44000006
   12.81583309  107.43499756    4.90999985    2.44000006
   12.81888866  113.95200348    4.90999985    2.42000008
   12.82222176  109.51999664    4.90999985    2.44000006
   12.82416630  110.76000214    4.90999985    2.44000006
   12.82583332  104.10199738    4.90999985    2.44000006
   12.82916641  107.26799774    4.90999985    2.44000006
   12.83249950  105.66200256    4.90999985    2.44000006
   12.83555508  107.60399628    4.90999985    2.44000006
   12.83888817  116.33699799    4.90999985    2.44000006
   12.84194374  109.52600098    4.90999985    2.44000006
   12.84527779  107.50900269    4.90999985    2.44000006
   12.84861088  117.58300018    4.90999985    2.44000006
   12.85166740  111.20899963    4.90999985    2.44000006
   12.85500050  123.33999634    4.90999985    2.46000004
   12.85750008  104.44200134    4.90999985    2.46000004
   12.85861111  112.87699890    4.90999985    2.46000004
   12.86194515  122.46700287    4.90999985    2.46000004
   12.86527824  109.37999725    4.90999985    2.46000004
   12.86833382  116.27100372    4.90999985    2.44000006
   12.87166691  109.71499634    4.90999985    2.44000006
   12.87472248  119.70700073    4.90999985    2.44000006
   12.87805557  113.24700165    4.90999985    2.46000004
   12.88138866  109.97399902    4.90999985    2.44000006
   12.88444424  111.42199707    4.90999985    2.44000006
   12.88777733  104.54900360    4.90999985    2.46000004
   12.89083290  107.21499634    4.90999985    2.44000006
   12.89138889  110.73400116    4.90999985    2.44000006
   12.89472198  107.01999664    4.90999985    2.44000006
   12.89805508  108.19499969    4.90999985    2.44000006
   12.90111065  113.14700317    4.90999985    2.46000004
   12.90444374  104.29900360    4.90999985    2.46000004
   12.90749931  108.66799927    4.90999985    2.44000006
   12.91083336  106.05400085    4.90999985    2.44000006
   12.91416645  109.04799652    4.90999985    2.46000004
   12.91722298  114.72899628    4.90999985    2.46000004
   12.92055607  118.75299835    4.90999985    2.46000004
   12.92388916  111.43199921    4.90999985    2.46000004
   12.92444515  106.86199951    4.90999985    2.46000004
   12.92750072  104.85700226    4.90999985    2.46000004
   12.93083382  107.29799652    4.90999985    2.46000004
   12.93388939  114.38800049    4.90999985    2.46000004
   12.93722248  115.42800140    4.90999985    2.46000004
   12.94083309  106.49099731    4.90999985    2.46000004
   12.94444466  110.35099792    4.90999985    2.46000004
   12.94750023  103.97299957    4.90999985    2.46000004
   12.95083332  102.40200043    4.90999985    2.46000004
   12.95416641  111.04399872    4.90999985    2.46000004
   12.95722198  118.99199677    4.90999985    2.46000004
   12.95777798  118.39800262    4.90999985    2.46000004
   12.96111107  115.89099884    4.90999985    2.46000004
   12.96444416  110.67199707    4.90999985    2.46000004
   12.96749973  113.11499786    4.90999985    2.46000004
   12.97083282  111.34700012    4.90999985    2.46000004
   12.97416592  113.61399841    4.90999985    2.46000004
   12.97722149  108.60099792    4.90999985    2.46000004
   12.98055553  115.29799652    4.90999985    2.48000002
   12.98388958  118.93900299    4.90999985    2.48000002
   12.98694515  125.54599762    4.90999985    2.48000002
   12.99027824  109.02899933    4.90999985    2.48000002
   12.99111176  112.57599640    4.90999985    2.48000002
   12.99388885  115.04399872    4.90999985    2.46000004
   12.99722290  117.00499725    4.90999985    2.46000004
   13.00027752  112.15699768    4.90999985    2.46000004
   13.00361156  109.07299805    4.90999985    2.46000004
   13.00666714  102.93499756    4.90999985    2.48000002
   13.01000023  122.05200195    4.90999985    2.46000004
   13.01333332  110.01399994    4.90999985    2.46000004
   13.01638889  107.53299713    4.90999985    2.46000004
   13.02833271  118.06199646    4.90999985    2.48000002
   13.02888870  115.48200226    4.90999985    2.48000002
   13.03194427  119.79699707    4.90999985    2.46000004
   13.03527832  111.09700012    4.90999985    2.46000004
   13.03833389  114.07800293    4.90999985    2.46000004
   13.04166698  108.65799713    4.90999985    2.48000002
   13.04500008  115.10399628    4.90999985    2.48000002
   13.04805565  112.67400360    4.90999985    2.48000002
   13.05138874  106.79299927    4.90999985    2.48000002
   13.05444431  115.13200378    4.90999985    2.48000002
   13.05777836  117.69499969    4.90999985    2.48000002
   13.06111145  108.10399628    4.90999985    2.48000002
   13.06222248  115.75900269    4.90999985    2.46000004
   13.06472206  107.75199890    4.90999985    2.48000002
   13.06805515  114.58100128    4.90999985    2.48000002
   13.07111073  112.26499939    4.90999985    2.48000002
   13.07444477  112.66899872    4.90999985    2.48000002
   13.07777786  112.38400269    4.90999985    2.48000002
   13.08083344  112.86499786    4.90999985    2.48000002
   13.08416653  111.43499756    4.90999985    2.48000002
   13.08722210  111.99299622    4.90999985    2.48000002
   13.09055519  117.98200226    4.90999985    2.48000002
   13.09388828  113.19899750    4.90999985    2.48000002
   13.09555531  109.55599976    4.90999985    2.48000002
   13.09749985  113.01699829    4.90999985    2.48000002
   13.10083389  103.76000214    4.90999985    2.48000002
   13.10388947  113.84400177    4.90999985    2.48000002
   13.10722256  107.13999939    4.90999985    2.50000000
   13.11055565  109.90799713    4.90999985    2.50000000
   13.11361122  115.49800110    4.90999985    2.50000000
   13.11694431  112.86100006    4.90999985    2.50000000
   13.11999989  107.05300140    4.90999985    2.48000002
   13.12333393  102.77100372    4.90999985    2.50000000
   13.12666702  111.26000214    4.90999985    2.50000000
   13.12888908  114.09400177    4.90999985    2.48000002
   13.13027763  118.23300171    4.90999985    2.50000000
   13.13361073  111.51599884    4.90999985    2.50000000
   13.13666630  115.43199921    4.90999985    2.48000002
   13.14000034  104.75299835    4.90999985    2.50000000
   13.14333344  114.37999725    4.90999985    2.50000000
   13.14638901  116.42800140    4.90999985    2.50000000
   13.14972210  113.92400360    4.90999985    2.50000000
   13.15277767  107.15000153    4.90999985    2.50000000
   13.15611076  110.57499695    4.90999985    2.50000000
   13.15944386  108.49299622    4.90999985    2.50000000
   13.16222191  109.22899628    4.90999985    2.50000000
   13.16305542  110.06199646    4.90999985    2.50000000
   13.16638851  104.83000183    4.90999985    2.50000000
   13.16944504  109.62500000    4.90999985    2.51999998
   13.17277813  102.65299988    4.90999985    2.50000000
   13.17611122  105.25099945    4.90999985    2.51999998
   13.17916679  108.84300232    4.90999985    2.50000000
   13.18249989  108.18499756    4.90999985    2.51999998
   13.18555546  108.11799622    4.90999985    2.51999998
   13.18888855  114.04199982    4.90999985    2.50000000
   13.19222260  113.42600250    4.90999985    2.51999998
   13.19527817  111.74800110    4.90999985    2.51999998
   13.19583321  110.03399658    4.90999985    2.51999998
   13.19916630  112.50900269    4.90999985    2.51999998
   13.20249939  106.67900085    4.90999985    2.51999998
   13.20555496  108.40899658    4.90999985    2.50000000
   13.20888901  120.99099731    4.90999985    2.51999998
   13.21194458  106.91000366    4.90999985    2.51999998
   13.21527767  107.18699646    4.90999985    2.51999998
   13.21861076  115.49700165    4.90999985    2.51999998
   13.22166634  108.13400269    4.90999985    2.51999998
   13.22499943  115.43599701    4.90999985    2.51999998
   13.22833252  103.05699921    4.90999985    2.51999998
   13.22916603  113.96199799    4.90999985    2.51999998
   13.23305511  114.12300110    4.90999985    2.51999998
   13.23638916  110.16000366    4.90999985    2.51999998
   13.23944473  106.14299774    4.90999985    2.51999998
   13.24277782  102.97499847    4.90999985    2.51999998
   13.24583340  111.99400330    4.90999985    2.51999998
   13.24916649  102.00700378    4.90999985    2.53999996
   13.25249958  111.45600128    4.90999985    2.51999998
   13.26500034  115.38300323    0.00000000    0.00000000
   13.26555538  104.99199677    4.90999985    2.51999998
   13.26861095  109.90699768    4.90999985    2.51999998
   13.27194405  108.98699951    4.90999985    2.53999996
   13.27499962  106.95300293    4.90999985    2.51999998
   13.27833271  106.17299652    4.90999985    2.53999996
   13.28166676  100.62899780    4.90999985    2.51999998
   13.28472233  105.06099701    4.90999985    2.51999998
   13.28805637  105.88200378    4.90999985    2.53999996
   13.29111195  111.95300293    4.90999985    2.53999996
   13.29444504  102.10800171    4.90999985    2.53999996
   13.29777813  108.25099945    4.90999985    2.53999996
   13.29888916  102.51599884    4.90999985    2.53999996
   13.30138874  106.52899933    4.90999985    2.53999996
   13.30444431  105.58499908    4.90999985    2.53999996
   13.30777836  112.15599823    4.90999985    2.53999996
   13.31111145  106.83499908    4.90999985    2.53999996
   13.31416702  106.75399780    4.90999985    2.53999996
   13.31750011  102.88300323    4.90999985    2.53999996
   13.32083321  105.87500000    4.90999985    2.53999996
   13.32388878  104.38999939    4.90999985    2.53999996
   13.32722187  110.36000061    4.90999985    2.53999996
   13.33027744  107.27400208    4.90999985    2.53999996
   13.33222198   98.77989960    4.90999985    2.53999996
   13.33416653   97.61019897    4.90999985    2.53999996
   13.33722210  106.19400024    4.90999985    2.53999996
   13.34055519  110.58799744    4.90999985    2.53999996
   13.34388828  107.58100128    4.90999985    2.55999994
   13.34694386  107.84500122    4.90999985    2.53999996
   13.35027790  108.40000153    4.90999985    2.53999996
   13.35361195  111.14800262    4.90999985    2.55999994
   13.35666752  105.86900330    4.90999985    2.53999996
   13.36000061  107.69400024    4.90999985    2.53999996
   13.36305618  107.06500244    4.90999985    2.53999996
   13.36555576  107.04799652    4.90999985    2.53999996
   13.36694431  109.08200073    4.90999985    2.53999996
   13.36999989  106.48799896    4.90999985    2.53999996
   13.37333393  114.31400299    4.90999985    2.55999994
   13.37666702  106.55899811    4.90999985    2.53999996
   13.37972260  106.15599823    4.90999985    2.55999994
   13.48583317   -1.00000000   -1.00000000   -1.00000000
   13.59083271   -1.00000000   -1.00000000   -1.00000000
   13.69444466   -1.00000000   -1.00000000   -1.00000000
   13.72555542   72.75039673    4.90999985    2.59999990
   13.72861099  107.12500000    4.90999985    2.59999990
   13.73222160   83.90760040    4.90999985    2.59999990
   13.73527813  101.42500305    4.90999985    2.59999990
   13.73861122  111.22599792    4.90999985    2.59999990
   13.74166679  104.76300049    4.90999985    2.59999990
   13.74583340  104.76300049    4.90999985    2.59999990
   13.75000000  109.35900116    4.90999985    2.59999990
   13.75333309  110.54100037    4.90999985    2.59999990
   13.75666714  104.37400055    4.90999985    2.59999990
   13.75888920  105.41300201    4.90999985    2.61999989
   13.76027775  103.90899658    4.90999985    2.61999989
   13.76361084  106.21700287    4.90999985    2.59999990
   13.76694393  105.44100189    4.90999985    2.59999990
   13.76999950  104.33699799    4.90999985    2.59999990
   13.77333355  104.97299957    4.90999985    2.59999990
   13.77638817  104.08999634    4.90999985    2.59999990
   13.77972221  107.58699799    4.90999985    2.59999990
   13.78305531  102.91799927    4.90999985    2.57999992
   13.78888893  102.91799927    4.90999985    2.61999989
   13.79305553  110.19699860    4.90999985    2.59999990
   13.79611111  102.91100311    4.90999985    2.59999990
   13.79944515  104.59100342    4.90999985    2.59999990
   13.80277824  108.93800354    4.90999985    2.61999989
   13.80611134  108.29900360    4.90999985    2.59999990
   13.80916691  108.29100037    4.90999985    2.59999990
   13.81250000  100.12599945    4.90999985    2.59999990
   13.81583309  106.90299988    4.90999985    2.59999990
   13.81888866  108.75399780    4.90999985    2.59999990
   13.82222176  105.49800110    4.90999985    2.59999990
   13.82555580  103.20200348    4.90999985    2.59999990
   13.82583332   96.87120056    4.90999985    2.59999990
   13.83166695   96.87120056    4.90999985    2.59999990
   13.83583260  100.97899628    4.90999985    2.61999989
   13.83888817  106.33000183    4.90999985    2.61999989
   13.84222221  104.41699982    4.90999985    2.61999989
   13.84555531  108.56500244    4.90999985    2.61999989
   13.84861088  105.06199646    4.90999985    2.61999989
   13.85194492  100.64600372    4.90999985    2.61999989
   13.85527802  101.42099762    4.90999985    2.61999989
   13.85833359  102.80500031    4.90999985    2.61999989
   13.85888958   97.74230194    4.90999985    2.61999989
   13.86194515  106.97699738    4.90999985    2.61999989
   13.86500072   94.63999939    4.90999985    2.61999989
   13.86833382  100.19100189    4.90999985    2.61999989
   13.87444496  100.19100189    4.90999985    2.61999989
   13.87861156  104.20400238    4.90999985    2.61999989
   13.88194466  101.90799713    4.90999985    2.61999989
   13.88500023  103.31199646    4.90999985    2.61999989
   13.88833332  103.73500061    4.90999985    2.61999989
   13.89166641  102.33899689    4.90999985    2.61999989
   13.89222240  100.98200226    4.90999985    2.61999989
   13.89527798   96.29850006    4.90999985    2.61999989
   13.89833355  104.33399963    4.90999985    2.61999989
   13.90166664  105.88999939    4.90999985    2.61999989
   13.90499973  102.16899872    4.90999985    2.64000010
   13.90805531  100.54499817    4.90999985    2.64000010
   13.91138840  106.62799835    4.90999985    2.64000010
   13.91722298  106.62799835    4.90999985    2.64000010
   13.92138958  112.20200348    4.90999985    2.64000010
   13.92472267  111.68699646    4.90999985    2.64000010
   13.92555618  112.72399902    4.90999985    2.64000010
   13.92833328  104.38099670    4.90999985    2.61999989
   13.93138885  107.34300232    4.90999985    2.64000010
   13.93472195  106.77200317    4.90999985    2.64000010
   13.93805599  101.44300079    4.90999985    2.61999989
   13.94111156  111.29199982    4.90999985    2.64000010
   13.94444466  106.06900024    4.90999985    2.61999989
   13.94777775  104.67199707    4.90999985    2.64000010
   13.95083332  101.54000092    4.90999985    2.64000010
   13.95416641   97.83010101    4.90999985    2.61999989
   13.96027756   97.83010101    4.90999985    2.61999989
   13.96444416  102.54100037    4.90999985    2.61999989
   13.96777725  100.70200348    4.90999985    2.64000010
   13.97111034  106.96499634    4.90999985    2.64000010
   13.97416592  107.40799713    4.90999985    2.64000010
   13.97749996   95.88880157    4.90999985    2.64000010
   13.98083305  100.83399963    4.90999985    2.64000010
   13.98388958  104.00399780    4.90999985    2.64000010
   13.98722267   94.22889709    4.90999985    2.64000010
   13.99027824   94.30719757    4.90999985    2.64000010
   13.99222279   98.51280212    4.90999985    2.64000010
   13.99416733  101.16500092    4.90999985    2.61999989
   13.99750042   99.61599731    4.90999985    2.64000010
   14.00305557   99.61599731    4.90999985    2.64000010
   14.00722218   97.73359680    4.90999985    2.64000010
   14.01027775  100.24600220    4.90999985    2.64000010
   14.01361084   97.70189667    4.90999985    2.64000010
   14.01694393  100.10299683    4.90999985    2.64000010
   14.01999950   99.48410034    4.90999985    2.64000010
   14.02333355  113.97699738    4.90999985    2.64000010
   14.02555561   97.81800079    4.90999985    2.64000010
   14.02694416  103.18499756    4.90999985    2.64000010
   14.03027725  111.40299988    4.90999985    2.64000010
   14.03333378  106.77500153    4.90999985    2.64000010
   14.03666687  103.66400146    4.90999985    2.64000010
   14.03972244  102.53800201    4.90999985    2.64000010
   14.04583359  102.53800201    4.90999985    2.61999989
   14.05000019   99.72789764    4.90999985    2.64000010
   14.05333328  107.13999939    4.90999985    2.66000009
   14.05666733   98.41619873    4.90999985    2.64000010
   14.05888939   96.77760315    4.90999985    2.64000010
   14.06055546  104.72599792    4.90999985    2.64000010
   14.06388950  105.08599854    4.90999985    2.64000010
   14.06694412   97.09410095    4.90999985    2.64000010
   14.07027817  102.19699860    4.90999985    2.64000010
   14.07333374  103.48699951    4.90999985    2.64000010
   14.07666683  105.35299683    4.90999985    2.64000010
   14.07999992   99.97570038    4.90999985    2.64000010
   14.08305550  100.11599731    4.90999985    2.64000010
   14.08861065  100.11599731    4.90999985    2.64000010
   14.09277725  119.43599701    4.90999985    2.66000009
   14.09611034   96.39810181    4.90999985    2.64000010
   14.09944439  100.69000244    4.90999985    2.64000010
   14.10249996  102.23799896    4.90999985    2.64000010
   14.10583401  102.68299866    4.90999985    2.64000010
   14.10888958   95.40339661    4.90999985    2.64000010
   14.11222267   95.88729858    4.90999985    2.64000010
   14.11555576   98.32540131    4.90999985    2.64000010
   14.11861134   97.59510040    4.90999985    2.64000010
   14.12194443  100.04900360    4.90999985    2.64000010
   14.12527752   96.70999908    4.90999985    2.64000010
   14.12583351   98.59929657    4.90999985    2.64000010
   14.13166714   98.59929657    4.90999985    2.64000010
   14.13583279  100.36900330    4.90999985    2.66000009
   14.13916683  102.23500061    4.90999985    2.64000010
   14.14249992   93.25980377    4.90999985    2.64000010
   14.14555550   94.64399719    4.90999985    2.64000010
   14.14888859   97.68090057    4.90999985    2.66000009
   14.15194416  101.93099976    4.90999985    2.66000009
   14.15527725  101.90799713    4.90999985    2.64000010
   14.15861034  104.50800323    4.90999985    2.66000009
   14.15916634  101.03900146    4.90999985    2.66000009
   14.16194439   97.56490326    4.90999985    2.64000010
   14.16527748  101.78600311    4.90999985    2.64000010
   14.16861153  107.79399872    4.90999985    2.64000010
   14.17444515  107.79399872    4.90999985    2.66000009
   14.17861176  100.06099701    4.90999985    2.66000009
   14.18166733   92.93730164    4.90999985    2.66000009
   14.18500042  101.15899658    4.90999985    2.64000010
   14.18833351   95.74759674    4.90999985    2.66000009
   14.19138908   96.46379852    4.90999985    2.66000009
   14.19250011   97.76850128    4.90999985    2.66000009
   14.19499969   95.34339905    4.90999985    2.64000010
   14.19833374  104.42400360    4.90999985    2.66000009
   14.20166683   96.74859619    4.90999985    2.64000010
   14.20472240   92.58529663    4.90999985    2.66000009
   14.20805550   98.54290009    4.90999985    2.66000009
   14.21138859   98.57990265    4.90999985    2.66000009
   14.21722221   98.57990265    4.90999985    2.64000010
   14.22138882  100.25700378    4.90999985    2.66000009
   14.22499943  100.94100189    4.90999985    2.64000010
   14.22583294   98.85990143    4.90999985    2.64000010
   14.22861099   96.72550201    4.90999985    2.66000009
   14.23166656   94.66120148    4.90999985    2.64000010
   14.23500061  104.27300262    4.90999985    2.66000009
   14.23805618  104.67900085    4.90999985    2.66000009
   14.24138927   96.89759827    4.90999985    2.64000010
   14.24472237  102.68699646    4.90999985    2.67000008
   14.24777794   99.12570190    4.90999985    2.66000009
   14.25111103  101.83399963    4.90999985    2.66000009
   14.25444412  102.35700226    4.90999985    2.66000009
   14.26083374  102.35700226    4.90999985    2.64000010
   14.26500034   96.89810181    4.90999985    2.66000009
   14.26805496  102.22200012    4.90999985    2.66000009
   14.27138901  102.59700012    4.90999985    2.66000009
   14.27472210   97.79989624    4.90999985    2.66000009
   14.27777767   98.95659637    4.90999985    2.66000009
   14.28111076   99.89939880    4.90999985    2.66000009
   14.28416729   94.65019989    4.90999985    2.66000009
   14.28750038   95.75610352    4.90999985    2.66000009
   14.29083347  102.99700165    4.90999985    2.66000009
   14.29250050   94.15560150    4.90999985    2.66000009
   14.29444504   94.76719666    4.90999985    2.66000009
   14.29750061   99.58769989    4.90999985    2.66000009
   14.30305576   99.58769989    4.90999985    2.67000008
   14.30694485  104.14299774    4.90999985    2.67000008
   14.31027794   94.57830048    4.90999985    2.66000009
   14.31361103   98.89080048    4.90999985    2.66000009
   14.31666660   94.98010254    4.90999985    2.66000009
   14.31999969  104.35900116    4.90999985    2.64000010
   14.32333374  107.37999725    4.90999985    2.66000009
   14.32583332   97.96530151    4.90999985    2.66000009
   14.32666683   91.75279999    4.90999985    2.66000009
   14.32999992   95.87860107    4.90999985    2.66000009
   14.33333302   98.22480011    4.90999985    2.66000009
   14.33638859   98.70870209    4.90999985    2.66000009
   14.33972168   99.77739716    4.90999985    2.66000009
   14.34583282   99.77739716    4.90999985    2.67000008
   14.35000038   90.98729706    4.90999985    2.67000008
   14.35305595  103.43000031    4.90999985    2.67000008
   14.35638905  106.09899902    4.90999985    2.66000009
   14.35916710   97.74430084    4.90999985    2.67000008
   14.36027813  100.85299683    4.90999985    2.66000009
   14.36333370  103.21700287    4.90999985    2.67000008
   14.36666679  102.06800079    4.90999985    2.67000008
   14.36972237   92.81729889    4.90999985    2.66000009
   14.37305546   87.77200317    4.90999985    2.66000009
   14.37638855  103.63300323    4.90999985    2.66000009
   14.37944412   95.00990295    4.90999985    2.67000008
   14.38277817   97.44190216    4.90999985    2.67000008
   14.38861084   97.44190216    4.90999985    2.67000008
   14.39305496  116.46700287    4.90999985    2.66000009
   14.39638901  110.78299713    4.90999985    2.66000009
   14.39944458   98.89420319    4.90999985    2.66000009
   14.40277767  105.80799866    4.90999985    2.67000008
   14.40611076   99.60220337    4.90999985    2.67000008
   14.40916634  103.30300140    4.90999985    2.66000009
   14.41249943  101.24700165    4.90999985    2.67000008
   14.41555500   99.59619904    4.90999985    2.67000008
   14.41888905  101.36000061    4.90999985    2.67000008
   14.42222214   99.92070007    4.90999985    2.67000008
   14.42527771   95.34909821    4.90999985    2.66000009
   14.42583370   92.48439789    4.90999985    2.66000009
   14.43138885   92.48439789    4.90999985    2.66000009
   14.43555546   99.02059937    4.90999985    2.66000009
   14.44027805  105.99400330    4.90999985    2.66000009
   14.44333363   98.59179688    4.90999985    2.67000008
   14.44666672   98.02269745    4.90999985    2.66000009
   14.44999981  100.00900269    4.90999985    2.67000008
   14.45305538  101.47899628    4.90999985    2.67000008
   14.45638847   97.38739777    4.90999985    2.66000009
   14.45916653  100.54299927    4.90999985    2.67000008
   14.46000004  100.22499847    4.90999985    2.67000008
   14.46333313   96.87310028    4.90999985    2.66000009
   14.46638870  100.07099915    4.90999985    2.67000008
   14.46972179  101.99700165    4.90999985    2.66000009
   14.47444439  101.99700165    4.90999985    2.66000009
   14.47833252   93.49620056    4.90999985    2.67000008
   14.48166656  102.08200073    4.90999985    2.67000008
   14.48500061  102.85399628    4.90999985    2.66000009
   14.48805618   95.99009705    4.90999985    2.67000008
   14.49138927  103.27200317    4.90999985    2.67000008
   14.49250031  100.81800079    4.90999985    2.67000008
   14.49499989  104.05200195    4.90999985    2.67000008
   14.49833393   96.08959961    4.90999985    2.67000008
   14.50138855  102.35800171    4.90999985    2.67000008
   14.50472260   97.78089905    4.90999985    2.67000008
   14.50805569   97.12950134    4.90999985    2.67000008
   14.51111126   92.96119690    4.90999985    2.67000008
   14.51722240   92.96119690    4.90999985    2.67000008
   14.52138901   98.11990356    4.90999985    2.67000008
   14.52444458   96.42600250    4.90999985    2.67000008
   14.52583313  104.99199677    4.90999985    2.67000008
   14.52805519   95.17489624    4.90999985    2.66000009
   14.53138828   97.43450165    4.90999985    2.67000008
   14.53444481  104.95099640    4.90999985    2.66000009
   14.53777790  105.09300232    4.90999985    2.67000008
   14.54111195  105.08399963    4.90999985    2.67000008
   14.54416752  105.35199738    4.90999985    2.66000009
   14.54750061  107.41799927    4.90999985    2.67000008
   14.55055618   99.93540192    4.90999985    2.67000008
   14.55388927  102.09899902    4.90999985    2.67000008
   14.56000042  102.09899902    4.90999985    2.67000008
   14.56416702  107.98699951    4.90999985    2.67000008
   14.56750011  104.53500366    4.90999985    2.67000008
   14.57055569  104.48500061    4.90999985    2.69000006
   14.57388878  110.55599976    4.90999985    2.67000008
   14.57694435  117.79599762    4.90999985    2.67000008
   14.58027744  101.38300323    4.90999985    2.67000008
   14.58361053  108.24900055    4.90999985    2.67000008
   14.58666611  108.88899994    4.90999985    2.67000008
   14.59000015  114.72200012    4.90999985    2.67000008
   14.59249973  102.36599731    4.90999985    2.67000008
   14.59361076  112.13500214    4.90999985    2.67000008
   14.59694386  114.72399902    4.90999985    2.67000008
   14.60277843  114.72399902    4.90999985    2.67000008
   14.60694504  104.81600189    4.90999985    2.67000008
   14.61027813  109.37699890    4.90999985    2.67000008
   14.61333370  112.29199982    4.90999985    2.67000008
   14.61666679  109.86399841    4.90999985    2.67000008
   14.61999989  103.57900238    4.90999985    2.67000008
   14.62305546  120.73699951    4.90999985    2.67000008
   14.62583351  103.67199707    4.90999985    2.69000006
   14.62666702  103.31500244    4.90999985    2.69000006
   14.63000011   96.38059998    4.90999985    2.67000008
   14.63305569  102.00399780    4.90999985    2.67000008
   14.63638878   94.28450012    4.90999985    2.67000008
   14.63972187  101.20700073    4.90999985    2.67000008
   14.64583302  101.20700073    4.90999985    2.67000008
   14.64972210  114.07599640    4.90999985    2.67000008
   14.65305519   97.64309692    4.90999985    2.69000006
   14.65638828  103.26499939    4.90999985    2.67000008
   14.65916634   99.31819916    4.90999985    2.69000006
   14.65999985   99.09079742    4.90999985    2.67000008
   14.66333294   99.43959808    4.90999985    2.67000008
   14.66638851  109.69899750    4.90999985    2.69000006
   14.66972256  109.52999878    4.90999985    2.67000008
   14.67305565  107.48799896    4.90999985    2.67000008
   14.67611122  104.72299957    4.90999985    2.67000008
   14.67944431  100.21399689    4.90999985    2.67000008
   14.68249989   99.79550171    4.90999985    2.67000008
   14.69750023   99.79550171    4.90999985    2.67000008
   14.70138836  113.20200348    4.90999985    2.69000006
   14.70472240   97.50959778    4.90999985    2.69000006
   14.70805550   98.30429840    4.90999985    2.69000006
   14.71111107   91.27120209    4.90999985    2.69000006
   14.71444416  120.49199677    4.90999985    2.71000004
   14.71777725  101.50299835    4.90999985    2.67000008
   14.72083282  105.63899994    4.90999985    2.69000006
   14.72416592   94.83799744    4.90999985    2.69000006
   14.72749996   94.66719818    4.90999985    2.69000006
   14.73166656   94.66719818    4.90999985    2.67000008
   14.75000000  108.74199677    4.90999985    2.69000006
   14.75305557   95.74770355    4.90999985    2.67000008
   14.75638866  105.03700256    4.90999985    2.69000006
   14.75972176  110.62300110    4.90999985    2.67000008
   14.76277733   98.18710327    4.90999985    2.69000006
   14.76611137  108.47499847    4.90999985    2.69000006
   14.76666641  109.27999878    4.90999985    2.69000006
   14.76972198  115.67500305    4.90999985    2.69000006
   14.78666687  115.67500305    4.90999985    2.69000006
   14.79083347  137.92500305    4.90999985    2.69000006
   14.79416752  116.15100098    4.90999985    2.69000006
   14.79722309  126.37500000    4.90999985    2.69000006
   14.80055618  115.79499817    4.90999985    2.69000006
   14.80249977   95.77629852    4.90999985    2.69000006
   14.80416679  123.61699677    4.90999985    2.69000006
   14.80749989  104.17299652    4.90999985    2.69000006
   14.81083393  122.92199707    4.90999985    2.69000006
   14.81750011  122.92199707    4.90999985    2.69000006
   14.82166672  113.37400055    4.90999985    2.69000006
   14.82499981  128.01600647    4.90999985    2.69000006
   14.82805538  107.59700012    4.90999985    2.69000006
   14.83138847  128.26600647    4.90999985    2.69000006
   14.83444405  109.86499786    4.90999985    2.69000006
   14.83583260  121.71600342    4.90999985    2.69000006
   14.83805561   89.20780182    4.90999985    2.69000006
   14.84138870   94.42150116    4.90999985    2.67000008
   14.84472179  113.70099640    4.90999985    2.69000006
   14.84777737  128.00599670    4.90999985    2.69000006
   14.85111141  121.18000031    4.90999985    2.69000006
   14.85444450  110.43699646    4.90999985    2.69000006
   14.86027813  110.43699646    4.90999985    2.69000006
   14.86444473  128.16799927    4.90999985    2.69000006
   14.86777782  125.79399872    4.90999985    2.69000006
   14.86916637  127.12999725    4.90999985    2.69000006
   14.87138939  125.98500061    4.90999985    2.69000006
   14.87444496  160.05200195    4.90999985    2.69000006
   14.87777805  121.61299896    4.90999985    2.69000006
   14.88083363  162.83599854    4.90999985    2.69000006
   14.88416672  131.34800720    4.90999985    2.71000004
   14.88749981  147.22999573    4.90999985    2.69000006
   14.89055538  166.17399597    4.90999985    2.69000006
   14.89388847  136.44400024    4.90999985    2.69000006
   14.89722252  131.08299255    4.90999985    2.69000006
   14.90305519  131.08299255    4.90999985    2.71000004
   14.90722179  154.28999329    4.90999985    2.69000006
   14.91055489  135.20199585    4.90999985    2.69000006
   14.91388893  100.31400299    4.90999985    2.69000006
   14.91694450  124.72899628    4.90999985    2.69000006
   14.92027855  120.74800110    4.90999985    2.69000006
   14.92333412  125.10800171    4.90999985    2.69000006
   14.92666721  128.59199524    4.90999985    2.71000004
   14.93000031  138.52699280    4.90999985    2.69000006
   14.93305588  119.37300110    4.90999985    2.69000006
   14.93583298  112.65000153    4.90999985    2.69000006
   14.93666649  113.20099640    4.90999985    2.69000006
   14.94000053  102.73999786    4.90999985    2.69000006
   14.94611073  102.73999786    4.90999985    2.69000006
   14.95027733  115.26399994    4.90999985    2.69000006
   14.95333290  105.13099670    4.90999985    2.69000006
   14.95666695  108.55999756    4.90999985    2.69000006
   14.95972157  100.15499878    4.90999985    2.71000004
   14.96305561  106.52200317    4.90999985    2.67000008
   14.96638870   96.03389740    4.90999985    2.69000006
   14.96916580   99.39759827    4.90999985    2.69000006
   14.96999931   97.13829803    4.90999985    2.71000004
   14.97305489  106.98600006    4.90999985    2.69000006
   14.97638798  111.15499878    4.90999985    2.69000006
   14.97944355  115.68699646    4.90999985    2.69000006
   14.98277760  125.49600220    4.90999985    2.69000006
   14.98888874  125.49600220    4.90999985    2.71000004
   14.99305534  117.56700134    4.90999985    2.69000006
   14.99611092   94.36289978    4.90999985    2.69000006
   14.99944496  123.57399750    4.90999985    2.71000004
   15.00249958  112.88500214    4.90999985    2.69000006
   15.00305557  100.26799774    4.90999985    2.71000004
   15.00638866  104.40000153    4.90999985    2.69000006
   15.00972176  116.31099701    4.90999985    2.69000006
   15.01277733  119.28800201    4.90999985    2.69000006
   15.01611137   95.95680237    4.90999985    2.69000006
   15.01944447  101.14099884    4.90999985    2.71000004
   15.02250004  121.98100281    4.90999985    2.71000004
   15.02583313  111.82199860    4.90999985    2.71000004
   15.03166676  111.82199860    4.90999985    2.71000004
   15.03583336   96.45809937    4.90999985    2.69000006
   15.03916740  106.66200256    4.90999985    2.69000006
   15.04222298  107.32700348    4.90999985    2.69000006
   15.04555607  106.62699890    4.90999985    2.69000006
   15.04888916  101.53199768    4.90999985    2.69000006
   15.05194473  102.29199982    4.90999985    2.69000006
   15.05527782   99.09230042    4.90999985    2.69000006
   15.05833340  101.67400360    4.90999985    2.69000006
   15.06166649   96.48020172    4.90999985    2.71000004
   15.06500053   96.72489929    4.90999985    2.71000004
   15.06805515   96.58820343    4.90999985    2.71000004
   15.06916618  102.03600311    4.90999985    2.71000004
   15.07444477  102.03600311    4.90999985    2.71000004
   15.07861137  100.02100372    4.90999985    2.69000006
   15.08194447   99.94249725    4.90999985    2.71000004
   15.08527756  105.52500153    4.90999985    2.69000006
   15.08833313   94.79029846    4.90999985    2.71000004
   15.09166622   97.68550110    4.90999985    2.69000006
   15.09472179   93.56240082    4.90999985    2.69000006
   15.09805489  103.91000366    4.90999985    2.71000004
   15.10138893  103.52799988    4.90999985    2.71000004
   15.10249996  104.34400177    4.90999985    2.71000004
   15.10500050  104.91500092    4.90999985    2.71000004
   15.10805607   99.61019897    4.90999985    2.71000004
   15.11138916   91.05059814    4.90999985    2.69000006
   15.11750031   91.05059814    4.90999985    2.69000006
   15.12166691   98.91169739    4.90999985    2.71000004
   15.12472248   92.05660248    4.90999985    2.69000006
   15.12805557   91.31289673    4.90999985    2.71000004
   15.13111115   90.50779724    4.90999985    2.71000004
   15.13444424  102.85900116    4.90999985    2.71000004
   15.13583279   98.17130280    4.90999985    2.71000004
   15.13833332   99.11199951    4.90999985    2.71000004
   15.14138889   92.84120178    4.90999985    2.71000004
   15.14472198   96.75949860    4.90999985    2.71000004
   15.14777756   94.86109924    4.90999985    2.71000004
   15.15111065   97.14990234    4.90999985    2.69000006
   15.15444374   92.80639648    4.90999985    2.71000004
   15.16027737   92.80639648    4.90999985    2.71000004
   15.16444397   93.88089752    4.90999985    2.71000004
   15.16750050   92.28420258    4.90999985    2.71000004
   15.16916656   97.01719666    4.90999985    2.71000004
   15.17138958   96.45980072    4.90999985    2.71000004
   15.17444515   99.92030334    4.90999985    2.69000006
   15.17777824  103.67800140    4.90999985    2.71000004
   15.18111134  103.95200348    4.90999985    2.71000004
   15.18416691  101.29599762    4.90999985    2.71000004
   15.18750000   97.20719910    4.90999985    2.71000004
   15.19055557  100.37300110    4.90999985    2.71000004
   15.19388866  100.51599884    4.90999985    2.71000004
   15.19722271  100.59100342    4.90999985    2.69000006
   15.21194458  100.59100342    4.90999985    2.69000006
   15.21583271  102.57900238    4.90999985    2.71000004
   15.21916580   94.81929779    4.90999985    2.71000004
   15.22249985   96.03389740    4.90999985    2.69000006
   15.22555542   94.45320129    4.90999985    2.71000004
   15.22888851   97.43689728    4.90999985    2.71000004
   15.23222160   91.53500366    4.90999985    2.71000004
   15.23527813   96.72940063    4.90999985    2.73000002
   15.23583317   94.68949890    4.90999985    2.73000002
   15.23888874   93.83760071    4.90999985    2.71000004
   15.24194431   92.92800140    4.90999985    2.71000004
   15.24611092   92.92800140    4.90999985    2.73000002
   15.25027752   92.20320129    4.90999985    2.73000002
   15.25361156   92.90869904    4.90999985    2.71000004
   15.25694466   95.43219757    4.90999985    2.71000004
   15.26000023   98.38800049    4.90999985    2.71000004
   15.26333332  100.14199829    4.90999985    2.71000004
   15.26666641   95.18029785    4.90999985    2.71000004
   15.26916599   98.68869781    4.90999985    2.71000004
   15.27027798   98.25170135    4.90999985    2.71000004
   15.27333355   95.49359894    4.90999985    2.71000004
   15.27666664  100.84799957    4.90999985    2.73000002
   15.27999973   97.08760071    4.90999985    2.71000004
   15.28305531   87.80680084    4.90999985    2.71000004
   15.28916740   87.80680084    4.90999985    2.71000004
   15.29333401   99.50399780    4.90999985    2.71000004
   15.29638958   95.66159821    4.90999985    2.71000004
   15.29972267   97.99079895    4.90999985    2.73000002
   15.30249977  100.32199860    4.90999985    2.71000004
   15.30333328   94.56870270    4.90999985    2.73000002
   15.30638885   94.34829712    4.90999985    2.71000004
   15.30972195   91.88030243    4.90999985    2.69000006
   15.31305599   98.98300171    4.90999985    2.71000004
   15.31611156   95.80319977    4.90999985    2.73000002
   15.31944466   96.54769897    4.90999985    2.73000002
   15.32277775   94.55460358    4.90999985    2.73000002
   15.32583332  102.74099731    4.90999985    2.73000002
   15.33194447  102.74099731    4.90999985    2.73000002
   15.33611107   95.98390198    4.90999985    2.71000004
   15.33916664  101.03099823    4.90999985    2.71000004
   15.34249973   92.76940155    4.90999985    2.73000002
   15.34583282  100.79000092    4.90999985    2.71000004
   15.34888840   92.03630066    4.90999985    2.71000004
   15.35222244   95.19830322    4.90999985    2.73000002
   15.35555553   96.02169800    4.90999985    2.71000004
   15.35861111   90.89969635    4.90999985    2.73000002
   15.36194515   99.97830200    4.90999985    2.71000004
   15.36500072   94.18139648    4.90999985    2.71000004
   15.36833382  101.26599884    4.90999985    2.75000000
   15.36916637   95.85610199    4.90999985    2.71000004
   15.37472248   95.85610199    4.90999985    2.71000004
   15.37888908   93.97299957    4.90999985    2.73000002
   15.38222218   94.79340363    4.90999985    2.71000004
   15.38527775   99.18669891    4.90999985    2.75000000
   15.38861084   97.37740326    4.90999985    2.71000004
   15.39249992   93.31649780    4.90999985    2.73000002
   15.39555550   92.11679840    4.90999985    2.71000004
   15.39888859   99.85299683    4.90999985    2.73000002
   15.40194416   93.90910339    4.90999985    2.73000002
   15.40249920   90.81050110    4.90999985    2.73000002
   15.40555477   94.63639832    4.90999985    2.71000004
   15.40888882   96.76490021    4.90999985    2.73000002
   15.41194439   96.44680023    4.90999985    2.71000004
   15.41750050   96.44680023    4.90999985    2.73000002
   15.42166710   88.68859863    4.90999985    2.71000004
   15.42500019   93.90399933    4.90999985    2.73000002
   15.42833328   97.39689636    4.90999985    2.73000002
   15.43138885   93.84960175    4.90999985    2.71000004
   15.43472195   92.07630157    4.90999985    2.73000002
   15.43583298   96.79640198    4.90999985    2.73000002
   15.43833351   99.04479980    4.90999985    2.73000002
   15.44166660   96.43389893    4.90999985    2.71000004
   15.44472218  108.55200195    4.90999985    2.73000002
   15.45277786  100.57399750    4.90999985    2.71000004
   15.45583344   95.98619843    4.90999985    2.73000002
   15.46388912   95.98619843    4.90999985    2.73000002
   15.46805477   92.50759888    4.90999985    2.71000004
   15.46916580  100.43499756    4.90999985    2.73000002
   15.47166634   98.26599884    4.90999985    2.71000004
   15.47499943  101.34600067    4.90999985    2.73000002
   15.47805500   95.07450104    4.90999985    2.71000004
   15.48138809  100.05200195    4.90999985    2.71000004
   15.48472214   99.69470215    4.90999985    2.71000004
   15.48777771  100.32299805    4.90999985    2.73000002
   15.49111176   97.39299774    4.90999985    2.73000002
   15.49416733   99.84349823    4.90999985    2.73000002
   15.49750042   96.62840271    4.90999985    2.71000004
   15.50083351   94.83180237    4.90999985    2.71000004
   15.50500011   94.83180237    4.90999985    2.73000002
   15.50916672   96.46119690    4.90999985    2.71000004
   15.51222229   96.64340210    4.90999985    2.71000004
   15.51555538   95.34149933    4.90999985    2.73000002
   15.51888847   95.50520325    4.90999985    2.73000002
   15.52194405   97.39520264    4.90999985    2.73000002
   15.52527714   92.02649689    4.90999985    2.73000002
   15.52833271   90.14369965    4.90999985    2.73000002
   15.53166676   94.12709808    4.90999985    2.73000002
   15.53500080   95.18769836    4.90999985    2.73000002
   15.53583336   98.09980011    4.90999985    2.73000002
   15.53861141   97.48059845    4.90999985    2.73000002
   15.54194450   97.00209808    4.90999985    2.73000002
   15.54777813   97.00209808    4.90999985    2.73000002
   15.55194473   97.35990143    4.90999985    2.73000002
   15.55527782   98.95600128    4.90999985    2.71000004
   15.55833340   96.01750183    4.90999985    2.73000002
   15.56222248   96.04660034    4.90999985    2.73000002
   15.56527805  101.76499939    4.90999985    2.75000000
   15.56861115   95.98280334    4.90999985    2.73000002
   15.56916618   93.81120300    4.90999985    2.73000002
   15.58166695   95.82019806    0.00000000    0.00000000
   15.58500004   94.15709686    4.90999985    2.73000002
   15.59111118   94.15709686    4.90999985    2.73000002
   15.59527779   94.72290039    4.90999985    2.75000000
   15.59861088   97.69779968    4.90999985    2.73000002
   15.60166740   95.24199677    4.90999985    2.73000002
   15.60249996   95.97709656    4.90999985    2.73000002
   15.60527802   96.46499634    4.90999985    2.75000000
   15.60861111   91.84179688    4.90999985    2.73000002
   15.61194515   93.29360199    4.90999985    2.73000002
   15.61500072   96.75599670    4.90999985    2.73000002
   15.61833382   96.26319885    4.90999985    2.73000002
   15.62166691  101.02700043    4.90999985    2.73000002
   15.62472248   97.51119995    4.90999985    2.71000004
   15.62805557  101.31999969    4.90999985    2.73000002
   15.63555527  101.31999969    4.90999985    2.75000000
   15.63972187   96.54879761    4.90999985    2.75000000
   15.64361095   91.29579926    4.90999985    2.75000000
   15.64694405  100.23699951    4.90999985    2.75000000
   15.64999962   95.73280334    4.90999985    2.75000000
   15.65333271   96.87059784    4.90999985    2.80999994
   15.65638828   94.31839752    0.23000000    0.56999999
   15.65972137   99.14279938    0.13000000    0.31999999
   15.66305542   96.19960022    0.09000000    0.05000000
   15.66611099   96.32350159    0.09000000    0.05000000
   15.66944504   92.76770020    0.09000000    0.05000000
   15.67083359   94.69599915    0.09000000    0.05000000
   15.67805576   94.69599915    0.09000000    0.05000000
   15.68222237   97.97260284    0.09000000    0.05000000
   15.68555546   96.92759705    0.09000000    0.05000000
   15.68861103   92.60350037    0.09000000    0.05000000
   15.69194412   99.01260376    0.09000000    0.05000000
   15.69499969  100.87500000    0.09000000    0.05000000
   15.69833374   96.20790100    0.09000000    0.05000000
   15.70166683  106.40799713    0.09000000    0.05000000
   15.70416641   94.10569763    0.09000000    0.05000000
   15.70527744   95.63289642    0.09000000    0.05000000
   15.70861053  102.33100128    0.09000000    0.05000000
   15.71194458   98.04640198    0.09000000    0.05000000
   15.71500015   96.85520172    0.09000000    0.05000000
   15.71972179   96.85520172    0.09000000    0.05000000
   15.72388840  101.79199982    0.09000000    0.05000000
   15.72694397   96.17870331    0.09000000    0.05000000
   15.73027706   98.11940002    0.09000000    0.05000000
   15.73361111  105.51100159    0.09000000    0.05000000
   15.73666668  100.97000122    0.09000000    0.05000000
   15.73750019  101.59799957    0.09000000    0.05000000
   15.74027824   98.51219940    0.09000000    0.05000000
   15.74361134   96.47019958    0.09000000    0.05000000
   15.74694443   93.66919708    0.09000000    0.05000000
   15.75000000   96.78579712    0.09000000    0.05000000
   15.75333309   93.63929749    0.09000000    0.05000000
   15.75666714  100.08899689    0.09000000    0.05000000
   15.76249981  100.08899689    0.09000000    0.05000000
   15.78083324   95.57849884    0.09000000    0.05000000
   15.78416729   91.43009949    0.09000000    0.05000000
   15.78750038   91.41210175    0.09000000    0.05000000
   15.79055595   99.75990295    0.09000000    0.05000000
   15.79388905   95.13120270    0.09000000    0.05000000
   15.79694462   93.94270325    0.09000000    0.05000000
   15.80027771   98.34539795    0.09000000    0.05000000
   15.80555534   98.34539795    0.09000000    0.05000000
   15.80972195  101.05799866    0.09000000    0.05000000
   15.81305599   96.96250153    0.09000000    0.05000000
   15.81388950   93.44470215    0.09000000    0.05000000
   15.81666660   98.27670288    0.09000000    0.05000000
   15.81999969   97.85649872    0.09000000    0.05000000
   15.82305527   90.68910217    0.09000000    0.05000000
   15.82638836  100.10299683    0.09000000    0.05000000
   15.82944393   96.62989807    0.09000000    0.05000000
   15.83277798  100.50299835    0.09000000    0.05000000
   15.83611107   94.70919800    0.09000000    0.05000000
   15.83916664   96.80290222    0.09000000    0.05000000
   15.84249973   98.49800110    0.09000000    0.05000000
   15.84833336   98.49800110    0.09000000    0.05000000
   15.85249996   94.32610321    0.09000000    0.05000000
   15.85583401   97.04329681    0.09000000    0.05000000
   15.85916710   95.32019806    0.09000000    0.05000000
   15.86222267  108.24400330    0.09000000    0.05000000
   15.86555576   96.83580017    0.09000000    0.05000000
   15.86861134  100.98799896    0.09000000    0.05000000
   15.87194443  106.94499969    0.09000000    0.05000000
   15.87527752  105.28900146    0.09000000    0.05000000
   15.87833309   94.53649902    0.09000000    0.05000000
   15.88055611  102.39199829    0.09000000    0.05000000
   15.88222218   95.06469727    0.09000000    0.05000000
   15.88555527  105.45099640    0.09000000    0.05000000
   15.89138889  105.45099640    0.09000000    0.05000000
   15.89611053   98.69529724    0.09000000    0.05000000
   15.89916611   98.91840363    0.09000000    0.05000000
   15.90249920   97.73480225    0.09000000    0.05000000
   15.90555477   91.44719696    0.09000000    0.05000000
   15.90888882  100.49099731    0.09000000    0.05000000
   15.91222191   99.30030060    0.09000000    0.05000000
   15.91388893   95.45330048    0.09000000    0.05000000
   15.91583252  100.93299866    0.09000000    0.05000000
   15.91916656   95.30999756    0.09000000    0.05000000
   15.92222214  101.00900269    0.09000000    0.05000000
   15.92555618  105.13099670    0.09000000    0.05000000
   15.92861176  102.56700134    0.09000000    0.05000000
   15.93416691  102.56700134    0.09000000    0.05000000
   15.93833351  104.97100067    0.09000000    0.05000000
   15.94138908  106.84799957    0.09000000    0.05000000
   15.94472218  101.79299927    0.09000000    0.05000000
   15.94722271   97.96790314    0.09000000    0.05000000
   15.94833374  103.30300140    0.09000000    0.05000000
   15.95166683   96.73919678    0.09000000    0.05000000
   15.95472240  101.62200165    0.09000000    0.05000000
   15.95805550  108.13800049    0.09000000    0.05000000
   15.96138859  101.18900299    0.09000000    0.05000000
   15.96444416  102.78900146    0.09000000    0.05000000
   15.96777725  101.29900360    0.09000000    0.05000000
   15.97083282   96.12220001    0.09000000    0.05000000
   15.97694397   96.12220001    0.09000000    0.05000000
   15.98111057   99.41449738    0.09000000    0.05000000
   15.98444462   94.46530151    0.09000000    0.05000000
   15.98750019   96.40830231    0.09000000    0.05000000
   15.99083328   95.90550232    0.09000000    0.05000000
   15.99416733   95.95439911    0.09000000    0.05000000
   15.99722290   98.50920105    0.09000000    0.05000000
   16.00055504   95.35230255    0.09000000    0.05000000
   16.00361061  100.07499695    0.09000000    0.05000000
   16.00694466   99.59609985    0.09000000    0.05000000
   16.01027870   97.73110199    0.09000000    0.05000000
   16.01333427  106.15799713    0.09000000    0.05000000
   16.01388931   97.94100189    0.09000000    0.05000000
   16.01972198   97.94100189    0.09000000    0.05000000
   16.02388954  101.91500092    0.09000000    0.05000000
   16.02722168  105.62699890    0.09000000    0.05000000
   16.03055573  104.16100311    0.09000000    0.05000000
   16.03361130  105.00199890    0.09000000    0.05000000
   16.03694344  100.18000031    0.09000000    0.05000000
   16.04027748  100.19599915    0.09000000    0.05000000
   16.04333305  101.58399963    0.09000000    0.05000000
   16.04666710   98.01290131    0.09000000    0.05000000
   16.04722214  100.22699738    0.09000000    0.05000000
   16.05027771  101.41200256    0.09000000    0.05000000
   16.05360985  101.45099640    0.09000000    0.05000000
   16.05666542   91.48220062    0.09000000    0.05000000
   16.06277657   91.48220062    0.09000000    0.05000000
   16.06694603   98.29019928    0.09000000    0.05000000
   16.07000160   97.44650269    0.09000000    0.05000000
   16.07333374   97.14939880    0.09000000    0.05000000
   16.07638931   92.84850311    0.09000000    0.05000000
   16.07972336   98.43720245    0.09000000    0.05000000
   16.08055687   97.57479858    0.09000000    0.05000000
   16.08333397  101.91999817    0.09000000    0.05000000
   16.08666801   98.42340088    0.09000000    0.05000000
   16.08972359   96.57759857    0.09000000    0.05000000
   16.09305573   91.93270111    0.09000000    0.05000000
   16.09638977   97.62719727    0.09000000    0.05000000
   16.09944534   98.83280182    0.09000000    0.05000000
   16.10833359   98.83280182    0.09000000    0.05000000
   16.11222267   93.37999725    0.09000000    0.05000000
   16.11388969  112.90000153    0.09000000    0.05000000
   16.11722183   96.85050201    0.09000000    0.05000000
   16.12055588  109.23300171    0.09000000    0.05000000
   16.12361145  110.77700043    0.09000000    0.05000000
   16.12694550  111.15599823    0.09000000    0.05000000
   16.13000107  152.03599548    0.09000000    0.05000000
   16.13333321  187.04299927    0.09000000    0.05000000
   16.13666725  165.25999451    0.09000000    0.05000000
   16.13972282  169.02000427    0.09000000    0.05000000
   16.14305496  158.53300476    0.09000000    0.05000000
   16.14833260  158.53300476    0.09000000    0.05000000
   16.15250015  149.13299561    0.09000000    0.05000000
   16.15583229  109.92800140    0.09000000    0.05000000
   16.15888786  128.27200317    0.09000000    0.05000000
   16.17166519  141.12300110    0.00000000    0.00000000
   16.17499924  125.40799713    0.09000000    0.05000000
   16.17805481  123.70600128    0.09000000    0.05000000
   16.18138885  118.69899750    0.09000000    0.05000000
   16.18472099   97.86820221    0.09000000    0.05000000
   16.18750000  109.10900116    0.09000000    0.05000000
   16.18833160  120.59300232    0.09000000    0.05000000
   16.19166565  139.86399841    0.09000000    0.05000000
   16.19499969  118.84100342    0.09000000    0.05000000
   16.19944382  118.84100342    0.09000000    0.05000000
   16.20333481  126.54100037    0.09000000    0.05000000
   16.20666695  117.34799957    0.09000000    0.05000000
   16.21000099  125.36299896    0.09000000    0.05000000
   16.21305656  128.03700256    0.09000000    0.05000000
   16.21638870  121.89600372    0.09000000    0.05000000
   16.21972275  121.54599762    0.09000000    0.05000000
   16.22083473  126.03399658    0.09000000    0.05000000
   16.22305679  111.60700226    0.09000000    0.05000000
   16.22638893  121.42600250    0.09000000    0.05000000
   16.22972298  114.98200226    0.09000000    0.05000000
   16.23277855  108.48699951    0.09000000    0.05000000
   16.23611069  122.84999847    0.09000000    0.05000000
   16.24222183  122.84999847    0.09000000    0.05000000
   16.24638939  147.84199524    0.09000000    0.05000000
   16.24944496  114.85199738    0.09000000    0.05000000
   16.25277710  133.04699707    0.09000000    0.05000000
   16.25416756  104.13500214    0.09000000    0.05000000
   16.25638962  128.82499695    0.09000000    0.05000000
   16.25972176  124.91999817    0.09000000    0.05000000
   16.26277733  112.90799713    0.09000000    0.05000000
   16.26611137  121.79699707    0.09000000    0.05000000
   16.26944351  129.07400513    0.09000000    0.05000000
   16.27249908  107.87400055    0.09000000    0.05000000
   16.27583313  123.06600189    0.09000000    0.05000000
   16.27888870  144.78199768    0.09000000    0.05000000
   16.28499985  144.78199768    0.09000000    0.05000000
   16.28916550  127.19899750    0.09000000    0.05000000
   16.29249954  126.95500183    0.09000000    0.05000000
   16.29555511  117.68399811    0.09000000    0.05000000
   16.29888916  111.98100281    0.09000000    0.05000000
   16.30194283  119.39700317    0.09000000    0.05000000
   16.30527687  114.94499969    0.09000000    0.05000000
   16.30861092  127.74700165    0.09000000    0.05000000
   16.31166649  109.26699829    0.09000000    0.05000000
   16.31499863  108.63700104    0.09000000    0.05000000
   16.31833458   94.85990143    0.09000000    0.05000000
   16.32083511  105.34799957    0.09000000    0.05000000
   16.32194519   99.76090240    0.09000000    0.05000000
   16.32777786   99.76090240    0.09000000    0.05000000
   16.33194542  106.46600342    0.09000000    0.05000000
   16.33527756  101.10299683    0.09000000    0.05000000
   16.33833313  103.38600159    0.09000000    0.05000000
   16.34166718  107.55999756    0.09000000    0.05000000
   16.34500122  105.54499817    0.09000000    0.05000000
   16.34805679  109.00299835    0.09000000    0.05000000
   16.35138893   93.37760162    0.09000000    0.05000000
   16.35416794  104.34799957    0.09000000    0.05000000
   16.35499954  116.90599823    0.09000000    0.05000000
   16.35833359  102.51799774    0.09000000    0.05000000
   16.36138916  101.51599884    0.09000000    0.05000000
   16.36472321  114.13800049    0.09000000    0.05000000
   16.37083435  114.13800049    0.09000000    0.05000000
   16.37500000  103.54799652    0.09000000    0.05000000
   16.37805557  120.09600067    0.09000000    0.05000000
   16.38138962  105.45700073    0.09000000    0.05000000
   16.38444519  104.11499786    0.09000000    0.05000000
   16.38750076  107.95099640    0.09000000    0.05000000
   16.38805580  107.92099762    0.09000000    0.05000000
   16.39138794  106.77799988    0.09000000    0.05000000
   16.39444351  108.46800232    0.09000000    0.05000000
   16.39777756   96.92030334    0.09000000    0.05000000
   16.40111160  115.05100250    0.09000000    0.05000000
   16.40416718  121.73000336    0.09000000    0.05000000
   16.40749931  103.78700256    0.09000000    0.05000000
   16.41361046  103.78700256    0.09000000    0.05000000
   16.41777802  105.48699951    0.09000000    0.05000000
   16.42111015  111.09200287    0.09000000    0.05000000
   16.42138863   99.59819794    0.09000000    0.05000000
   16.42472076  120.41999817    0.09000000    0.05000000
   16.42777634  104.27799988    0.09000000    0.05000000
   16.43111038  115.48999786    0.09000000    0.05000000
   16.43444443  105.35800171    0.09000000    0.05000000
   16.43750000  104.05200195    0.09000000    0.05000000
   16.44083214  105.62999725    0.09000000    0.05000000
   16.44416618  110.57399750    0.09000000    0.05000000
   16.44722176  109.46499634    0.09000000    0.05000000
   16.45055580  103.02400208    0.09000000    0.05000000
   16.45639038  103.02400208    0.09000000    0.05000000
   16.46055603  101.10299683    0.09000000    0.05000000
   16.46389008  102.30899811    0.09000000    0.05000000
   16.46694565  105.22000122    0.09000000    0.05000000
   16.47027779  108.96900177    0.09000000    0.05000000
   16.47333336  104.44699860    0.09000000    0.05000000
   16.47666740  103.25399780    0.09000000    0.05000000
   16.48000145   97.78199768    0.09000000    0.05000000
   16.48305511  101.06999969    0.09000000    0.05000000
   16.48638916  109.61299896    0.09000000    0.05000000
   16.48777771  101.54299927    0.09000000    0.05000000
   16.48999977  109.56500244    0.09000000    0.05000000
   16.49333382  109.00199890    0.09000000    0.05000000
   16.49916649  109.00199890    0.09000000    0.05000000
   16.50333405  115.03800201    0.09000000    0.05000000
   16.50666618  106.12999725    0.09000000    0.05000000
   16.50972176  111.99700165    0.09000000    0.05000000
   16.51305580  104.25499725    0.09000000    0.05000000
   16.51638794  105.38300323    0.09000000    0.05000000
   16.51944351  108.64600372    0.09000000    0.05000000
   16.52111053  120.27999878    0.09000000    0.05000000
   16.52305603  111.40699768    0.09000000    0.05000000
   16.52638817  106.74600220    0.09000000    0.05000000
   16.52944374  115.59300232    0.09000000    0.05000000
   16.53277779  100.81500244    0.09000000    0.05000000
   16.53610992  103.77899933    0.09000000    0.05000000
   16.54222107  103.77899933    0.09000000    0.05000000
   16.54611015  103.75599670    0.09000000    0.05000000
   16.54944420  101.86799622    0.09000000    0.05000000
   16.55277634  102.65699768    0.09000000    0.05000000
   16.55444336  103.80899811    0.09000000    0.05000000
   16.55638885  103.50499725    0.09000000    0.05000000
   16.55972099  104.32299805    0.09000000    0.05000000
   16.56277657  106.33300018    0.09000000    0.05000000
   16.56611061  113.27100372    0.09000000    0.05000000
   16.56916809  111.70700073    0.09000000    0.05000000
   16.57250023  103.49500275    0.09000000    0.05000000
   16.57583427  104.30899811    0.09000000    0.05000000
   16.57888985  110.40100098    0.09000000    0.05000000
   16.58500099  110.40100098    0.09000000    0.05000000
   16.58916664  105.80699921    0.09000000    0.05000000
   16.59222221  103.61100006    0.09000000    0.05000000
   16.59555626   99.93409729    0.09000000    0.05000000
   16.59889030  104.38700104    0.09000000    0.05000000
   16.60194397  107.23699951    0.09000000    0.05000000
   16.60527802  101.37400055    0.09000000    0.05000000
   16.60833359  110.84899902    0.09000000    0.05000000
   16.61166763  102.38300323    0.09000000    0.05000000
   16.61499977  114.51499939    0.09000000    0.05000000
   16.61805534  101.51000214    0.09000000    0.05000000
   16.62111092  110.23100281    0.09000000    0.05000000
   16.62194443  103.58799744    0.09000000    0.05000000
   16.62888908  103.58799744    0.09000000    0.05000000
   16.63305473  100.65200043    0.09000000    0.05000000
   16.63611031  118.62699890    0.09000000    0.05000000
   16.63944435  101.48699951    0.09000000    0.05000000
   16.64277840  101.50599670    0.09000000    0.05000000
   16.64583397  106.13400269    0.09000000    0.05000000
   16.64916611   98.44519806    0.09000000    0.05000000
   16.65222168  100.46099854    0.09000000    0.05000000
   16.65444374  106.05500031    0.09000000    0.05000000
   16.65611076   89.62120056    0.09000000    0.05000000
   16.65944481  108.87400055    0.09000000    0.05000000
   16.66333389   95.75450134    0.09000000    0.05000000
   16.66666603   92.03780365    0.09000000    0.05000000
   16.67083359   92.03780365    0.09000000    0.05000000
   16.67499924  110.10800171    0.09000000    0.05000000
   16.67805481  114.04000092    0.09000000    0.05000000
   16.68138885  101.08499908    0.09000000    0.05000000
   16.68472099  106.44999695    0.09000000    0.05000000
   16.68777657  107.21600342    0.09000000    0.05000000
   16.68833160  105.26499939    0.09000000    0.05000000
   16.69166565  110.76799774    0.09000000    0.05000000
   16.69472122  106.99400330    0.09000000    0.05000000
   16.69805527  108.98699951    0.09000000    0.05000000
   16.70111275  103.43099976    0.09000000    0.05000000
   16.70444489   99.68460083    0.09000000    0.05000000
   16.70777893   99.73210144    0.09000000    0.05000000
   16.71361160   99.73210144    0.09000000    0.05000000
   16.71777916  102.20099640    0.09000000    0.05000000
   16.72111130  103.30999756    0.09000000    0.05000000
   16.72166634  111.52400208    0.09000000    0.05000000
   16.72472191  113.73500061    0.09000000    0.05000000
   16.72805595  109.52200317    0.09000000    0.05000000
   16.73111153  107.53099823    0.09000000    0.05000000
   16.73444557  108.20200348    0.09000000    0.05000000
   16.73777771  100.06700134    0.09000000    0.05000000
   16.74083328  102.61799622    0.09000000    0.05000000
   16.74416733  104.80500031    0.09000000    0.05000000
   16.74749947  109.06999969    0.09000000    0.05000000
   16.75055504  115.96800232    0.09000000    0.05000000
   16.75638962  115.96800232    0.09000000    0.05000000
   16.76055527  113.37200165    0.09000000    0.05000000
   16.76388931   97.13960266    0.09000000    0.05000000
   16.76694489  107.74600220    0.09000000    0.05000000
   16.77027702  112.38800049    0.09000000    0.05000000
   16.77361107  106.44000244    0.09000000    0.05000000
   16.77666664  110.51499939    0.09000000    0.05000000
   16.78000069   98.85099792    0.09000000    0.05000000
   16.78333282  109.71099854    0.09000000    0.05000000
   16.78638840  118.03399658    0.09000000    0.05000000
   16.78833199  111.63400269    0.09000000    0.05000000
   16.78999901  118.82399750    0.09000000    0.05000000
   16.81083298  118.82399750    0.09000000    0.05000000
   16.81472206  111.36299896    0.09000000    0.05000000
   16.81805611  104.10500336    0.09000000    0.05000000
   16.82139015  113.52300262    0.09000000    0.05000000
   16.82194519  107.34999847    0.09000000    0.05000000
   16.82500076  115.04199982    0.09000000    0.05000000
   16.82833481  122.12000275    0.09000000    0.05000000
   16.83166695  120.12699890    0.09000000    0.05000000
   16.83472252  102.00299835    0.09000000    0.05000000
   16.83805656  115.51100159    0.09000000    0.05000000
   16.84111214  125.46900177    0.09000000    0.05000000
   16.84444427  124.11599731    0.09000000    0.05000000
   16.84777832  129.77799988    0.09000000    0.05000000
   16.85333443  129.77799988    0.09000000    0.05000000
   16.85750008  136.56799316    0.09000000    0.05000000
   16.86083412  118.08899689    0.09000000    0.05000000
   16.86416626  118.57199860    0.09000000    0.05000000
   16.86722183  138.47900391    0.09000000    0.05000000
   16.87055588  104.28700256    0.09000000    0.05000000
   16.87361145  111.73500061    0.09000000    0.05000000
   16.87694550  115.27400208    0.09000000    0.05000000
   16.88027763  114.35299683    0.09000000    0.05000000
   16.88333321  119.07800293    0.09000000    0.05000000
   16.88666725  111.91600037    0.09000000    0.05000000
   16.88861084  113.58200073    0.09000000    0.05000000
   16.89027786  114.88500214    0.09000000    0.05000000
   16.89638901  114.88500214    0.09000000    0.05000000
   16.90055466  111.59500122    0.09000000    0.05000000
   16.90361023  113.16000366    0.09000000    0.05000000
   16.90694427  105.13300323    0.09000000    0.05000000
   16.91027832  107.50399780    0.09000000    0.05000000
   16.91333389  121.44200134    0.09000000    0.05000000
   16.91666603  106.09799957    0.09000000    0.05000000
   16.92000008  118.28399658    0.09000000    0.05000000
   16.92194366  110.80999756    0.09000000    0.05000000
   16.92333221  113.53299713    0.09000000    0.05000000
   16.92666626  111.47100067    0.09000000    0.05000000
   16.93000031  119.06700134    0.09000000    0.05000000
   16.93305397  115.71299744    0.09000000    0.05000000
   16.93916512  115.71299744    0.09000000    0.05000000
   16.94333267  116.47100067    0.09000000    0.05000000
   16.94638824  118.37200165    0.09000000    0.05000000
   16.94972038  109.12000275    0.09000000    0.05000000
   16.95305634  119.72200012    0.09000000    0.05000000
   16.95527840  119.71800232    0.09000000    0.05000000
   16.95666695  123.81900024    0.09000000    0.05000000
   16.96000099  112.76599884    0.09000000    0.05000000
   16.96416664  108.22499847    0.09000000    0.05000000
   16.96750069  121.48999786    0.09000000    0.05000000
   16.97055626  121.74900055    0.09000000    0.05000000
   16.97389030  102.52300262    0.09000000    0.05000000
   16.97694588  118.84100342    0.09000000    0.05000000
   16.98194504  118.84100342    0.09000000    0.05000000
   16.98611069  101.62899780    0.09000000    0.05000000
   16.98861122  111.45999908    0.09000000    0.05000000
   16.98972321  113.87799835    0.09000000    0.05000000
   16.99305534  110.03500366    0.09000000    0.05000000
   16.99611092   96.96849823    0.09000000    0.05000000
   16.99944496  113.93800354    0.09000000    0.05000000
   17.00277710  115.08300018    0.09000000    0.05000000
   17.00583267  111.89199829    0.09000000    0.05000000
   17.00916672  101.64800262    0.09000000    0.05000000
   17.01222229  104.75299835    0.09000000    0.05000000
   17.01555634  111.24299622    0.09000000    0.05000000
   17.01888847  115.34700012    0.09000000    0.05000000
   17.02472115  115.34700012    0.09000000    0.05000000
   17.02888870  117.00099945    0.09000000    0.05000000
   17.03222275  115.64199829    0.09000000    0.05000000
   17.03555489  112.52600098    0.09000000    0.05000000
   17.03861046  107.75000000    0.09000000    0.05000000
   17.04194450  112.83100128    0.09000000    0.05000000
   17.04500008  110.56800079    0.09000000    0.05000000
   17.04833221  115.07299805    0.09000000    0.05000000
   17.05166626  116.53099823    0.09000000    0.05000000
   17.05472183  110.72299957    0.09000000    0.05000000
   17.05583191  106.37100220    0.09000000    0.05000000
   17.05833244  104.03700256    0.09000000    0.05000000
   17.06166649   96.71720123    0.09000000    0.05000000
   17.06777954   96.71720123    0.09000000    0.05000000
   17.07166672  106.72899628    0.09000000    0.05000000
   17.07500076  109.87799835    0.09000000    0.05000000
   17.07833481  114.64700317    0.09000000    0.05000000
   17.08139038  107.38999939    0.09000000    0.05000000
   17.08472252  109.60099792    0.09000000    0.05000000
   17.08805656  101.17500305    0.09000000    0.05000000
   17.08916664  123.05200195    0.09000000    0.05000000
   17.09166718  111.88500214    0.09000000    0.05000000
   17.09500122  109.82800293    0.09000000    0.05000000
   17.09833336  111.28800201    0.09000000    0.05000000
   17.10138893  105.59500122    0.09000000    0.05000000
   17.10472298   97.74230194    0.09000000    0.05000000
   17.11055565   97.74230194    0.09000000    0.05000000
   17.11472321   94.33789825    0.09000000    0.05000000
   17.11777878  106.49500275    0.09000000    0.05000000
   17.12111092  109.54000092    0.09000000    0.05000000
   17.12249947  101.54299927    0.09000000    0.05000000
   17.12472153   99.90550232    0.09000000    0.05000000
   17.12805557  107.16100311    0.09000000    0.05000000
   17.13111115  100.25199890    0.09000000    0.05000000
   17.13444519  105.07199860    0.09000000    0.05000000
   17.13750076   94.11309814    0.09000000    0.05000000
   17.14083290  106.59500122    0.09000000    0.05000000
   17.14416695  105.65499878    0.09000000    0.05000000
   17.14722252   97.34700012    0.09000000    0.05000000
   17.15333366   97.34700012    0.09000000    0.05000000
   17.15749931  112.09899902    0.09000000    0.05000000
   17.16083336   98.92230225    0.09000000    0.05000000
   17.16388893  107.25000000    0.09000000    0.05000000
   17.16722107  103.43199921    0.09000000    0.05000000
   17.17027664  100.98600006    0.09000000    0.05000000
   17.17361069  109.21600342    0.09000000    0.05000000
   17.17694473  106.62899780    0.09000000    0.05000000
   17.18000031  109.33399963    0.09000000    0.05000000
   17.18333244  108.65699768    0.09000000    0.05000000
   17.18666649  102.72200012    0.09000000    0.05000000
   17.18916512  110.41799927    0.09000000    0.05000000
   17.19027710   97.31590271    0.09000000    0.05000000
   17.19610977   97.31590271    0.09000000    0.05000000
   17.20027924  100.74500275    0.09000000    0.05000000
   17.20361137  102.47699738    0.09000000    0.05000000
   17.20666695   99.04969788    0.09000000    0.05000000
   17.21000099   98.14910126    0.09000000    0.05000000
   17.21333504  107.24800110    0.09000000    0.05000000
   17.21638870  110.43199921    0.09000000    0.05000000
   17.21972275  102.58300018    0.09000000    0.05000000
   17.22249985   95.67340088    0.09000000    0.05000000
   17.22333336  100.66699982    0.09000000    0.05000000
   17.22666740   95.22820282    0.09000000    0.05000000
   17.22972298  113.92800140    0.09000000    0.05000000
   17.23305511  109.66699982    0.09000000    0.05000000
   17.23916626  109.66699982    0.09000000    0.05000000
   17.24305534   97.80750275    0.09000000    0.05000000
   17.24638939  105.87599945    0.09000000    0.05000000
   17.24972153  108.09100342    0.09000000    0.05000000
   17.25277710  106.40799713    0.09000000    0.05000000
   17.25583267  104.32800293    0.09000000    0.05000000
   17.25638962   99.10209656    0.09000000    0.05000000
   17.25972176  109.91200256    0.09000000    0.05000000
   17.26277733   98.69660187    0.09000000    0.05000000
   17.26611137   97.01889801    0.09000000    0.05000000
   17.26916695  100.01200104    0.09000000    0.05000000
   17.27249908  102.17600250    0.09000000    0.05000000
   17.27583313   97.70269775    0.09000000    0.05000000
   17.28194427   97.70269775    0.09000000    0.05000000
   17.28610992  100.16300201    0.09000000    0.05000000
   17.28916550  111.54699707    0.09000000    0.05000000
   17.28972244   99.00789642    0.09000000    0.05000000
   17.29305458  103.22699738    0.09000000    0.05000000
   17.29611015  100.19699860    0.09000000    0.05000000
   17.29944420   97.78919983    0.09000000    0.05000000
   17.30249977  102.67400360    0.09000000    0.05000000
   17.30583191  100.80799866    0.09000000    0.05000000
   17.30916595  109.66899872    0.09000000    0.05000000
   17.31222153   97.81980133    0.09000000    0.05000000
   17.31555557  107.03700256    0.09000000    0.05000000
   17.31888962   98.80090332    0.09000000    0.05000000
   17.32472229   98.80090332    0.09000000    0.05000000
   17.32888985  100.71800232    0.09000000    0.05000000
   17.33222389  104.83300018    0.09000000    0.05000000
   17.33527756  103.63700104    0.09000000    0.05000000
   17.33861160  108.19999695    0.09000000    0.05000000
   17.34166718  110.90299988    0.09000000    0.05000000
   17.34500122  113.20999908    0.09000000    0.05000000
   17.34833336  112.38200378    0.09000000    0.05000000
   17.35138893  116.83499908    0.09000000    0.05000000
   17.35472298  103.47399902    0.09000000    0.05000000
   17.35583305  115.88200378    0.09000000    0.05000000
   17.35833359   94.86350250    0.09000000    0.05000000
   17.36166763  103.99099731    0.09000000    0.05000000
   17.36888885  103.99099731    0.09000000    0.05000000
   17.37277794   92.79470062    0.09000000    0.05000000
   17.37611198  102.64199829    0.09000000    0.05000000
   17.37944412  105.23899841    0.09000000    0.05000000
   17.38249969   99.35260010    0.09000000    0.05000000
   17.38583374  103.09400177    0.09000000    0.05000000
   17.38916588  103.13500214    0.09000000    0.05000000
   17.38972282   93.68199921    0.09000000    0.05000000
   17.39277840  105.16899872    0.09000000    0.05000000
   17.39611053   98.08940125    0.09000000    0.05000000
   17.39916611  104.07499695    0.09000000    0.05000000
   17.40250015  102.72299957    0.09000000    0.05000000
   17.40583229   93.60269928    0.09000000    0.05000000
   17.41027832   93.60269928    0.09000000    0.05000000
   17.41444397   98.26200104    0.09000000    0.05000000
   17.41777802  102.69899750    0.09000000    0.05000000
   17.42111015  102.32099915    0.09000000    0.05000000
   17.42305565   99.82559967    0.09000000    0.05000000
   17.42472076   99.25569916    0.09000000    0.05000000
   17.42777634   95.08180237    0.09000000    0.05000000
   17.43111038  102.74700165    0.09000000    0.05000000
   17.43444443  104.03399658    0.09000000    0.05000000
   17.43750000  103.16500092    0.09000000    0.05000000
   17.44083214  110.35700226    0.09000000    0.05000000
   17.44416618   98.70619965    0.09000000    0.05000000
   17.44722176  105.48300171    0.09000000    0.05000000
   17.45333481  105.48300171    0.09000000    0.05000000
   17.45750046  108.28800201    0.09000000    0.05000000
   17.46055603  101.60099792    0.09000000    0.05000000
   17.46389008  110.45600128    0.09000000    0.05000000
   17.46722221   99.21489716    0.09000000    0.05000000
   17.47027779  104.17199707    0.09000000    0.05000000
   17.47361183  103.65899658    0.09000000    0.05000000
   17.47666740  105.80200195    0.09000000    0.05000000
   17.48000145  101.50299835    0.09000000    0.05000000
   17.48333359   97.46040344    0.09000000    0.05000000
   17.48638916  103.29799652    0.09000000    0.05000000
   17.48972321  102.96700287    0.09000000    0.05000000
   17.49027824   96.38150024    0.09000000    0.05000000
   17.49611092   96.38150024    0.09000000    0.05000000
   17.50027847  103.50800323    0.09000000    0.05000000
   17.50361061  106.26000214    0.09000000    0.05000000
   17.50666618  107.67700195    0.09000000    0.05000000
   17.51000023  100.97699738    0.09000000    0.05000000
   17.51333427  100.22599792    0.09000000    0.05000000
   17.51638794   96.27230072    0.09000000    0.05000000
   17.51972198   94.41380310    0.09000000    0.05000000
   17.52305603  104.35600281    0.09000000    0.05000000
   17.52361107  110.53900146    0.09000000    0.05000000
   17.52666664  100.88700104    0.09000000    0.05000000
   17.52972221  107.58599854    0.09000000    0.05000000
   17.53305435  101.21900177    0.09000000    0.05000000
   17.53888893  101.21900177    0.09000000    0.05000000
   17.54305458   97.27230072    0.09000000    0.05000000
   17.54638863  102.14399719    0.09000000    0.05000000
   17.54944420  105.26200104    0.09000000    0.05000000
   17.55277634   98.77259827    0.09000000    0.05000000
   17.55611038   98.21720123    0.09000000    0.05000000
   17.55694389  107.69599915    0.09000000    0.05000000
   17.55972099  105.40000153    0.09000000    0.05000000
   17.56305504  103.39900208    0.09000000    0.05000000
   17.56611061  103.25399780    0.09000000    0.05000000
   17.56944466  111.50900269    0.09000000    0.05000000
   17.57277870  112.19899750    0.09000000    0.05000000
   17.57583427   99.21170044    0.09000000    0.05000000
   17.58194542   99.21170044    0.09000000    0.05000000
   17.58583450  103.53800201    0.09000000    0.05000000
   17.58916664   97.26830292    0.09000000    0.05000000
   17.59027863   92.11530304    0.09000000    0.05000000
   17.59305573  101.16899872    0.09000000    0.05000000
   17.59611130   93.96730042    0.09000000    0.05000000
   17.59944534   93.40229797    0.09000000    0.05000000
   17.60277748  103.73799896    0.09000000    0.05000000
   17.60583305  100.84999847    0.09000000    0.05000000
   17.60916710   96.57959747    0.09000000    0.05000000
   17.61222267   93.92590332    0.09000000    0.05000000
   17.61555672   96.80909729    0.09000000    0.05000000
   17.61888885   95.80549622    0.09000000    0.05000000
   17.62472153   95.80549622    0.09000000    0.05000000
   17.62888908   99.80999756    0.09000000    0.05000000
   17.63194466   96.08499908    0.09000000    0.05000000
   17.63527679   95.32270050    0.09000000    0.05000000
   17.63833237   98.28730011    0.09000000    0.05000000
   17.64166641  103.82099915    0.09000000    0.05000000
   17.64500046  103.74600220    0.09000000    0.05000000
   17.64805603  100.13300323    0.09000000    0.05000000
   17.65138817   99.69840240    0.09000000    0.05000000
   17.65472221  105.74600220    0.09000000    0.05000000
   17.65694427  101.25000000    0.09000000    0.05000000
   17.65833282  102.46900177    0.09000000    0.05000000
   17.66138840  100.22799683    0.09000000    0.05000000
   17.66749954  100.22799683    0.09000000    0.05000000
   17.67166519  103.34600067    0.09000000    0.05000000
   17.67472076  101.15799713    0.09000000    0.05000000
   17.67805481  102.92199707    0.09000000    0.05000000
   17.68138885   99.61920166    0.09000000    0.05000000
   17.68444443   93.21269989    0.09000000    0.05000000
   17.68777657   99.80110168    0.09000000    0.05000000
   17.69027710  105.03900146    0.09000000    0.05000000
   17.69166565  104.67400360    0.09000000    0.05000000
   17.69472122  105.29499817    0.09000000    0.05000000
   17.69805527  104.22799683    0.09000000    0.05000000
   17.70111275   98.22740173    0.09000000    0.05000000
   17.70444489   93.05950165    0.09000000    0.05000000
   17.71027946   93.05950165    0.09000000    0.05000000
   17.71444511  102.45600128    0.09000000    0.05000000
   17.71777916  106.35800171    0.09000000    0.05000000
   17.72083473   98.66110229    0.09000000    0.05000000
   17.72361183  100.20300293    0.09000000    0.05000000
   17.72472191   95.73570251    0.09000000    0.05000000
   17.72777748   99.56729889    0.09000000    0.05000000
   17.73111153   99.77549744    0.09000000    0.05000000
   17.73416710  105.56700134    0.09000000    0.05000000
   17.73750114   99.38860321    0.09000000    0.05000000
   17.74083328  105.33000183    0.09000000    0.05000000
   17.74388885  103.79100037    0.09000000    0.05000000
   17.74722290  105.33100128    0.09000000    0.05000000
   17.75305557  105.33100128    0.09000000    0.05000000
   17.75722313   99.70010376    0.09000000    0.05000000
   17.76055527   95.44819641    0.09000000    0.05000000
   17.76388931   98.60729980    0.09000000    0.05000000
   17.76694489   97.00330353    0.09000000    0.05000000
   17.77027702   95.00769806    0.09000000    0.05000000
   17.77333260  100.64800262    0.09000000    0.05000000
   17.77666664   98.59439850    0.09000000    0.05000000
   17.78000069  103.36499786    0.09000000    0.05000000
   17.78305435  102.29100037    0.09000000    0.05000000
   17.78638840  103.82399750    0.09000000    0.05000000
   17.78972244  104.05300140    0.09000000    0.05000000
   17.79027748  107.72599792    0.09000000    0.05000000
   17.79611015  107.72599792    0.09000000    0.05000000
   17.80027771  104.18800354    0.09000000    0.05000000
   17.80333328  110.24600220    0.09000000    0.05000000
   17.80666542  102.49400330    0.09000000    0.05000000
   17.82416725  103.50299835    0.09000000    0.05000000
   17.82638931  100.22799683    0.09000000    0.05000000
   17.82972336   98.12000275    0.09000000    0.05000000
   17.83277893  101.42600250    0.09000000    0.05000000
   17.83889008  101.42600250    0.09000000    0.05000000
   17.84305573  106.74500275    0.09000000    0.05000000
   17.84638977   99.76339722    0.09000000    0.05000000
   17.84944534  103.76000214    0.09000000    0.05000000
   17.85277748  104.28500366    0.09000000    0.05000000
   17.85583305  101.19200134    0.09000000    0.05000000
   17.85750008  105.57900238    0.09000000    0.05000000
   17.85972214  105.51799774    0.09000000    0.05000000
   17.86305618  108.12100220    0.09000000    0.05000000
   17.86611176  112.15899658    0.09000000    0.05000000
   17.86944389  101.82299805    0.09000000    0.05000000
   17.87249947  104.41899872    0.09000000    0.05000000
   17.87583351  103.93499756    0.09000000    0.05000000
   17.88166618  103.93499756    0.09000000    0.05000000
   17.88583374   99.66519928    0.09000000    0.05000000
   17.88916588  101.05400085    0.09000000    0.05000000
   17.89083290  100.14900208    0.09000000    0.05000000
   17.89277840  102.44200134    0.09000000    0.05000000
   17.89611053   99.54730225    0.09000000    0.05000000
   17.89916611  103.43099976    0.09000000    0.05000000
   17.90250015  103.30000305    0.09000000    0.05000000
   17.90555573  102.49900055    0.09000000    0.05000000
   17.90888786  104.90299988    0.09000000    0.05000000
   17.91222191  102.04199982    0.09000000    0.05000000
   17.91527748  101.78700256    0.09000000    0.05000000
   17.91860962   97.66480255    0.09000000    0.05000000
   17.92472076   97.66480255    0.09000000    0.05000000
   17.92860985  104.72599792    0.09000000    0.05000000
   17.93194389   97.90390015    0.09000000    0.05000000
   17.93527603  105.14800262    0.09000000    0.05000000
   17.93833160   97.69989777    0.09000000    0.05000000
   17.94166565  100.70099640    0.09000000    0.05000000
   17.94499969   98.64029694    0.09000000    0.05000000
   17.94805527  109.21700287    0.09000000    0.05000000
   17.95138931  100.66200256    0.09000000    0.05000000
   17.95472336  106.00700378    0.09000000    0.05000000
   17.95750046  105.22899628    0.09000000    0.05000000
   17.95833397  107.69300079    0.09000000    0.05000000
   17.96166801  108.73899841    0.09000000    0.05000000
   17.96750069  108.73899841    0.09000000    0.05000000
   17.97166634  106.61000061    0.09000000    0.05000000
   17.97472191  113.54100037    0.09000000    0.05000000
   17.97805595  101.35299683    0.09000000    0.05000000
   17.98139000  102.99299622    0.09000000    0.05000000
   17.98444557  104.22399902    0.09000000    0.05000000
   17.98777771  102.31900024    0.09000000    0.05000000
   17.99083328  101.19400024    0.09000000    0.05000000
   17.99138832  114.41799927    0.09000000    0.05000000
   17.99472237  105.59400177    0.09000000    0.05000000
   17.99777794  106.44599915    0.09000000    0.05000000
   18.00111198  109.56999969    0.09000000    0.05000000
   18.00444412  103.87200165    0.09000000    0.05000000
   18.01027870  103.87200165    0.09000000    0.05000000
   18.01444435  103.53099823    0.09000000    0.05000000
   18.01777840  103.04199982    0.09000000    0.05000000
   18.02083397   96.79799652    0.09000000    0.05000000
   18.02416611  108.94400024    0.09000000    0.05000000
   18.02472115  101.93900299    0.09000000    0.05000000
   18.02777672  103.20500183    0.09000000    0.05000000
   18.03111076  103.73200226    0.09000000    0.05000000
   18.03444481   95.00409698    0.09000000    0.05000000
   18.03750038  102.32599640    0.09000000    0.05000000
   18.04083252  104.08300018    0.09000000    0.05000000
   18.04416656  104.43299866    0.09000000    0.05000000
   18.04722214  101.06099701    0.09000000    0.05000000
   18.05305481  101.06099701    0.09000000    0.05000000
   18.05722237  104.37799835    0.09000000    0.05000000
   18.05805397  110.41699982    0.09000000    0.05000000
   18.06083298  100.54599762    0.09000000    0.05000000
   18.06416512  106.31900024    0.09000000    0.05000000
   18.06750107  101.64700317    0.09000000    0.05000000
   18.07055664  102.76599884    0.09000000    0.05000000
   18.07389069  105.35600281    0.09000000    0.05000000
   18.07722282  111.05100250    0.09000000    0.05000000
   18.08027840  103.91500092    0.09000000    0.05000000
   18.08416748  104.37599945    0.09000000    0.05000000
   18.08750153  105.81900024    0.09000000    0.05000000
   18.09055710  103.60399628    0.09000000    0.05000000
   18.09138870  103.58499908    0.09000000    0.05000000
   18.09722328  103.58499908    0.09000000    0.05000000
   18.10138893  104.18099976    0.09000000    0.05000000
   18.10472298  106.66699982    0.09000000    0.05000000
   18.10777855   99.48280334    0.09000000    0.05000000
   18.11111069  101.32199860    0.09000000    0.05000000
   18.11444473  100.68800354    0.09000000    0.05000000
   18.11750031   99.53410339    0.09000000    0.05000000
   18.12083435  101.09799957    0.09000000    0.05000000
   18.12416649  102.36299896    0.09000000    0.05000000
   18.12472153  102.64099884    0.09000000    0.05000000
   18.12777710  100.54699707    0.09000000    0.05000000
   18.13083267  100.98200226    0.09000000    0.05000000
   18.13416672  104.71199799    0.09000000    0.05000000
   18.13888931  104.71199799    0.09000000    0.05000000
   18.14305496   98.70770264    0.09000000    0.05000000
   18.14611053   99.89320374    0.09000000    0.05000000
   18.14944458   98.68019867    0.09000000    0.05000000
   18.15277672   96.92130280    0.09000000    0.05000000
   18.15583229  102.57299805    0.09000000    0.05000000
   18.15805435  100.58300018    0.09000000    0.05000000
   18.15972137   96.02649689    0.09000000    0.05000000
   18.16277695   98.80619812    0.09000000    0.05000000
   18.16611099   96.41799927    0.09000000    0.05000000
   18.16916656  103.68499756    0.09000000    0.05000000
   18.17249870  101.72299957    0.09000000    0.05000000
   18.17583275   99.04810333    0.09000000    0.05000000
   18.18166542   99.04810333    0.09000000    0.05000000
   18.18583298  100.49900055    0.09000000    0.05000000
   18.18916512   99.23090363    0.09000000    0.05000000
   18.19138718   98.88510132    0.09000000    0.05000000
   18.19277763  101.48500061    0.09000000    0.05000000
   18.19583321  101.95500183    0.09000000    0.05000000
   18.19972038  105.21800232    0.09000000    0.05000000
   18.20305634  100.36399841    0.09000000    0.05000000
   18.20611191  104.93399811    0.09000000    0.05000000
   18.20944595  101.84100342    0.09000000    0.05000000
   18.21250153  104.26200104    0.09000000    0.05000000
   18.21583366  100.51000214    0.09000000    0.05000000
   18.21916771  100.42099762    0.09000000    0.05000000
   18.23277855  100.42099762    0.09000000    0.05000000
   18.23694420  108.54699707    0.09000000    0.05000000
   18.24027824  107.29399872    0.09000000    0.05000000
   18.24361229  103.88200378    0.09000000    0.05000000
   18.24666786  102.78199768    0.09000000    0.05000000
   18.25000000  103.65100098    0.09000000    0.05000000
   18.25305557   99.27449799    0.09000000    0.05000000
   18.25638962   95.58059692    0.09000000    0.05000000
   18.25972176  104.43499756    0.09000000    0.05000000
   18.26277733   99.55809784    0.09000000    0.05000000
   18.26722145   99.55809784    0.09000000    0.05000000
   18.27138901  103.52899933    0.09000000    0.05000000
   18.27472115  102.24199677    0.09000000    0.05000000
   18.27805519  101.75700378    0.09000000    0.05000000
   18.28111076  103.79100037    0.09000000    0.05000000
   18.28444481  101.44599915    0.09000000    0.05000000
   18.28777695  110.09600067    0.09000000    0.05000000
   18.29083252  101.95999908    0.09000000    0.05000000
   18.29416656  104.00599670    0.09000000    0.05000000
   18.29722214  108.85900116    0.09000000    0.05000000
   18.30055428  100.91999817    0.09000000    0.05000000
   18.30249977  106.37000275    0.09000000    0.05000000
   18.30416679  104.91799927    0.09000000    0.05000000
   18.31027794  104.91799927    0.09000000    0.05000000
   18.31444359  103.77500153    0.09000000    0.05000000
   18.31750107   98.07009888    0.09000000    0.05000000
   18.32083511  107.07700348    0.09000000    0.05000000
   18.32389069  108.77999878    0.09000000    0.05000000
   18.32722282  101.37799835    0.09000000    0.05000000
   18.33055687  106.98100281    0.09000000    0.05000000
   18.33361244   99.40940094    0.09000000    0.05000000
   18.33583450  101.15000153    0.09000000    0.05000000
   18.33722305  107.19400024    0.09000000    0.05000000
   18.34055710  101.62500000    0.09000000    0.05000000
   18.34388924   96.98709869    0.09000000    0.05000000
   18.34694481   97.34269714    0.09000000    0.05000000
   18.35305595   97.34269714    0.09000000    0.05000000
   18.35722351  102.37799835    0.09000000    0.05000000
   18.36055565  104.68900299    0.09000000    0.05000000
   18.36361122   95.51260376    0.09000000    0.05000000
   18.36694527   99.60079956    0.09000000    0.05000000
   18.36916733  104.79900360    0.09000000    0.05000000
   18.37055588  103.06199646    0.09000000    0.05000000
   18.37388992  103.19499969    0.09000000    0.05000000
   18.37722206  103.16500092    0.09000000    0.05000000
   18.38027763  100.12400055    0.09000000    0.05000000
   18.38361168  102.94899750    0.09000000    0.05000000
   18.38666725  101.71900177    0.09000000    0.05000000
   18.38999939  104.23899841    0.09000000    0.05000000
   18.39583397  104.23899841    0.09000000    0.05000000
   18.39999962  104.18399811    0.09000000    0.05000000
   18.40250015   96.17569733    0.09000000    0.05000000
   18.40361023  100.17700195    0.09000000    0.05000000
   18.40694427  104.47299957    0.09000000    0.05000000
   18.40999985  104.74299622    0.09000000    0.05000000
   18.41333389  101.84500122    0.09000000    0.05000000
   18.41666603  108.79100037    0.09000000    0.05000000
   18.41972160  102.20099640    0.09000000    0.05000000
   18.42305565  101.22699738    0.09000000    0.05000000
   18.42611122  106.23100281    0.09000000    0.05000000
   18.42944336  101.56500244    0.09000000    0.05000000
   18.43277740  108.59100342    0.09000000    0.05000000
   18.43861008  108.59100342    0.09000000    0.05000000
   18.44277763  107.94100189    0.09000000    0.05000000
   18.44610977  104.46299744    0.09000000    0.05000000
   18.44944382   98.98709869    0.09000000    0.05000000
   18.45250130   99.93620300    0.09000000    0.05000000
   18.45583344  103.69300079    0.09000000    0.05000000
   18.45888901  106.77700043    0.09000000    0.05000000
   18.46222305  108.66200256    0.09000000    0.05000000
   18.46555710  105.93800354    0.09000000    0.05000000
   18.46861076  103.91899872    0.09000000    0.05000000
   18.46972275  108.44499969    0.09000000    0.05000000
   18.47222328  102.01300049    0.09000000    0.05000000
   18.47555542  103.70600128    0.09000000    0.05000000
   18.48166656  103.70600128    0.09000000    0.05000000
   18.48583412  108.70099640    0.09000000    0.05000000
   18.48888969  104.85700226    0.09000000    0.05000000
   18.49222183  101.31400299    0.09000000    0.05000000
   18.49527740  100.56700134    0.09000000    0.05000000
   18.49861145   96.69419861    0.09000000    0.05000000
   18.50194359   98.90619659    0.09000000    0.05000000
   18.50305557   99.67379761    0.09000000    0.05000000
   18.50527763  102.78099823    0.09000000    0.05000000
   18.50861168   98.69740295    0.09000000    0.05000000
   18.51194382  101.33599854    0.09000000    0.05000000
   18.51499939  103.04799652    0.09000000    0.05000000
   18.51833344   99.70420074    0.09000000    0.05000000
   18.52444458   99.70420074    0.09000000    0.05000000
   18.52861023  101.63999939    0.09000000    0.05000000
   18.53166580  103.14499664    0.09000000    0.05000000
   18.53499985  102.55899811    0.09000000    0.05000000
   18.53638840  110.75099945    0.09000000    0.05000000
   18.53861046  104.38099670    0.09000000    0.05000000
   18.54194450  103.22100067    0.09000000    0.05000000
   18.54500008  101.77300262    0.09000000    0.05000000
   18.54833221  101.34999847    0.09000000    0.05000000
   18.55166626  104.08000183    0.09000000    0.05000000
   18.55472183  101.76699829    0.09000000    0.05000000
   18.55805397  102.21399689    0.09000000    0.05000000
   18.56110954  102.84100342    0.09000000    0.05000000
   18.56722260  102.84100342    0.09000000    0.05000000
   18.57389069  103.24400330    0.09000000    0.05000000
   18.57722282  101.90100098    0.09000000    0.05000000
   18.58027840  102.50700378    0.09000000    0.05000000
   18.58361244  102.98300171    0.09000000    0.05000000
   18.58666801  101.99500275    0.09000000    0.05000000
   18.59000015  102.69300079    0.09000000    0.05000000
   18.59333420  100.01899719    0.09000000    0.05000000
   18.59638977  101.98899841    0.09000000    0.05000000
   18.59972191   99.55650330    0.09000000    0.05000000
   18.60305595  108.75900269    0.09000000    0.05000000
   18.60361099  105.11599731    0.09000000    0.05000000
   18.61000061  105.11599731    0.09000000    0.05000000
   18.61416626  103.89499664    0.09000000    0.05000000
   18.61750031  105.86000061    0.09000000    0.05000000
   18.62083435   96.49469757    0.09000000    0.05000000
   18.62388992  108.95099640    0.09000000    0.05000000
   18.62722206  105.23999786    0.09000000    0.05000000
   18.63027763  110.09700012    0.09000000    0.05000000
   18.63361168  103.29599762    0.09000000    0.05000000
   18.63694382  106.06300354    0.09000000    0.05000000
   18.63722229   98.43389893    0.09000000    0.05000000
   18.64055634  102.21299744    0.09000000    0.05000000
   18.64361191  104.76000214    0.09000000    0.05000000
   18.64694405  105.40899658    0.09000000    0.05000000
   18.65305519  105.40899658    0.09000000    0.05000000
   18.65722275  104.48500061    0.09000000    0.05000000
   18.66027832  100.37699890    0.09000000    0.05000000
   18.66361046  103.20400238    0.09000000    0.05000000
   18.66666603  100.90000153    0.09000000    0.05000000
   18.67000008  104.50499725    0.09000000    0.05000000
   18.67055511  101.23300171    0.09000000    0.05000000
   18.67388916  104.23699951    0.09000000    0.05000000
   18.67694473   98.71700287    0.09000000    0.05000000
   18.68027687  103.10099792    0.09000000    0.05000000
   18.68361092  104.25700378    0.09000000    0.05000000
   18.68666649  103.73799896    0.09000000    0.05000000
   18.68999863  102.81800079    0.09000000    0.05000000
   18.69583321  102.81800079    0.09000000    0.05000000
   18.70000076   98.76940155    0.09000000    0.05000000
   18.70333481  107.53299713    0.09000000    0.05000000
   18.70388985   98.38719940    0.09000000    0.05000000
   18.70694542  101.25299835    0.09000000    0.05000000
   18.71027946  106.66899872    0.09000000    0.05000000
   18.71333504   98.94730377    0.09000000    0.05000000
   18.71666718  101.42400360    0.09000000    0.05000000
   18.71972275  105.22899628    0.09000000    0.05000000
   18.72305679  106.77200317    0.09000000    0.05000000
   18.72638893  106.40599823    0.09000000    0.05000000
   18.72944450  106.79299927    0.09000000    0.05000000
   18.73277855  110.05699921    0.09000000    0.05000000
   18.73861122  110.05699921    0.09000000    0.05000000
   18.74277878  100.65899658    0.09000000    0.05000000
   18.74611092  104.47000122    0.09000000    0.05000000
   18.74916649  104.98600006    0.09000000    0.05000000
   18.75250053  101.97200012    0.09000000    0.05000000
   18.75583267  104.69699860    0.09000000    0.05000000
   18.75888824  106.10900116    0.09000000    0.05000000
   18.76222229  103.44100189    0.09000000    0.05000000
   18.76555634  103.38200378    0.09000000    0.05000000
   18.76861000   97.82009888    0.09000000    0.05000000
   18.77055550  104.64800262    0.09000000    0.05000000
   18.77222252  101.22599792    0.09000000    0.05000000
   18.77527809  101.36299896    0.09000000    0.05000000
   18.78138924  101.36299896    0.09000000    0.05000000
   18.78555489  104.09600067    0.09000000    0.05000000
   18.78888893  111.73300171    0.09000000    0.05000000
   18.79222107  103.28299713    0.09000000    0.05000000
   18.79527664  105.26300049    0.09000000    0.05000000
   18.79861069   99.28150177    0.09000000    0.05000000
   18.80194283  104.03900146    0.09000000    0.05000000
   18.80388832  103.99600220    0.09000000    0.05000000
   18.80555534   97.56030273    0.09000000    0.05000000
   18.80861092  103.22499847    0.09000000    0.05000000
   18.81194305  105.77899933    0.09000000    0.05000000
   18.81527710  106.12500000    0.09000000    0.05000000
   18.81833458   99.72709656    0.09000000    0.05000000
   18.82444572   99.72709656    0.09000000    0.05000000
   18.82833481  103.41400146    0.09000000    0.05000000
   18.83166695   97.33740234    0.09000000    0.05000000
   18.85000038  104.50900269    0.09000000    0.05000000
   18.85166740  101.69400024    0.09000000    0.05000000
   18.85472298  106.12400055    0.09000000    0.05000000
   18.85805511  104.82399750    0.09000000    0.05000000
   18.86138916  108.27100372    0.09000000    0.05000000
   18.86750031  108.27100372    0.09000000    0.05000000
   18.87166595   99.60420227    0.09000000    0.05000000
   18.87472153  105.39900208    0.09000000    0.05000000
   18.87805557  103.64600372    0.09000000    0.05000000
   18.88138962  104.39399719    0.09000000    0.05000000
   18.88333321  101.04299927    0.09000000    0.05000000
   18.88500023  103.39900208    0.09000000    0.05000000
   18.88833237  101.99600220    0.09000000    0.05000000
   18.89138794   96.90399933    0.09000000    0.05000000
   18.89472198   91.31279755    0.09000000    0.05000000
   18.89805603   97.58920288    0.09000000    0.05000000
   18.90111160   98.52549744    0.09000000    0.05000000
   18.90444374   96.10769653    0.09000000    0.05000000
   18.91027832   96.10769653    0.09000000    0.05000000
   18.91444397   99.73259735    0.09000000    0.05000000
   18.91666603  101.65899658    0.09000000    0.05000000
   18.91805458  104.68699646    0.09000000    0.05000000
   18.92138863   97.16519928    0.09000000    0.05000000
   18.92444420  102.47599792    0.09000000    0.05000000
   18.92777634  101.50700378    0.09000000    0.05000000
   18.93111038  101.26999664    0.09000000    0.05000000
   18.93416595  101.31600189    0.09000000    0.05000000
   18.93750000  105.65499878    0.09000000    0.05000000
   18.94055557  104.39499664    0.09000000    0.05000000
   18.94388771   99.88639832    0.09000000    0.05000000
   18.94722176  105.05000305    0.09000000    0.05000000
   18.95305634  105.05000305    0.09000000    0.05000000
   18.95722389  104.98500061    0.09000000    0.05000000
   18.96055603  103.16799927    0.09000000    0.05000000
   18.96361160  103.22100067    0.09000000    0.05000000
   18.96694565  101.33399963    0.09000000    0.05000000
   18.97027779   99.54930115    0.09000000    0.05000000
   18.97361183  104.09500122    0.09000000    0.05000000
   18.97666740  101.78299713    0.09000000    0.05000000
   18.98000145  104.62999725    0.09000000    0.05000000
   18.98305511   99.02829742    0.09000000    0.05000000
   18.98416710   98.58309937    0.09000000    0.05000000
   18.98666763  100.80699921    0.09000000    0.05000000
   18.98999977  105.67800140    0.09000000    0.05000000
   18.99611092  105.67800140    0.09000000    0.05000000
   19.00000000   98.87300110    0.09000000    0.05000000
   19.00333405  101.03700256    0.09000000    0.05000000
   19.00666618  102.79599762    0.09000000    0.05000000
   19.00972176   98.49359894    0.09000000    0.05000000
   19.01305580  104.87300110    0.09000000    0.05000000
   19.01638794  102.73699951    0.09000000    0.05000000
   19.01749992  102.80500031    0.09000000    0.05000000
   19.02000046  104.42900085    0.09000000    0.05000000
   19.02333260  108.98200226    0.09000000    0.05000000
   19.02638817  106.93699646    0.09000000    0.05000000
   19.02972221  106.38600159    0.09000000    0.05000000
   19.03305435  108.04399872    0.09000000    0.05000000
   19.03888893  108.04399872    0.09000000    0.05000000
   19.04305458  102.36799622    0.09000000    0.05000000
   19.04611015  100.17900085    0.09000000    0.05000000
   19.04944420  106.90499878    0.09000000    0.05000000
   19.05083275  101.68000031    0.09000000    0.05000000
   19.05305481  104.21600342    0.09000000    0.05000000
   19.05638885  105.44200134    0.09000000    0.05000000
   19.05944443  103.05999756    0.09000000    0.05000000
   19.06277657  104.52200317    0.09000000    0.05000000
   19.06611061  102.54599762    0.09000000    0.05000000
   19.06916809  106.96399689    0.09000000    0.05000000
   19.07250023  102.42500305    0.09000000    0.05000000
   19.07583427  102.45400238    0.09000000    0.05000000
   19.08166695  102.45400238    0.09000000    0.05000000
   19.08583450  108.25099945    0.09000000    0.05000000
   19.08889008  108.87300110    0.09000000    0.05000000
   19.09222221  111.23699951    0.09000000    0.05000000
   19.09555626  103.13500214    0.09000000    0.05000000
   19.09861183  102.44599915    0.09000000    0.05000000
   19.10194397  109.13500214    0.09000000    0.05000000
   19.10527802  102.44499969    0.09000000    0.05000000
   19.10833359  104.19100189    0.09000000    0.05000000
   19.11166763  110.83100128    0.09000000    0.05000000
   19.11499977  105.51000214    0.09000000    0.05000000
   19.11750031  108.75499725    0.09000000    0.05000000
   19.11861038  107.89299774    0.09000000    0.05000000
   19.12444496  107.89299774    0.09000000    0.05000000
   19.12861061  106.18699646    0.09000000    0.05000000
   19.13194466  105.67500305    0.09000000    0.05000000
   19.13500023  111.07599640    0.09000000    0.05000000
   19.13833237  111.63200378    0.09000000    0.05000000
   19.14166641  104.76699829    0.09000000    0.05000000
   19.14472198  106.29699707    0.09000000    0.05000000
   19.14805603  103.54499817    0.09000000    0.05000000
   19.15083313  102.24900055    0.09000000    0.05000000
   19.15166664   98.68019867    0.09000000    0.05000000
   19.15499878  103.23999786    0.09000000    0.05000000
   19.15805435  102.80300140    0.09000000    0.05000000
   19.16138840  107.11699677    0.09000000    0.05000000
   19.16749954  107.11699677    0.09000000    0.05000000
   19.17138863  103.41000366    0.09000000    0.05000000
   19.17472076  100.35500336    0.09000000    0.05000000
   19.17805481   98.52709961    0.09000000    0.05000000
   19.18111038  102.47399902    0.09000000    0.05000000
   19.18416595  104.24600220    0.09000000    0.05000000
   19.18472099   96.69889832    0.09000000    0.05000000
   19.18805504  103.44499969    0.09000000    0.05000000
   19.19111061  100.97699738    0.09000000    0.05000000
   19.19444275  103.58999634    0.09000000    0.05000000
   19.19777679  101.90599823    0.09000000    0.05000000
   19.20083427  100.81099701    0.09000000    0.05000000
   19.20416832  103.11199951    0.09000000    0.05000000
   19.21027946  103.11199951    0.09000000    0.05000000
   19.21444511   98.11479950    0.09000000    0.05000000
   19.21750069  101.06400299    0.09000000    0.05000000
   19.21805573  100.89399719    0.09000000    0.05000000
   19.22138977  107.62400055    0.09000000    0.05000000
   19.22444534  105.29000092    0.09000000    0.05000000
   19.22777748  105.79499817    0.09000000    0.05000000
   19.23111153   99.40910339    0.09000000    0.05000000
   19.23416710  107.32399750    0.09000000    0.05000000
   19.23750114  101.30300140    0.09000000    0.05000000
   19.24055672  104.31999969    0.09000000    0.05000000
   19.24388885   99.72160339    0.09000000    0.05000000
   19.24722290  104.82599640    0.09000000    0.05000000
   19.25333405  104.82599640    0.09000000    0.05000000
   19.25749969  104.69300079    0.09000000    0.05000000
   19.26055527  105.59100342    0.09000000    0.05000000
   19.26388931  103.66100311    0.09000000    0.05000000
   19.26722145  103.63999939    0.09000000    0.05000000
   19.27027702  106.50900269    0.09000000    0.05000000
   19.27361107   98.62680054    0.09000000    0.05000000
   19.27694511  104.68900299    0.09000000    0.05000000
   19.28000069  102.14600372    0.09000000    0.05000000
   19.28333282  106.58000183    0.09000000    0.05000000
   19.28416634  102.46399689    0.09000000    0.05000000
   19.28694344  102.27600098    0.09000000    0.05000000
   19.29027748  108.90299988    0.09000000    0.05000000
   19.29583359  108.90299988    0.09000000    0.05000000
   19.29999924  107.02200317    0.09000000    0.05000000
   19.30333328   99.02369690    0.09000000    0.05000000
   19.30638885   98.25640106    0.09000000    0.05000000
   19.30972099   99.41259766    0.09000000    0.05000000
   19.31305504  104.28800201    0.09000000    0.05000000
   19.31611061  103.93699646    0.09000000    0.05000000
   19.31750107  103.68199921    0.09000000    0.05000000
   19.31972313  102.31400299    0.09000000    0.05000000
   19.32305717  100.72399902    0.09000000    0.05000000
   19.32611275  103.04100037    0.09000000    0.05000000
   19.32944489  104.14399719    0.09000000    0.05000000
   19.33277893  106.40399933    0.09000000    0.05000000
   19.33861160  106.40399933    0.09000000    0.05000000
   19.34277916  104.78199768    0.09000000    0.05000000
   19.34611130  105.31600189    0.09000000    0.05000000
   19.34944534  103.26300049    0.09000000    0.05000000
   19.35111237  101.36299896    0.09000000    0.05000000
   19.35305595  103.45300293    0.09000000    0.05000000
   19.35611153  101.22899628    0.09000000    0.05000000
   19.35944557  104.85700226    0.09000000    0.05000000
   19.36277771  100.23699951    0.09000000    0.05000000
   19.36583328  105.48500061    0.09000000    0.05000000
   19.36916733  103.16000366    0.09000000    0.05000000
   19.37249947  105.04100037    0.09000000    0.05000000
   19.37555504  106.27100372    0.09000000    0.05000000
   19.38166618  106.27100372    0.09000000    0.05000000
   19.38583374  108.24099731    0.09000000    0.05000000
   19.38888931  105.69499969    0.09000000    0.05000000
   19.39222145  102.37400055    0.09000000    0.05000000
   19.39527702  102.81300354    0.09000000    0.05000000
   19.39861107  103.25900269    0.09000000    0.05000000
   19.40194321  104.84700012    0.09000000    0.05000000
   19.40499878  106.78500366    0.09000000    0.05000000
   19.40833282   92.72660065    0.09000000    0.05000000
   19.41166687  103.76599884    0.09000000    0.05000000
   19.41472244  105.89099884    0.09000000    0.05000000
   19.41777802  102.12400055    0.09000000    0.05000000
   19.41860962  102.10399628    0.09000000    0.05000000
   19.42444420  102.10399628    0.09000000    0.05000000
   19.42860985  106.34400177    0.09000000    0.05000000
   19.43166542  104.98200226    0.09000000    0.05000000
   19.43499947  104.77200317    0.09000000    0.05000000
   19.43833160  108.23500061    0.09000000    0.05000000
   19.44138718  102.00900269    0.09000000    0.05000000
   19.44472122  105.32700348    0.09000000    0.05000000
   19.44805527  103.91600037    0.09000000    0.05000000
   19.45111275  100.22000122    0.09000000    0.05000000
   19.45166779  106.03700256    0.09000000    0.05000000
   19.45472336  106.16000366    0.09000000    0.05000000
   19.45805550  104.71900177    0.09000000    0.05000000
   19.46138954  106.76499939    0.09000000    0.05000000
   19.46722221  106.76499939    0.09000000    0.05000000
   19.47138977  103.02200317    0.09000000    0.05000000
   19.47472191  107.02700043    0.09000000    0.05000000
   19.47777748  107.15299988    0.09000000    0.05000000
   19.48111153  106.19699860    0.09000000    0.05000000
   19.48444557  103.16899872    0.09000000    0.05000000
   19.48500061  110.59600067    0.09000000    0.05000000
   19.48805618  105.72499847    0.09000000    0.05000000
   19.49138832  105.38099670    0.09000000    0.05000000
   19.49444389  104.55899811    0.09000000    0.05000000
   19.49777794  118.09999847    0.09000000    0.05000000
   19.50111198  107.10600281    0.09000000    0.05000000
   19.50416756  105.37000275    0.09000000    0.05000000
   19.51000023  105.37000275    0.09000000    0.05000000
   19.51416588  104.77300262    0.09000000    0.05000000
   19.51749992  103.34500122    0.09000000    0.05000000
   19.51833344   99.56410217    0.09000000    0.05000000
   19.52111053  102.82800293    0.09000000    0.05000000
   19.52444458  100.80400085    0.09000000    0.05000000
   19.52750015  100.86599731    0.09000000    0.05000000
   19.53083229  103.14700317    0.09000000    0.05000000
   19.53416634  108.83000183    0.09000000    0.05000000
   19.53722191   98.03230286    0.09000000    0.05000000
   19.54055595  103.10800171    0.09000000    0.05000000
   19.54388809  100.21900177    0.09000000    0.05000000
   19.54694366  101.76599884    0.09000000    0.05000000
   19.55305481  101.76599884    0.09000000    0.05000000
   19.55722237   98.30699921    0.09000000    0.05000000
   19.56027794  104.56600189    0.09000000    0.05000000
   19.56361008  106.19899750    0.09000000    0.05000000
   19.56666756  108.48300171    0.09000000    0.05000000
   19.57000160  100.87200165    0.09000000    0.05000000
   19.57333374  100.43199921    0.09000000    0.05000000
   19.57638931   98.09380341    0.09000000    0.05000000
   19.57972336  104.23799896    0.09000000    0.05000000
   19.58305550  102.06999969    0.09000000    0.05000000
   19.58500099  108.13800049    0.09000000    0.05000000
   19.58638954  104.88600159    0.09000000    0.05000000
   19.58972359  103.41699982    0.09000000    0.05000000
   19.59583473  103.41699982    0.09000000    0.05000000
   19.60000038  102.53500366    0.09000000    0.05000000
   19.60305595  108.51499939    0.09000000    0.05000000
   19.60639000  110.76499939    0.09000000    0.05000000
   19.60972214  110.39099884    0.09000000    0.05000000
   19.61277771  106.31400299    0.09000000    0.05000000
   19.61611176  107.71600342    0.09000000    0.05000000
   19.61833382  104.49900055    0.09000000    0.05000000
   19.61972237  104.05000305    0.09000000    0.05000000
   19.62305641  104.60700226    0.09000000    0.05000000
   19.62638855  101.84100342    0.09000000    0.05000000
   19.62944412  108.16899872    0.09000000    0.05000000
   19.63277817  104.20899963    0.09000000    0.05000000
   19.63861084  104.20899963    0.09000000    0.05000000
   19.64277840  104.98600006    0.09000000    0.05000000
   19.64611053  108.05599976    0.09000000    0.05000000
   19.64916611  105.12200165    0.09000000    0.05000000
   19.65166664  106.86100006    0.09000000    0.05000000
   19.65277672  103.13600159    0.09000000    0.05000000
   19.65611076  106.11499786    0.09000000    0.05000000
   19.65944481  103.24500275    0.09000000    0.05000000
   19.66250038  104.03500366    0.09000000    0.05000000
   19.66583252  106.57199860    0.09000000    0.05000000
   19.66888809  104.83699799    0.09000000    0.05000000
   19.67222214   99.47599792    0.09000000    0.05000000
   19.67555428   97.83719635    0.09000000    0.05000000
   19.68138885   97.83719635    0.09000000    0.05000000
   19.68555450  108.59600067    0.09000000    0.05000000
   19.68888855  105.53900146    0.09000000    0.05000000
   19.69222069  108.32499695    0.09000000    0.05000000
   19.69527626  106.58999634    0.09000000    0.05000000
   19.69861031  112.76399994    0.09000000    0.05000000
   19.70194435  103.05300140    0.09000000    0.05000000
   19.70499992  104.18199921    0.09000000    0.05000000
   19.70833397  108.86799622    0.09000000    0.05000000
   19.71166801  107.31999969    0.09000000    0.05000000
   19.71472359  104.84600067    0.09000000    0.05000000
   19.71805573  105.24800110    0.09000000    0.05000000
   19.71861076  101.85900116    0.09000000    0.05000000
   19.72444534  101.85900116    0.09000000    0.05000000
   19.72861099  105.09300232    0.09000000    0.05000000
   19.73166656  107.01000214    0.09000000    0.05000000
   19.73500061  107.19999695    0.09000000    0.05000000
   19.73805618  107.13700104    0.09000000    0.05000000
   19.74138832  106.93000031    0.09000000    0.05000000
   19.74472237  105.87100220    0.09000000    0.05000000
   19.74805641  107.48600006    0.09000000    0.05000000
   19.75111198  101.13800049    0.09000000    0.05000000
   19.75194359  109.21499634    0.09000000    0.05000000
   19.75499916  106.74800110    0.09000000    0.05000000
   19.75805473  111.78500366    0.09000000    0.05000000
   19.76138878  111.03800201    0.09000000    0.05000000
   19.76722145  111.03800201    0.09000000    0.05000000
   19.78083229  110.29499817    0.00000000    0.00000000
   19.78388786  109.32800293    0.09000000    0.05000000
   19.78527641  111.60500336    0.09000000    0.05000000
   19.78777695  110.84999847    0.09000000    0.05000000
   19.79083252  107.76999664    0.09000000    0.05000000
   19.80277634  100.13500214    0.00000000    0.00000000
   19.80611038  106.62000275    0.09000000    0.05000000
   19.81222153  106.62000275    0.09000000    0.05000000
   19.81638718  103.29900360    0.09000000    0.05000000
   19.81916809  108.82499695    0.09000000    0.05000000
   19.82055664  110.73999786    0.09000000    0.05000000
   19.82389069  103.95300293    0.09000000    0.05000000
   19.82694626  110.23899841    0.09000000    0.05000000
   19.83027840  108.89099884    0.09000000    0.05000000
   19.83361244  106.52799988    0.09000000    0.05000000
   19.84638977  107.21199799    0.00000000    0.00000000
