    HOUR (UT)   FLARE FACTOR    SKY TESTER    SUN TESTER
   11.66750050   -1.00000000   -1.00000000   -1.00000000
   11.69027805  182.28799438    0.00000000    0.00000000
   11.69361115  167.21200562    0.00000000    0.00000000
   11.69666672  180.94900513    0.00000000    0.00000000
   11.69999981  187.59100342    0.00000000    0.00000000
   11.70333290  162.45899963    0.00000000    0.00000000
   11.70638847  179.92900085    0.00000000    0.00000000
   11.71055508  179.92900085    0.00000000    0.00000000
   11.71472168  155.12100220    0.00000000    0.00000000
   11.71805477  187.65600586    1.09000003    1.88000000
   11.72111034  151.05700684    1.09000003    1.88000000
   11.72361088  182.01100159    1.09000003    1.88000000
   11.72499943  154.31399536    1.09000003    1.88000000
   11.72833252  159.97799683    1.09000003    1.88000000
   11.73166656  207.51499939    1.09000003    1.88000000
   11.73472214  177.92500305    1.09000003    1.88000000
   11.73805618  172.19700623    1.09000003    1.88000000
   11.74194431  165.72000122    0.00000000    0.00000000
   11.74583340  175.27299500    0.00000000    0.00000000
   11.74972248  178.81900024    0.00000000    0.00000000
   11.75444412  178.81900024    0.00000000    0.00000000
   11.75916672  192.41099548    0.00000000    0.00000000
   11.76305580  186.42799377    0.00000000    0.00000000
   11.76694393  157.71699524    0.00000000    0.00000000
   11.76999950  157.89599609    1.09000003    1.91999996
   11.77333355  141.97399902    1.09000003    1.91999996
   11.77666664  173.67900085    1.09000003    1.91999996
   11.77999973  156.79200745    1.09000003    1.91999996
   11.78305531  157.36999512    1.09000003    1.91999996
   11.78638935  165.15600586    1.09000003    1.91999996
   11.78972244  156.99600220    1.09000003    1.91999996
   11.79027843  158.57899475    1.09000003    1.91999996
   11.79666710  158.57899475    1.07000005    1.91999996
   11.80083370  156.27400208    1.01999998    1.98000002
   11.80388927  152.95899963    1.01999998    1.98000002
   11.80722237  148.83000183    1.01999998    2.00000000
   11.81027794  159.31799316    1.03999996    1.98000002
   11.81361103  155.04699707    1.01999998    2.00000000
   11.81694412  157.69299316    1.01999998    2.01999998
   11.81999969  167.77299500    1.01999998    2.00000000
   11.82333374  174.71299744    1.01999998    2.00000000
   11.82388878  167.77600098    1.01999998    2.00000000
   11.82722187  160.52499390    1.01999998    2.01999998
   11.83027744  160.26499939    1.01999998    2.00000000
   11.83361053  156.41400146    1.00000000    2.01999998
   11.83944416  156.41400146    1.00000000    2.01999998
   11.84361076  172.80700684    1.00000000    2.01999998
   11.84666634  146.02699280    1.00000000    2.01999998
   11.85000038  153.83999634    1.00000000    2.01999998
   11.85333347  168.98399353    1.00000000    2.01999998
   11.85638905  183.26199341    1.00000000    2.01999998
   11.85722256  174.63699341    1.00000000    2.01999998
   11.86000061  153.24200439    1.00000000    2.01999998
   11.86333370  186.69700623    1.00000000    2.01999998
   11.86666679  188.54600525    1.00000000    2.01999998
   11.86972237  195.58299255    1.00000000    2.01999998
   11.87305546  164.59700012    1.00000000    2.01999998
   11.87638855  174.11099243    1.00000000    2.01999998
   11.88222218  174.11099243    1.00000000    2.01999998
   11.88638878  150.05000305    1.00000000    2.01999998
   11.89027786  148.35000610    0.00000000    0.00000000
   11.89083290  145.52699280    0.00000000    0.00000000
   11.89444447  156.23300171    0.00000000    0.00000000
   11.89833355  157.30299377    0.00000000    0.00000000
   11.90194416  160.02499390    0.00000000    0.00000000
   11.90583324  149.24000549    0.00000000    0.00000000
   11.90972137  143.48800659    0.00000000    0.00000000
   11.91361046  147.11999512    0.00000000    0.00000000
   11.91750050  152.94799805    0.00000000    0.00000000
   11.92083359  144.75500488    1.00000000    2.01999998
   11.92500019  144.75500488    1.00000000    2.01999998
   11.92916679  147.47200012    1.00000000    2.01999998
   11.93249989  148.09899902    1.00000000    2.01999998
   11.93583298  140.73800659    1.00000000    2.01999998
   11.93888855  146.89700317    1.00000000    2.01999998
   11.94222260  156.93400574    1.00000000    2.01999998
   11.94583321  147.86099243    1.01999998    2.01999998
   11.94888878  140.92700195    0.89999998    2.11999989
   11.95222187  144.80700684    0.89999998    2.11999989
   11.95527744  147.70199585    0.89999998    2.11999989
   11.95749950  142.78500366    0.89999998    2.11999989
   11.95916653  138.61199951    0.89999998    2.11999989
   11.96222210  140.51300049    0.89999998    2.11999989
   11.96805477  140.51300049    0.89999998    2.11999989
   11.97222137  146.35099792    0.88000000    2.11999989
   11.97527695  154.33299255    0.88000000    2.11999989
   11.97861099  153.45599365    0.88000000    2.11999989
   11.98166656  145.27600098    0.88000000    2.13000011
   11.98500061  154.18299866    0.88000000    2.11999989
   11.98833370  146.26600647    0.86000001    2.13000011
   11.99083328  152.52499390    0.86000001    2.13000011
   11.99194431  143.47900391    0.86000001    2.13000011
   11.99499989  145.17999268    0.86000001    2.13000011
   11.99833393  167.13299561    0.86000001    2.13000011
   12.00138855  147.59500122    0.86000001    2.13000011
   12.00472260  163.24099731    0.86000001    2.15000010
   12.01083374  163.24099731    0.86000001    2.15000010
   12.01500034  139.61000061    0.86000001    2.13000011
   12.01833344  144.05700684    0.86000001    2.15000010
   12.02166653  164.02099609    0.86000001    2.15000010
   12.02416611  154.11799622    0.86000001    2.15000010
   12.02527714  140.61799622    0.86000001    2.15000010
   12.02861118  138.20799255    0.86000001    2.15000010
   12.03166676  162.10899353    0.83999997    2.15000010
   12.03500080  150.42900085    0.86000001    2.15000010
   12.03833389  166.42599487    0.83999997    2.17000008
   12.04138947  147.15600586    0.83999997    2.15000010
   12.04472256  176.74600220    0.86000001    2.15000010
   12.04805565  184.20300293    0.83999997    2.17000008
   12.05388927  184.20300293    0.83999997    2.17000008
   12.05805588  168.04100037    0.83999997    2.17000008
   12.06111145  149.59399414    0.83999997    2.17000008
   12.06444454  160.80599976    0.83999997    2.17000008
   12.06777763  146.83500671    0.81999999    2.17000008
   12.07083321  178.10099792    0.81999999    2.19000006
   12.07416630  149.76100159    0.81999999    2.17000008
   12.07750034  153.84500122    0.81999999    2.17000008
   12.08083344  151.15800476    0.81999999    2.19000006
   12.08388901  168.87800598    0.83999997    2.19000006
   12.08722210  157.30400085    0.83999997    2.19000006
   12.09055519  173.17199707    0.81999999    2.19000006
   12.09111118  149.71899414    0.81999999    2.19000006
   12.09666634  149.71899414    0.81999999    2.19000006
   12.10083389  152.91799927    0.81999999    2.19000006
   12.10388947  151.94099426    0.81999999    2.21000004
   12.10722256  148.39500427    0.81999999    2.21000004
   12.11055565  144.33799744    0.81999999    2.21000004
   12.11361122  147.67799377    0.81999999    2.21000004
   12.11694431  129.93200684    0.80000001    2.21000004
   12.12027836  147.76499939    0.80000001    2.21000004
   12.12361145  151.59700012    0.80000001    2.21000004
   12.12444496  139.11199951    0.80000001    2.21000004
   12.12722206  150.08700562    0.80000001    2.21000004
   12.13055611  162.39100647    0.80000001    2.21000004
   12.13361073  149.44700623    0.80000001    2.21000004
   12.13944435  149.44700623    0.79000002    2.23000002
   12.14361095  196.33500671    0.79000002    2.23000002
   12.14694405  159.79299927    0.79000002    2.23000002
   12.15027714  151.59700012    0.79000002    2.23000002
   12.15361118  207.03399658    0.79000002    2.23000002
   12.15666676  193.28599548    0.79000002    2.23000002
   12.15777779  197.63499451    0.79000002    2.23000002
   12.16027737  189.54600525    0.79000002    2.23000002
   12.16361046  189.46499634    0.79000002    2.23000002
   12.16666698  170.17300415    0.79000002    2.23000002
   12.17000008  193.10899353    0.79000002    2.23000002
   12.17333412  189.06500244    0.79000002    2.23000002
   12.17638874  167.39399719    0.79000002    2.23000002
   12.18222237  167.39399719    0.76999998    2.25000000
   12.18638897  162.41799927    0.76999998    2.25000000
   12.18944454  158.85499573    0.76999998    2.25000000
   12.19111156  144.36599731    0.76999998    2.25000000
   12.19305515  184.94299316    0.76999998    2.25000000
   12.19638920  172.39300537    0.76999998    2.25000000
   12.19944477  168.12899780    0.76999998    2.25000000
   12.20277786  142.42599487    0.76999998    2.25000000
   12.20611095  135.43400574    0.76999998    2.25000000
   12.20916653  144.96600342    0.76999998    2.25000000
   12.21249962  143.17999268    0.76999998    2.25000000
   12.21583271  139.42399597    0.76999998    2.25000000
   12.21888828  131.07499695    0.75000000    2.25000000
   12.22499943  131.07499695    0.75000000    2.26999998
   12.22916603  141.60600281    0.75000000    2.26999998
   12.23249912  135.36300659    0.75000000    2.26999998
   12.23555565  143.30000305    0.75000000    2.26999998
   12.23888874  134.49000549    0.75000000    2.26999998
   12.24222279  142.86799622    0.75000000    2.26999998
   12.24527836  134.59500122    0.75000000    2.26999998
   12.24861145  135.88499451    0.75000000    2.26999998
   12.25166702  127.37699890    0.73000002    2.26999998
   12.25500011  143.48899841    0.73000002    2.28999996
   12.25777817  133.68899536    0.73000002    2.28999996
   12.25861073  133.67599487    0.73000002    2.28999996
   12.26194477  132.03999329    0.75000000    2.28999996
   12.26777744  132.03999329    0.73000002    2.28999996
   12.27194405  142.58900452    0.73000002    2.26999998
   12.27527714  127.82900238    0.73000002    2.26999998
   12.27861118  141.87899780    0.73000002    2.28999996
   12.28166676  133.64999390    0.73000002    2.28999996
   12.28500080  129.54299927    0.73000002    2.28999996
   12.28805637  134.44900513    0.73000002    2.28999996
   12.29111195  147.11700439    0.70999998    2.28999996
   12.29166698  143.00799561    0.70999998    2.28999996
   12.29500008  135.32000732    0.70999998    2.28999996
   12.29805565  138.37300110    0.70999998    2.30999994
   12.30138874  142.06599426    0.70999998    2.30999994
   12.30472279  133.63000488    0.70999998    2.30999994
   12.31083393  133.63000488    0.70999998    2.30999994
   12.31472206  123.44599915    0.70999998    2.30999994
   12.31805515  151.91099548    0.70999998    2.30999994
   12.32138920  137.34800720    0.70999998    2.30999994
   12.32444477  162.05299377    0.70999998    2.32999992
   12.32499981  136.99299622    0.70999998    2.32999992
   12.32861137  155.05499268    0.70999998    2.32999992
   12.33194447  130.77600098    0.70999998    2.32999992
   12.33527756  132.25300598    0.70999998    2.32999992
   12.33833313  142.69700623    0.70999998    2.30999994
   12.34166622  137.12399292    0.70999998    2.30999994
   12.34472179  137.61999512    0.69000000    2.30999994
   12.34805489  142.96899414    0.69000000    2.30999994
   12.35361195  142.96899414    0.69000000    2.30999994
   12.35777855  132.26899719    0.70999998    2.30999994
   12.36083412  132.18499756    0.70999998    2.32999992
   12.36416721  127.12000275    0.69000000    2.32999992
   12.36750031  129.74499512    0.70999998    2.32999992
   12.37055588  128.60299683    0.70999998    2.32999992
   12.37388897  132.71200562    0.69000000    2.32999992
   12.37694454  127.07700348    0.69000000    2.32999992
   12.38027763  131.72300720    0.69000000    2.32999992
   12.38361073  132.14500427    0.69000000    2.32999992
   12.38666630  134.12100220    0.69000000    2.32999992
   12.39000034  130.09700012    0.69000000    2.32999992
   12.39111137  128.34399414    0.69000000    2.32999992
   12.39638901  128.34399414    0.69000000    2.32999992
   12.40055561  130.56700134    0.69000000    2.32999992
   12.40388870  127.95200348    0.69000000    2.34999990
   12.40694427  128.38800049    0.69000000    2.32999992
   12.41027737  125.58000183    0.69000000    2.32999992
   12.41333294  126.59999847    0.69000000    2.34999990
   12.41666698  129.87600708    0.69000000    2.34999990
   12.42000008  127.57199860    0.67000002    2.34999990
   12.42305565  129.66200256    0.67000002    2.34999990
   12.42444515  133.76899719    0.69000000    2.34999990
   12.42666721  129.08799744    0.69000000    2.34999990
   12.43000031  126.57199860    0.69000000    2.34999990
   12.43333340  131.55299377    0.67000002    2.34999990
   12.43916702  131.55299377    0.69000000    2.36999989
   12.44333363  125.62300110    0.69000000    2.34999990
   12.44666672  124.77500153    0.67000002    2.34999990
   12.44999981  131.62100220    0.67000002    2.34999990
   12.45305538  129.30099487    0.67000002    2.36999989
   12.45638847  128.05499268    0.67000002    2.34999990
   12.45777798  134.33399963    0.67000002    2.36999989
   12.46000004  130.53199768    0.67000002    2.36999989
   12.46333313  122.47200012    0.67000002    2.36999989
   12.46666622  129.15299988    0.67000002    2.36999989
   12.46972179  131.92700195    0.64999998    2.36999989
   12.47305489  122.27799988    0.67000002    2.36999989
   12.47611046  136.88400269    0.64999998    2.36999989
   12.48222160  136.88400269    0.67000002    2.36999989
   12.48611164  128.99699402    0.64999998    2.36999989
   12.48944473  124.59899902    0.64999998    2.36999989
   12.49111176  126.48000336    0.64999998    2.36999989
   12.49305534  129.97799683    0.64999998    2.36999989
   12.49638939  133.65199280    0.64999998    2.36999989
   12.49972248  131.69700623    0.64999998    2.36999989
   12.50277805  134.71499634    0.64999998    2.36999989
   12.50611115  133.18200684    0.64999998    2.36999989
   12.50944424  130.82499695    0.64999998    2.39000010
   12.51249981  128.50100708    0.64999998    2.39000010
   12.51583290  123.72599792    0.64999998    2.39000010
   12.51888847  125.31500244    0.64999998    2.39000010
   12.52499962  125.31500244    0.64999998    2.39000010
   12.52972221  131.62300110    0.64999998    2.39000010
   12.53305531  137.35400391    0.64999998    2.39000010
   12.53611183  138.35299683    0.64999998    2.39000010
   12.53944492  124.16300201    0.63000000    2.39000010
   12.54277802  131.69200134    0.63000000    2.39000010
   12.54583359  139.59500122    0.63000000    2.39000010
   12.54916668  140.45199585    0.64999998    2.39000010
   12.55222225  144.50000000    0.64999998    2.39000010
   12.55555534  120.88999939    0.63000000    2.39000010
   12.55777836  122.33000183    0.63000000    2.39000010
   12.55916691  132.97500610    0.63000000    2.39000010
   12.56250000  127.86399841    0.63000000    2.39000010
   12.56777763  127.86399841    0.63000000    2.39000010
   12.57194424  124.19699860    0.63000000    2.40000010
   12.57527733  132.52699280    0.63000000    2.40000010
   12.57833290  126.23300171    0.63000000    2.40000010
   12.58166695  127.46600342    0.63000000    2.40000010
   12.58472157  124.27400208    0.63000000    2.40000010
   12.58805561  126.02200317    0.63000000    2.40000010
   12.59111118  124.80200195    0.63000000    2.40000010
   12.59166622  125.94200134    0.63000000    2.40000010
   12.59499931  120.21900177    0.63000000    2.40000010
   12.59833336  128.96699524    0.63000000    2.40000010
   12.60138893  123.73300171    0.63000000    2.40000010
   12.60472298  127.13300323    0.63000000    2.40000010
   12.61055565  127.13300323    0.63000000    2.42000008
   12.61472225  122.21199799    0.63000000    2.40000010
   12.61805534  121.30599976    0.63000000    2.40000010
   12.62111092  126.96399689    0.63000000    2.40000010
   12.62444496  120.57099915    0.61000001    2.40000010
   12.62472248  119.72200012    0.61000001    2.40000010
   12.62805557  121.90499878    0.63000000    2.40000010
   12.63138866  121.10299683    0.63000000    2.40000010
   12.63444424  126.48699951    0.61000001    2.40000010
   12.63777733  126.58000183    0.61000001    2.42000008
   12.64111137  125.55400085    0.63000000    2.42000008
   12.64416695  121.98000336    0.61000001    2.40000010
   12.64750004  125.02400208    0.61000001    2.42000008
   12.65361118  125.02400208    0.61000001    2.40000010
   12.65749931  130.28199768    0.61000001    2.42000008
   12.65805531  127.51300049    0.61000001    2.42000008
   12.66138840  122.27300262    0.61000001    2.42000008
   12.66472149  126.12999725    0.61000001    2.42000008
   12.66777802  127.25499725    0.58999997    2.42000008
   12.67111111  122.36599731    0.61000001    2.42000008
   12.67444515  125.02200317    0.61000001    2.42000008
   12.67750072  123.10700226    0.58999997    2.44000006
   12.68083382  121.18199921    0.58999997    2.42000008
   12.68388939  118.42500305    0.58999997    2.42000008
   12.68722248  126.65299988    0.58999997    2.42000008
   12.69055557  120.21099854    0.58999997    2.42000008
   12.70749950  122.47399902    0.56999999    2.44000006
   12.71166611  122.47399902    0.56999999    2.44000006
   12.71583271  121.89099884    0.56999999    2.42000008
   12.71916580  116.12400055    0.56999999    2.44000006
   12.72222137  122.27600098    0.58999997    2.44000006
   12.72555542  124.70800018    0.56999999    2.44000006
   12.72888851  125.03800201    0.56999999    2.44000006
   12.73194408  119.14700317    0.56999999    2.44000006
   12.73527813  118.99800110    0.56999999    2.46000004
   12.73861122  123.69100189    0.56999999    2.46000004
   12.74083328  124.73400116    0.56999999    2.46000004
   12.74222279  124.40200043    0.56999999    2.46000004
   12.74527836  121.58000183    0.56999999    2.46000004
   12.74861145  125.81999969    0.56999999    2.46000004
   12.75444412  125.81999969    0.56999999    2.46000004
   12.75861073  124.62300110    0.56999999    2.46000004
   12.76194477  121.83000183    0.55000001    2.46000004
   12.76527786  122.33899689    0.56999999    2.46000004
   12.76833344  123.54000092    0.56999999    2.46000004
   12.77166653  123.12500000    0.56999999    2.46000004
   12.77416611  121.92400360    0.55000001    2.46000004
   12.77527714  121.50299835    0.55000001    2.46000004
   12.77833271  126.01599884    0.55000001    2.46000004
   12.78166676  119.23999786    0.55000001    2.46000004
   12.78472233  119.19000244    0.55000001    2.46000004
   12.78805637  124.45500183    0.55000001    2.48000002
   12.79138947  127.35099792    0.55000001    2.46000004
   12.79750061  127.35099792    0.55000001    2.46000004
   12.80166721  124.70600128    0.55000001    2.46000004
   12.80472279  120.29399872    0.55000001    2.46000004
   12.80749989  119.52400208    0.55000001    2.46000004
   12.80861092  121.65299988    0.55000001    2.46000004
   12.81166649  130.59500122    0.55000001    2.46000004
   12.81500053  117.39700317    0.55000001    2.46000004
   12.81805515  119.59500122    0.55000001    2.48000002
   12.82138920  115.98500061    0.55000001    2.46000004
   12.82472229  114.41600037    0.55000001    2.46000004
   12.82777786  125.17099762    0.56999999    2.46000004
   12.83111095  122.70800018    0.55000001    2.48000002
   12.83444405  122.50499725    0.56999999    2.46000004
   12.84027767  122.50499725    0.56999999    2.48000002
   12.84444427  122.32099915    0.56999999    2.48000002
   12.84749985  117.58999634    0.56999999    2.48000002
   12.85083389  120.94799805    0.58999997    2.46000004
   12.85416698  113.95400238    0.58999997    2.46000004
   12.85722256  121.02100372    0.61000001    2.48000002
   12.86055565  119.89399719    0.58999997    2.48000002
   12.86388969  125.15799713    0.58999997    2.46000004
   12.86694431  121.18800354    0.58999997    2.46000004
   12.87027836  120.30500031    0.58999997    2.48000002
   12.87333393  124.72499847    0.61000001    2.48000002
   12.87527752  116.50800323    0.61000001    2.48000002
   12.87722206  121.50700378    0.61000001    2.48000002
   12.88305569  121.50700378    0.63000000    2.48000002
   12.88722229  121.17500305    0.61000001    2.48000002
   12.89055538  116.26200104    0.61000001    2.48000002
   12.89361095  114.13899994    0.61000001    2.48000002
   12.89694405  121.38700104    0.61000001    2.48000002
   12.89999962  111.62000275    0.61000001    2.48000002
   12.90333271  115.50599670    0.61000001    2.48000002
   12.90666676  121.97699738    0.58999997    2.50000000
   12.90861034  122.80999756    0.56999999    2.48000002
   12.91027737  121.70899963    0.56999999    2.48000002
   12.91361046  122.05699921    0.56999999    2.50000000
   12.91666698  118.51599884    0.56999999    2.50000000
   12.92000008  115.49500275    0.55000001    2.48000002
   12.92583370  115.49500275    0.55000001    2.48000002
   12.93000031  118.30899811    0.55000001    2.50000000
   12.93333340  122.91799927    0.55000001    2.48000002
   12.93666649  122.05100250    0.55000001    2.50000000
   12.93972206  120.69799805    0.55000001    2.50000000
   12.94222260  126.09300232    0.55000001    2.50000000
   12.94333363  117.45099640    0.55000001    2.50000000
   12.94666672  125.41300201    0.55000001    2.48000002
   12.94999981  122.43099976    0.55000001    2.48000002
   12.95305538  119.89399719    0.55000001    2.50000000
   12.95638847  124.44499969    0.55000001    2.48000002
   12.95972157  120.29299927    0.55000001    2.50000000
   12.96277714  115.78099823    0.55000001    2.50000000
   12.96888828  115.78099823    0.52999997    2.51999998
   12.97277737  124.45700073    0.55000001    2.50000000
   12.97555542  117.70600128    0.55000001    2.50000000
   12.97638798  112.26200104    0.52999997    2.50000000
   12.97972202  119.59799957    0.55000001    2.50000000
   12.98305511  117.16200256    0.52999997    2.50000000
   12.98611164  122.19699860    0.52999997    2.50000000
   12.98944473  113.29799652    0.52999997    2.50000000
   12.99277782  122.97399902    0.52999997    2.51999998
   12.99583340  116.20500183    0.55000001    2.51999998
   12.99916649  121.33399963    0.55000001    2.50000000
   13.00222206  111.34799957    0.52999997    2.51999998
   13.00555515  124.88200378    0.52999997    2.50000000
   13.01166630  124.88200378    0.55000001    2.51999998
   13.01583290  114.36799622    0.55000001    2.51999998
   13.01888847  115.58000183    0.55000001    2.51999998
   13.02222157  111.29399872    0.55000001    2.51999998
   13.02555561  123.85500336    0.55000001    2.51999998
   13.02861118  109.68399811    0.55000001    2.50000000
   13.03194427  114.99199677    0.55000001    2.51999998
   13.03500080  111.14299774    0.55000001    2.51999998
   13.03833389  122.96299744    0.55000001    2.51999998
   13.04166698  121.24700165    0.55000001    2.50000000
   13.04250050  117.16799927    0.55000001    2.50000000
   13.04527855  114.09600067    0.55000001    2.51999998
   13.04861164  118.42199707    0.55000001    2.51999998
   13.05444431  118.42199707    0.55000001    2.51999998
   13.05861092  122.73899841    0.56999999    2.51999998
   13.06194496  113.88999939    0.56999999    2.51999998
   13.06500053  108.70700073    0.56999999    2.51999998
   13.06833363  116.34100342    0.55000001    2.51999998
   13.07166672  123.19599915    0.55000001    2.51999998
   13.07472229  120.43699646    0.55000001    2.51999998
   13.07583332  120.70200348    0.55000001    2.51999998
   13.07861137  116.31999969    0.56999999    2.51999998
   13.08166695  118.42199707    0.56999999    2.51999998
   13.08500004  115.38400269    0.56999999    2.51999998
   13.08833313  115.72299957    0.56999999    2.51999998
   13.09138870  117.85299683    0.56999999    2.51999998
   13.09722233  117.85299683    0.56999999    2.51999998
   13.10138893  120.99700165    0.56999999    2.51999998
   13.10472298  116.89099884    0.55000001    2.53999996
   13.10777855  110.06700134    0.55000001    2.53999996
   13.10944462  118.68399811    0.55000001    2.53999996
   13.11138916  114.55000305    0.56999999    2.53999996
   13.11472225  114.82399750    0.55000001    2.53999996
   13.11805534  110.80200195    0.55000001    2.51999998
   13.12111092  117.67099762    0.55000001    2.53999996
   13.12444496  113.19200134    0.55000001    2.53999996
   13.12777805  117.44999695    0.55000001    2.51999998
   13.13083363  108.78500366    0.55000001    2.53999996
   13.13416672  112.71299744    0.55000001    2.53999996
   13.14027786  112.71299744    0.55000001    2.53999996
   13.14444447  118.49199677    0.55000001    2.53999996
   13.14750004  111.39299774    0.55000001    2.53999996
   13.15083313  116.91000366    0.55000001    2.53999996
   13.15388870  112.07700348    0.55000001    2.53999996
   13.15722179  109.30899811    0.55000001    2.53999996
   13.16055489  118.07299805    0.55000001    2.53999996
   13.16361046  116.91500092    0.55000001    2.53999996
   13.16694450  115.45700073    0.55000001    2.53999996
   13.17027855  113.88400269    0.55000001    2.53999996
   13.17333412  109.36499786    0.55000001    2.53999996
   13.17611122  112.02300262    0.52999997    2.53999996
   13.17694473  118.09100342    0.52999997    2.53999996
   13.18305588  118.09100342    0.52999997    2.53999996
   13.18722248  108.99299622    0.52999997    2.53999996
   13.19027805  110.50900269    0.51999998    2.53999996
   13.19361115  111.47399902    0.51999998    2.53999996
   13.19694424  105.91699982    0.51999998    2.53999996
   13.19999981  116.74700165    0.52999997    2.53999996
   13.20333290  109.37000275    0.51999998    2.53999996
   13.20666695  118.07199860    0.51999998    2.53999996
   13.20944405  116.07700348    0.52999997    2.55999994
   13.21027756  119.26799774    0.52999997    2.55999994
   13.21333313  109.01100159    0.51999998    2.55999994
   13.21666622  118.39199829    0.52999997    2.55999994
   13.21999931  112.73000336    0.52999997    2.55999994
   13.22583294  112.73000336    0.52999997    2.53999996
   13.22999954  113.91500092    0.51999998    2.53999996
   13.23333359  111.29299927    0.52999997    2.55999994
   13.23638916  118.17700195    0.51999998    2.55999994
   13.23972225  117.23300171    0.51999998    2.55999994
   13.24277782  110.27400208    0.51999998    2.55999994
   13.24305534  106.99900055    0.51999998    2.53999996
   13.24638939  112.17900085    0.51999998    2.53999996
   13.24972248  114.22399902    0.52999997    2.55999994
   13.25277805  109.17800140    0.51999998    2.55999994
   13.25611115  109.91500092    0.51999998    2.55999994
   13.25944424  116.05400085    0.51999998    2.55999994
   13.26249981  106.06500244    0.51999998    2.55999994
   13.26861095  106.06500244    0.51999998    2.55999994
   13.27277756  116.16600037    0.50000000    2.55999994
   13.27611065  115.95899963    0.50000000    2.55999994
   13.27666664  112.80300140    0.50000000    2.55999994
   13.27972221  110.75800323    0.51999998    2.55999994
   13.28305531  104.59200287    0.51999998    2.55999994
   13.28611183  118.94200134    0.51999998    2.55999994
   13.28944492  110.29100037    0.51999998    2.55999994
   13.29277802  112.27700043    0.50000000    2.55999994
   13.29583359  109.22200012    0.51999998    2.55999994
   13.29916668  112.28900146    0.51999998    2.55999994
   13.30249977  110.89299774    0.51999998    2.55999994
   13.30555534  113.68099976    0.50000000    2.55999994
   13.31166649  113.68099976    0.51999998    2.55999994
   13.31555557  115.90200043    0.50000000    2.55999994
   13.31888866  109.74800110    0.51999998    2.55999994
   13.32222176  110.97799683    0.50000000    2.55999994
   13.32527733  112.43399811    0.50000000    2.55999994
   13.32861137  113.98200226    0.51999998    2.55999994
   13.33194447  113.34300232    0.50000000    2.55999994
   13.33500004  109.96399689    0.50000000    2.55999994
   13.33833313  117.12000275    0.50000000    2.57999992
   13.34166622  107.98100281    0.50000000    2.55999994
   13.34277725  111.89399719    0.50000000    2.55999994
   13.34527779  108.40599823    0.50000000    2.55999994
   13.34833336  113.00299835    0.50000000    2.55999994
   13.35444450  113.00299835    0.50000000    2.55999994
   13.35861111  109.68000031    0.50000000    2.57999992
   13.36166668  110.82199860    0.50000000    2.55999994
   13.36500072  108.88700104    0.50000000    2.57999992
   13.36833382  111.01599884    0.50000000    2.57999992
   13.37138939  111.81900024    0.50000000    2.55999994
   13.37472248  113.08499908    0.50000000    2.55999994
   13.37611103  112.51399994    0.50000000    2.57999992
   13.37833309  114.78800201    0.50000000    2.57999992
   13.38138866  115.08200073    0.50000000    2.55999994
   13.38472176  106.73999786    0.50000000    2.57999992
   13.38805580  104.96499634    0.50000000    2.57999992
   13.39111137  110.57399750    0.50000000    2.57999992
   13.39722252  110.57399750    0.50000000    2.57999992
   13.40138817  114.52400208    0.50000000    2.57999992
   13.40472221  106.61599731    0.50000000    2.57999992
   13.40777779  110.90599823    0.50000000    2.57999992
   13.40972137  109.31300354    0.50000000    2.57999992
   13.41166592  111.72299957    0.50000000    2.57999992
   13.41472149  107.54000092    0.47999999    2.57999992
   13.41805553  112.35299683    0.47999999    2.57999992
   13.42111111  106.64499664    0.47999999    2.57999992
   13.42444515  110.06300354    0.47999999    2.57999992
   13.42777824  110.22499847    0.50000000    2.57999992
   13.43083382  110.90799713    0.47999999    2.57999992
   13.43416691  106.38500214    0.47999999    2.57999992
   13.44000053  106.38500214    0.47999999    2.57999992
   13.44416714  109.26999664    0.47999999    2.57999992
   13.44750023  117.72000122    0.47999999    2.57999992
   13.45055580  110.40200043    0.47999999    2.57999992
   13.45416641  111.77999878    0.47999999    2.57999992
   13.45722198  112.61100006    0.47999999    2.57999992
   13.46055508  116.81700134    0.47999999    2.59999990
   13.46388912  108.63800049    0.47999999    2.59999990
   13.46694374  109.12799835    0.47999999    2.57999992
   13.47027779  110.78700256    0.47999999    2.59999990
   13.47333336  110.40200043    0.47999999    2.59999990
   13.47638798  105.87500000    0.47999999    2.57999992
   13.47694397  110.77799988    0.47999999    2.57999992
   13.48305511  110.77799988    0.47999999    2.59999990
   13.48694515  107.36199951    0.47999999    2.59999990
   13.49027824  113.58899689    0.47999999    2.57999992
   13.49361134  107.25700378    0.47999999    2.57999992
   13.49666691  114.12100220    0.47999999    2.59999990
   13.50000000  120.61799622    0.47999999    2.59999990
   13.50333309  115.94000244    0.47999999    2.59999990
   13.50638866  116.12000275    0.50000000    2.57999992
   13.50972176  111.10299683    0.50000000    2.57999992
   13.51000023  118.74099731    0.50000000    2.57999992
   13.51333332  106.68900299    0.50000000    2.57999992
   13.51666641  112.15100098    0.47999999    2.57999992
   13.51972198  109.64700317    0.47999999    2.59999990
   13.52583313  109.64700317    0.47999999    2.57999992
   13.52999973  109.45099640    0.47999999    2.59999990
   13.53333378  114.84899902    0.47999999    2.59999990
   13.53666687  111.78600311    0.47999999    2.59999990
   13.53972244  111.88300323    0.47999999    2.57999992
   13.54305553  113.15699768    0.47999999    2.57999992
   13.54333401  114.55500031    0.47999999    2.59999990
   13.54666710  115.40299988    0.47999999    2.59999990
   13.55000019  113.67600250    0.47999999    2.59999990
   13.55305576  108.11799622    0.47999999    2.59999990
   13.55638885  113.93000031    0.47999999    2.59999990
   13.55972195  105.02300262    0.47999999    2.59999990
   13.56277752  112.84600067    0.47999999    2.59999990
   13.56861115  112.84600067    0.47999999    2.59999990
   13.57277775  112.70200348    0.47999999    2.59999990
   13.57611084  117.28199768    0.47999999    2.59999990
   13.57638836  115.16000366    0.47999999    2.59999990
   13.57972240  116.28099823    0.47999999    2.59999990
   13.58305550  110.19799805    0.47999999    2.59999990
   13.58611107  112.81300354    0.47999999    2.59999990
   13.58944416  112.56600189    0.47999999    2.59999990
   13.59277725  112.66799927    0.47999999    2.61999989
   13.59583282  113.05300140    0.47999999    2.59999990
   13.59916592  114.37400055    0.47999999    2.59999990
   13.60222244  110.04399872    0.46000001    2.59999990
   13.60555553  112.41000366    0.46000001    2.61999989
   13.61999989  112.41000366    0.46000001    2.59999990
   13.62416649  109.50700378    0.47999999    2.59999990
   13.62750053  107.67500305    0.47999999    2.59999990
   13.63055611  117.48200226    0.46000001    2.59999990
   13.63388920  111.22100067    0.46000001    2.61999989
   13.63722229  113.93499756    0.46000001    2.61999989
   13.64027786  110.86799622    0.47999999    2.59999990
   13.64416695  110.53500366    0.46000001    2.59999990
   13.64499950  111.40299988    0.46000001    2.59999990
   13.64833355  117.54399872    0.46000001    2.59999990
   13.65444374  117.54399872    0.46000001    2.59999990
   13.65833282  111.03399658    0.47999999    2.59999990
   13.66166592  111.94200134    0.47999999    2.59999990
   13.66499996  109.90299988    0.47999999    2.61999989
   13.67777824  106.94899750    0.00000000    0.00000000
   13.67861176  111.60900116    0.47999999    2.61999989
   13.68138885  110.93900299    0.47999999    2.61999989
   13.68472195  115.65399933    0.46000001    2.61999989
   13.68777752  113.27500153    0.47999999    2.59999990
   13.69999981  123.02799988    0.00000000    0.00000000
   13.70333290  113.21700287    0.46000001    2.59999990
   13.70944405  113.21700287    0.46000001    2.61999989
   13.71638870  117.27700043    0.47999999    2.59999990
   13.71694374  116.16699982    0.47999999    2.61999989
   13.73611164  111.16100311    0.46000001    2.61999989
   13.73944473  112.58899689    0.47999999    2.61999989
   13.74277782  107.44400024    0.47999999    2.61999989
   13.74583340  111.61399841    0.46000001    2.61999989
   13.75249958  111.61399841    0.46000001    2.61999989
   13.75666714  119.13800049    0.46000001    2.61999989
   13.76000023  109.21199799    0.46000001    2.61999989
   13.76305580  109.07099915    0.46000001    2.61999989
   13.76638889  110.99199677    0.46000001    2.64000010
   13.76944447  111.68199921    0.46000001    2.61999989
   13.77277756  113.16600037    0.46000001    2.61999989
   13.77611065  114.08000183    0.46000001    2.61999989
   13.77916622  113.38400269    0.46000001    2.61999989
   13.78249931  114.44300079    0.46000001    2.64000010
   13.78361130  107.51200104    0.46000001    2.64000010
   13.78611183  108.11499786    0.46000001    2.64000010
   13.78944492  121.12400055    0.46000001    2.61999989
   13.80000019  121.12400055    0.46000001    2.61999989
   13.80416679  113.76799774    0.46000001    2.64000010
   13.80861092  110.62799835    0.46000001    2.64000010
   13.81166649  111.01899719    0.46000001    2.61999989
   13.81500053  116.60199738    0.46000001    2.61999989
   13.81694412  111.48999786    0.46000001    2.61999989
   13.81861115  109.80500031    0.46000001    2.61999989
   13.82166672  109.83300018    0.46000001    2.64000010
   13.82499981  107.36799622    0.46000001    2.64000010
   13.82833290  105.92600250    0.46000001    2.64000010
   13.83138847  107.64700317    0.46000001    2.61999989
   13.83805561  107.64700317    0.46000001    2.64000010
   13.84222221  108.48400116    0.46000001    2.64000010
   13.84555531  112.56099701    0.46000001    2.64000010
   13.84888840  108.57499695    0.46000001    2.64000010
   13.85027790  109.38999939    0.46000001    2.64000010
   13.85249996  109.56600189    0.46000001    2.64000010
   13.85555553  108.48999786    0.46000001    2.64000010
   13.85888958  108.83300018    0.46000001    2.64000010
   13.86222267  113.21700287    0.46000001    2.64000010
   13.86527824  112.99299622    0.46000001    2.64000010
   13.86861134  112.32499695    0.46000001    2.64000010
   13.87194443  110.33599854    0.46000001    2.64000010
   13.87500000  109.20600128    0.46000001    2.64000010
   13.88111115  109.20600128    0.44000000    2.64000010
   13.88527775  108.36399841    0.44000000    2.64000010
   13.88833332  104.98000336    0.44000000    2.64000010
   13.89166641  108.66100311    0.44000000    2.64000010
   13.89472198  112.20800018    0.44000000    2.64000010
   13.89805508  109.95800018    0.44000000    2.64000010
   13.90138817  113.72699738    0.44000000    2.64000010
   13.90444374  108.94100189    0.44000000    2.64000010
   13.90777779  109.55799866    0.44000000    2.64000010
   13.91111088  113.78700256    0.44000000    2.64000010
   13.91416645  119.41899872    0.44000000    2.64000010
   13.91694450  111.58799744    0.44000000    2.64000010
   13.91777802  113.98000336    0.44000000    2.64000010
   13.92388916  113.98000336    0.44000000    2.64000010
   13.92805576  116.78299713    0.44000000    2.64000010
   13.93138885  111.46900177    0.44000000    2.64000010
   13.93444443  111.68399811    0.44000000    2.64000010
   13.93777752  108.35700226    0.44000000    2.64000010
   13.94111156  108.88099670    0.44000000    2.64000010
   13.94416714  110.54000092    0.44000000    2.64000010
   13.94750023  110.26799774    0.44000000    2.64000010
   13.95027733  108.15200043    0.44000000    2.66000009
   13.95111084  109.46900177    0.44000000    2.66000009
   13.95416641  113.04399872    0.44000000    2.64000010
   13.95749950  109.52200317    0.44000000    2.64000010
   13.96083355  112.03700256    0.44000000    2.64000010
   13.96666622  112.03700256    0.41999999    2.64000010
   13.97083282  107.61499786    0.44000000    2.66000009
   13.97416592  109.27400208    0.41999999    2.64000010
   13.97722149  107.61699677    0.44000000    2.64000010
   13.98055553  110.80999756    0.44000000    2.64000010
   13.98361111  114.22200012    0.41999999    2.64000010
   13.98416710  111.90799713    0.41999999    2.64000010
   13.98861122  107.38500214    0.44000000    2.64000010
   13.99194431  109.81999969    0.44000000    2.64000010
   13.99527836  118.45800018    0.44000000    2.64000010
   13.99833393  115.68099976    0.44000000    2.64000010
   14.00166702  107.45200348    0.44000000    2.64000010
   14.00500011  110.82800293    0.44000000    2.64000010
   14.00944424  110.82800293    0.44000000    2.66000009
   14.01361084  112.46900177    0.44000000    2.66000009
   14.01694393  108.48400116    0.44000000    2.66000009
   14.01749992  115.61799622    0.44000000    2.66000009
   14.02083302  107.65000153    0.41999999    2.66000009
   14.02388859  111.63700104    0.41999999    2.66000009
   14.02722168  108.55100250    0.41999999    2.64000010
   14.03027725  109.60700226    0.41999999    2.64000010
   14.03361130  110.48300171    0.44000000    2.66000009
   14.03694534  113.26100159    0.41999999    2.66000009
   14.04000092  107.45500183    0.41999999    2.66000009
   14.04361153  121.99199677    0.41999999    2.67000008
   14.04666710  110.12999725    0.41999999    2.66000009
   14.05249977  110.12999725    0.41999999    2.66000009
   14.05666733  111.60900116    0.41999999    2.66000009
   14.05972195  116.75800323    0.41999999    2.66000009
   14.06305599  115.43599701    0.41999999    2.66000009
   14.06638908  112.11299896    0.41999999    2.66000009
   14.06944466  111.98100281    0.41999999    2.66000009
   14.07277775  110.27999878    0.41999999    2.66000009
   14.07611084  109.55999756    0.41999999    2.66000009
   14.07916641  109.52700043    0.41999999    2.66000009
   14.08249950  112.45600128    0.41999999    2.66000009
   14.08416653  117.20700073    0.41999999    2.66000009
   14.08583260  115.65000153    0.41999999    2.66000009
   14.08972168  113.44200134    0.41999999    2.66000009
   14.09527779  113.44200134    0.41999999    2.66000009
   14.09944439  110.19499969    0.41999999    2.66000009
   14.10249996  110.67600250    0.41999999    2.66000009
   14.10583401  108.40599823    0.41999999    2.66000009
   14.10916710  115.06900024    0.41999999    2.66000009
   14.11222267  105.90100098    0.41999999    2.66000009
   14.11555576  109.98000336    0.41999999    2.66000009
   14.11750031  107.73999786    0.41999999    2.66000009
   14.11944485  110.01300049    0.41999999    2.66000009
   14.12250042  111.54799652    0.41999999    2.66000009
   14.12583351  109.51799774    0.41999999    2.66000009
   14.12888908  118.28900146    0.41999999    2.66000009
   14.13222218  112.53700256    0.41999999    2.66000009
   14.13805580  112.53700256    0.41999999    2.66000009
   14.14222240  110.43299866    0.41999999    2.66000009
   14.14555550  112.03700256    0.41999999    2.66000009
   14.14861107  114.94100189    0.41999999    2.66000009
   14.15083313  108.01599884    0.41999999    2.66000009
   14.15249920  109.21700287    0.41999999    2.66000009
   14.15555477  110.73799896    0.41999999    2.66000009
   14.15888882  109.62000275    0.41999999    2.66000009
   14.16222191  111.22699738    0.41999999    2.66000009
   14.16555500  112.88500214    0.41999999    2.66000009
   14.16888905  114.30300140    0.41999999    2.67000008
   14.17194462  113.30899811    0.41999999    2.67000008
   14.17527771  108.99500275    0.41999999    2.66000009
   14.18083382  108.99500275    0.41999999    2.66000009
   14.18500042  112.57399750    0.41999999    2.66000009
   14.18833351  111.54199982    0.41999999    2.66000009
   14.19166660  107.18800354    0.41999999    2.66000009
   14.19472218  110.48300171    0.41999999    2.66000009
   14.19805527  119.51200104    0.41999999    2.66000009
   14.20111084  110.37799835    0.41999999    2.66000009
   14.20444393  109.23899841    0.41999999    2.66000009
   14.20777798  108.64800262    0.41999999    2.66000009
   14.21083355  107.96800232    0.41999999    2.67000008
   14.21416664  110.66600037    0.41999999    2.66000009
   14.21749973  117.55300140    0.41999999    2.66000009
   14.21777725  109.66899872    0.41999999    2.66000009
   14.22388840  109.66899872    0.41999999    2.66000009
   14.22805500  113.95200348    0.41999999    2.66000009
   14.23111057  117.86399841    0.40000001    2.66000009
   14.23444462  118.62999725    0.41999999    2.67000008
   14.23750019  108.54900360    0.40000001    2.67000008
   14.24083328  112.97200012    0.40000001    2.67000008
   14.24416733  111.83399963    0.40000001    2.67000008
   14.24750042  112.31999969    0.40000001    2.67000008
   14.25055599  112.32399750    0.40000001    2.67000008
   14.25111103  109.75900269    0.40000001    2.67000008
   14.25416660  110.52600098    0.40000001    2.66000009
   14.25749969  116.13800049    0.40000001    2.67000008
   14.26055527  112.85600281    0.41999999    2.66000009
   14.26666641  112.85600281    0.41999999    2.66000009
   14.27083302  109.01300049    0.41999999    2.66000009
   14.27388859  112.55400085    0.40000001    2.67000008
   14.27722168  118.00199890    0.40000001    2.67000008
   14.28055573  109.33799744    0.40000001    2.67000008
   14.28361130  112.65499878    0.41999999    2.67000008
   14.28444481  112.32700348    0.41999999    2.67000008
   14.28722286  112.65599823    0.40000001    2.66000009
   14.29055595  113.05500031    0.41999999    2.66000009
   14.29361153  113.66200256    0.40000001    2.67000008
   14.29694462  109.38899994    0.41999999    2.67000008
   14.30027771  112.29100037    0.41999999    2.67000008
   14.30333328  110.79599762    0.40000001    2.66000009
   14.30944443  110.79599762    0.40000001    2.67000008
   14.31361103  117.34799957    0.41999999    2.67000008
   14.32361126  110.98400116    0.00000000    0.00000000
   14.32444477  115.69400024    0.40000001    2.67000008
   14.32722187  115.79000092    0.40000001    2.67000008
   14.33055592  110.12599945    0.40000001    2.67000008
   14.33388901  104.95500183    0.40000001    2.67000008
   14.34555531  111.50399780    0.00000000    0.00000000
   14.34888840  114.46900177    0.41999999    2.67000008
   14.35500050  114.46900177    0.41999999    2.69000006
   14.35916710  109.22899628    0.41999999    2.67000008
   14.36111164  107.67900085    0.41999999    2.67000008
   14.36277771  113.09899902    0.41999999    2.67000008
   14.36611176  116.67500305    0.41999999    2.67000008
   14.36916637  119.72799683    0.41999999    2.67000008
   14.37277794  107.63400269    0.40000001    2.67000008
   14.37611103  112.61199951    0.40000001    2.67000008
   14.37916660  108.13700104    0.40000001    2.67000008
   14.38249969  114.09999847    0.40000001    2.69000006
   14.38583279  114.66500092    0.41999999    2.67000008
   14.38888836  115.98200226    0.41999999    2.67000008
   14.39222240  111.14900208    0.41999999    2.67000008
   14.39777756  111.14900208    0.41999999    2.67000008
   14.40194416  113.71299744    0.41999999    2.67000008
   14.40527725  115.84700012    0.41999999    2.67000008
   14.40833282  116.26000214    0.41999999    2.67000008
   14.41166592  112.63099670    0.41999999    2.67000008
   14.41472149  107.70700073    0.41999999    2.67000008
   14.41833401  108.46299744    0.41999999    2.67000008
   14.42166710  109.00900269    0.41999999    2.67000008
   14.42472267  107.83699799    0.41999999    2.67000008
   14.42805576  116.03299713    0.41999999    2.67000008
   14.42861176  112.44300079    0.41999999    2.67000008
   14.43166733  106.39399719    0.44000000    2.67000008
   14.43500042  112.27700043    0.41999999    2.67000008
   14.44055557  112.27700043    0.44000000    2.67000008
   14.44472218  113.73999786    0.44000000    2.67000008
   14.44805527  115.20300293    0.41999999    2.69000006
   14.45111084  117.03099823    0.41999999    2.67000008
   14.45444393  115.94300079    0.41999999    2.67000008
   14.45777798  116.08599854    0.41999999    2.67000008
   14.46083355  115.79499817    0.41999999    2.67000008
   14.46194458  114.11399841    0.41999999    2.67000008
   14.46444416  113.57399750    0.41999999    2.67000008
   14.46777725  112.40699768    0.41999999    2.67000008
   14.47083282  123.34300232    0.41999999    2.67000008
   14.47527695  115.53800201    0.41999999    2.69000006
   14.47833252  113.61699677    0.40000001    2.67000008
   14.48361111  113.61699677    0.40000001    2.67000008
   14.48750019  115.36900330    0.40000001    2.67000008
   14.49083328  110.94499969    0.40000001    2.67000008
   14.49416733  116.38899994    0.40000001    2.69000006
   14.49555588  109.94999695    0.40000001    2.69000006
   14.49777794  113.83699799    0.40000001    2.69000006
   14.50083351  108.33300018    0.40000001    2.69000006
   14.50416660  114.92299652    0.40000001    2.69000006
   14.50722218  110.38800049    0.40000001    2.69000006
   14.51055527  113.31099701    0.40000001    2.67000008
   14.51388931  112.86499786    0.40000001    2.67000008
   14.51694393  114.92500305    0.40000001    2.67000008
   14.52027798  111.60099792    0.40000001    2.67000008
   14.52638817  111.60099792    0.40000001    2.69000006
   14.53055573  111.53900146    0.40000001    2.69000006
   14.53361130  114.62799835    0.40000001    2.69000006
   14.53694534  117.00299835    0.40000001    2.69000006
   14.54027843  115.09400177    0.40000001    2.69000006
   14.54333401  114.86499786    0.40000001    2.69000006
   14.54666710  121.06400299    0.40000001    2.69000006
   14.55000019  108.46399689    0.40000001    2.69000006
   14.55305576  112.64600372    0.41999999    2.69000006
   14.55638885  112.98400116    0.40000001    2.67000008
   14.55972195  115.02100372    0.41999999    2.67000008
   14.56222248  113.91799927    0.41999999    2.67000008
   14.56333351  109.57399750    0.40000001    2.69000006
   14.57083321  109.57399750    0.41999999    2.69000006
   14.57499981  122.10500336    0.40000001    2.67000008
   14.57916641  107.36900330    0.40000001    2.69000006
   14.58222198  110.23100281    0.41999999    2.69000006
   14.58555508  108.80000305    0.41999999    2.69000006
   14.58888817  115.91300201    0.40000001    2.69000006
   14.59194374  108.18399811    0.41999999    2.69000006
   14.59527779  112.98300171    0.40000001    2.69000006
   14.59861088  114.66300201    0.40000001    2.69000006
   14.60166740  106.57800293    0.41999999    2.69000006
   14.60500050  113.79399872    0.41999999    2.69000006
   14.60833359  115.65799713    0.41999999    2.69000006
   14.62111092  115.65799713    0.41999999    2.69000006
   14.62527752  103.29199982    0.41999999    2.69000006
   14.62861156  111.33300018    0.41999999    2.69000006
   14.63166714  123.82700348    0.41999999    2.69000006
   14.63500023  107.35600281    0.40000001    2.69000006
   14.63694477  106.54299927    0.41999999    2.69000006
   14.63861084  112.77200317    0.41999999    2.69000006
   14.64194393  109.14700317    0.41999999    2.69000006
   14.64666653  110.78399658    0.41999999    2.69000006
   14.64972210  114.13700104    0.41999999    2.69000006
   14.65583324  114.13700104    0.41999999    2.69000006
   14.65999985  110.08000183    0.40000001    2.69000006
   14.66333294  109.30400085    0.40000001    2.69000006
   14.66666698  112.42099762    0.41999999    2.69000006
   14.66972256  111.95400238    0.41999999    2.69000006
   14.67027855  107.13200378    0.41999999    2.69000006
   14.67333412  111.53500366    0.41999999    2.69000006
   14.67666721  111.24800110    0.41999999    2.69000006
   14.67972279  112.10900116    0.41999999    2.69000006
   14.68305588  109.99800110    0.41999999    2.69000006
   14.68611145  113.69100189    0.41999999    2.69000006
   14.68944454  107.26300049    0.41999999    2.69000006
   14.69277763  111.99800110    0.41999999    2.69000006
   14.69888878  111.99800110    0.41999999    2.69000006
   14.70305538  106.63400269    0.40000001    2.69000006
   14.70361137  112.80999756    0.40000001    2.69000006
   14.70666695  108.87000275    0.41999999    2.69000006
   14.71000004  113.91300201    0.41999999    2.69000006
   14.71305561  114.28500366    0.41999999    2.69000006
   14.71638870  108.17700195    0.41999999    2.69000006
   14.71944427  109.70300293    0.41999999    2.69000006
   14.72277737  113.31300354    0.41999999    2.69000006
   14.72611046  110.78900146    0.41999999    2.71000004
   14.72916603  121.62599945    0.41999999    2.69000006
   14.73249912  109.06600189    0.41999999    2.69000006
   14.75166702  114.51300049    0.41999999    2.69000006
   14.75583363  114.51300049    0.41999999    2.71000004
   14.75972176  115.81700134    0.44000000    2.69000006
   14.76305580  120.82299805    0.44000000    2.69000006
   14.76638889  109.26899719    0.41999999    2.69000006
   14.76944447  110.71299744    0.41999999    2.69000006
   14.77277756  109.41500092    0.41999999    2.71000004
   14.77583313  115.06600189    0.44000000    2.69000006
   14.77916622  116.55200195    0.41999999    2.71000004
   14.78249931  109.72200012    0.44000000    2.71000004
   14.78472233  115.77100372    0.44000000    2.71000004
   14.78611183  114.31300354    0.41999999    2.69000006
   14.78916740  114.04000092    0.41999999    2.69000006
   14.79250050  105.31199646    0.41999999    2.69000006
   14.79861164  105.31199646    0.44000000    2.71000004
   14.80277824  109.69000244    0.44000000    2.69000006
   14.80583382  116.17700195    0.44000000    2.69000006
   14.80916691  109.73500061    0.44000000    2.69000006
   14.81277752  105.00399780    0.41999999    2.69000006
   14.81583309  109.19100189    0.41999999    2.69000006
   14.81805515  116.36799622    0.44000000    2.71000004
   14.81944466  110.43399811    0.44000000    2.71000004
   14.82277775  113.31900024    0.41999999    2.71000004
   14.82583332  113.44799805    0.44000000    2.69000006
   14.82916641  121.90699768    0.41999999    2.71000004
   14.83222198  107.14499664    0.41999999    2.71000004
   14.83555508  115.21399689    0.41999999    2.69000006
   14.84138870  115.21399689    0.41999999    2.71000004
   14.84555531  110.82299805    0.41999999    2.71000004
   14.84861088  103.27500153    0.41999999    2.71000004
   14.85138893  112.95700073    0.41999999    2.69000006
   14.85249996  123.95099640    0.41999999    2.69000006
   14.85583401  115.54199982    0.41999999    2.69000006
   14.85916710  118.03800201    0.41999999    2.69000006
   14.86250019  108.86000061    0.41999999    2.71000004
   14.86555576  110.65200043    0.41999999    2.71000004
   14.86888885  109.96700287    0.41999999    2.71000004
   14.87194443  119.03299713    0.41999999    2.71000004
   14.87527752  109.35500336    0.41999999    2.71000004
   14.87861156  106.33999634    0.41999999    2.71000004
   14.88416672  106.33999634    0.41999999    2.71000004
   14.88833332  118.62300110    0.41999999    2.71000004
   14.89166641  115.69499969    0.41999999    2.71000004
   14.89472198  106.72699738    0.41999999    2.71000004
   14.89805508  109.31500244    0.41999999    2.69000006
   14.90138817  106.64800262    0.41999999    2.71000004
   14.90472221  114.05799866    0.41999999    2.71000004
   14.90805531  111.01999664    0.41999999    2.71000004
   14.91111088  116.90299988    0.40000001    2.71000004
   14.91444397  113.88500214    0.41999999    2.71000004
   14.91750050  109.11000061    0.41999999    2.71000004
   14.91944504  110.46499634    0.40000001    2.71000004
   14.92111111  117.78199768    0.40000001    2.71000004
   14.92722225  117.78199768    0.40000001    2.71000004
   14.93111134  113.98400116    0.40000001    2.71000004
   14.93444443  112.54699707    0.40000001    2.71000004
   14.93777752  107.11299896    0.41999999    2.71000004
   14.94083309  112.94899750    0.40000001    2.71000004
   14.94416714  109.02100372    0.40000001    2.71000004
   14.94750023  111.78199768    0.40000001    2.71000004
   14.95055580  113.41699982    0.40000001    2.71000004
   14.95249939  109.28500366    0.40000001    2.71000004
   14.95416641  116.18800354    0.40000001    2.71000004
   14.95749950  120.12500000    0.40000001    2.71000004
   14.96055508  112.01699829    0.40000001    2.71000004
   14.96388912  112.95200348    0.40000001    2.69000006
   14.96999931  112.95200348    0.40000001    2.71000004
   14.97416592  110.36900330    0.40000001    2.71000004
   14.97722149  115.24199677    0.38000000    2.71000004
   14.98055553  105.77400208    0.38000000    2.71000004
   14.98416710  110.57700348    0.38000000    2.71000004
   14.98611164  110.37599945    0.38000000    2.71000004
   14.98805618  108.86499786    0.38000000    2.71000004
   14.99111176  109.41999817    0.38000000    2.71000004
   14.99444485  114.70500183    0.38000000    2.71000004
   14.99777794  105.82700348    0.38000000    2.71000004
   15.00083351  109.59899902    0.38000000    2.71000004
   15.00416660  115.00299835    0.38000000    2.71000004
   15.00749969  111.35900116    0.40000001    2.71000004
   15.01277733  111.35900116    0.40000001    2.71000004
   15.01694393  107.71399689    0.40000001    2.71000004
   15.01944447  109.32499695    0.40000001    2.71000004
   15.02055550  108.59200287    0.40000001    2.71000004
   15.02361107  113.74500275    0.40000001    2.71000004
   15.02694416  109.33899689    0.38000000    2.71000004
   15.03027725  115.64499664    0.40000001    2.71000004
   15.03333378  109.76000214    0.40000001    2.71000004
   15.03666687  109.62200165    0.38000000    2.71000004
   15.04000092  110.52300262    0.38000000    2.71000004
   15.04305553  107.24700165    0.38000000    2.71000004
   15.04638958  104.67299652    0.40000001    2.71000004
   15.04944515  107.34500122    0.38000000    2.71000004
   15.05555534  107.34500122    0.38000000    2.73000002
   15.05972195  118.40599823    0.38000000    2.69000006
   15.06305599  111.85500336    0.38000000    2.69000006
   15.06611156  114.08999634    0.40000001    2.71000004
   15.06944466  105.89800262    0.40000001    2.71000004
   15.07277775  107.66999817    0.40000001    2.71000004
   15.07583332  105.16999817    0.40000001    2.71000004
   15.07916641  113.66799927    0.40000001    2.71000004
   15.08249950  113.60500336    0.40000001    2.71000004
   15.08555508  118.60099792    0.40000001    2.71000004
   15.08638859  110.62400055    0.40000001    2.71000004
   15.08916664  110.08300018    0.40000001    2.69000006
   15.09249973  114.65899658    0.40000001    2.71000004
   15.19638920   -1.00000000   -1.00000000   -1.00000000
   15.28861141   -1.00000000   -1.00000000   -1.00000000
   15.42055607   -1.00000000   -1.00000000   -1.00000000
   15.51944447   -1.00000000   -1.00000000   -1.00000000
   15.62638855   -1.00000000   -1.00000000   -1.00000000
   15.63527775  117.55799866    0.36000001    2.73000002
   15.63944435  114.36900330    0.36000001    2.73000002
   15.64249992  112.35299683    0.36000001    2.73000002
   15.64583302  115.34200287    0.36000001    2.73000002
   15.64888859  111.17600250    0.38000000    2.73000002
   15.65555477  111.17600250    0.38000000    2.75000000
   15.65944386  108.86799622    0.38000000    2.73000002
   15.66277695  124.65299988    0.38000000    2.73000002
   15.66611099  107.21299744    0.38000000    2.73000002
   15.66861153  133.87100220    0.38000000    2.73000002
   15.66944504  122.43699646    0.38000000    2.75000000
   15.67277813  149.82899475    0.38000000    2.75000000
   15.67611122  126.61100006    0.38000000    2.75000000
   15.67916679  127.26799774    0.38000000    2.73000002
   15.68249989  121.80899811    0.38000000    2.73000002
   15.68583298  126.58599854    0.38000000    2.73000002
   15.68888855  125.11900330    0.36000001    2.73000002
   15.69222260  111.08899689    0.36000001    2.75000000
   15.69833374  111.08899689    0.38000000    2.73000002
   15.70249939  128.61799622    0.38000000    2.73000002
   15.70555496  127.64600372    0.36000001    2.73000002
   15.70888901  122.09300232    0.36000001    2.73000002
   15.71222210  131.91299438    0.36000001    2.73000002
   15.71527767  132.05700684    0.36000001    2.73000002
   15.71861076  104.66100311    0.36000001    2.73000002
   15.72166634  131.30200195    0.36000001    2.75000000
   15.72499943  130.16099548    0.36000001    2.73000002
   15.72833252  114.52600098    0.36000001    2.75000000
   15.73138809  110.93399811    0.36000001    2.75000000
   15.73472214  112.81199646    0.36000001    2.75000000
   15.73527813  113.13400269    0.36000001    2.75000000
   15.74111176  113.13400269    0.36000001    2.75000000
   15.74527836  115.89299774    0.34000000    2.73000002
   15.74861145  116.06999969    0.34000000    2.73000002
   15.75166702  117.37599945    0.36000001    2.75000000
   15.75500011  114.61199951    0.36000001    2.75000000
   15.75805569  116.47000122    0.36000001    2.75000000
   15.76138878  114.16200256    0.36000001    2.73000002
   15.76472187  118.17099762    0.36000001    2.73000002
   15.76777744  117.50199890    0.36000001    2.73000002
   15.76861095  118.01200104    0.36000001    2.73000002
   15.77166653  114.19200134    0.36000001    2.73000002
   15.77472210  115.90399933    0.38000000    2.75000000
   15.77805519  122.48999786    0.38000000    2.73000002
   15.78388977  122.48999786    0.38000000    2.73000002
   15.78805637  109.39900208    0.38000000    2.73000002
   15.79138947  118.66899872    0.38000000    2.73000002
   15.79444504  113.87300110    0.38000000    2.73000002
   15.79777813  112.79399872    0.38000000    2.73000002
   15.80111122  118.81199646    0.38000000    2.73000002
   15.80194473  118.91100311    0.38000000    2.73000002
   15.80472279  113.48999786    0.38000000    2.73000002
   15.80777836  113.62400055    0.38000000    2.73000002
   15.81111145  110.04699707    0.38000000    2.73000002
   15.81444454  106.47799683    0.38000000    2.73000002
   15.81750011  111.75299835    0.38000000    2.73000002
   15.82083321  106.00199890    0.38000000    2.73000002
   15.82694435  106.00199890    0.38000000    2.73000002
   15.83083344  110.05400085    0.38000000    2.73000002
   15.83416653  113.82800293    0.38000000    2.73000002
   15.83527756  118.73500061    0.38000000    2.73000002
   15.83805561  116.92600250    0.40000001    2.73000002
   15.84111118  115.45300293    0.38000000    2.73000002
   15.84444427  111.41699982    0.38000000    2.73000002
   15.84749985  111.65799713    0.40000001    2.73000002
   15.85083389  112.94000244    0.38000000    2.73000002
   15.85416698  119.50900269    0.40000001    2.73000002
   15.85722256  117.51300049    0.40000001    2.73000002
   15.86055565  117.05500031    0.40000001    2.73000002
   15.86388969  107.63800049    0.38000000    2.73000002
   15.86972237  107.63800049    0.38000000    2.73000002
   15.87388897  113.68199921    0.38000000    2.73000002
   15.87694454  114.57199860    0.38000000    2.73000002
   15.88027763  112.74199677    0.38000000    2.73000002
   15.88361073  112.28500366    0.38000000    2.73000002
   15.88666630  116.73600006    0.38000000    2.73000002
   15.89000034  115.65399933    0.38000000    2.73000002
   15.89305496  110.91999817    0.38000000    2.75000000
   15.89638901  114.37300110    0.36000001    2.73000002
   15.89972210  117.25499725    0.36000001    2.75000000
   15.90194416  113.03800201    0.38000000    2.75000000
   15.90333271  110.69300079    0.38000000    2.75000000
   15.90638828  114.27100372    0.36000001    2.75000000
   15.91249943  114.27100372    0.36000001    2.75000000
   15.91666698  111.95800018    0.36000001    2.73000002
   15.92000008  116.98799896    0.38000000    2.73000002
   15.92305565  116.61000061    0.36000001    2.73000002
   15.92638874  115.89600372    0.36000001    2.73000002
   15.92944431  111.28099823    0.36000001    2.73000002
   15.93277836  116.72100067    0.36000001    2.73000002
   15.93527794  108.30100250    0.36000001    2.75000000
   15.93666649  120.76799774    0.36000001    2.75000000
   15.93972206  113.16400146    0.36000001    2.75000000
   15.94305515  107.00900269    0.36000001    2.73000002
   15.94638920  119.78399658    0.36000001    2.75000000
   15.94944477  109.49199677    0.36000001    2.75000000
   15.95527744  109.49199677    0.36000001    2.75000000
   15.95944405  113.12799835    0.38000000    2.75000000
   15.96277714  119.39600372    0.36000001    2.73000002
   15.96583271  108.24600220    0.36000001    2.73000002
   15.96861076  108.24700165    0.36000001    2.75000000
   15.96972179  118.43099976    0.36000001    2.75000000
   15.97277737  111.38999939    0.36000001    2.73000002
   15.97611046  118.84999847    0.36000001    2.75000000
   15.97916603  113.62699890    0.38000000    2.75000000
   15.98277760  110.03800201    0.36000001    2.75000000
   15.98611164  115.41699982    0.36000001    2.75000000
   15.98916721  102.35500336    0.38000000    2.75000000
   15.99250031  113.33799744    0.38000000    2.73000002
   15.99833393  113.33799744    0.36000001    2.75000000
   16.00222206  114.52700043    0.36000001    2.75000000
   16.00555611  111.57599640    0.36000001    2.73000002
   16.00888824  110.64900208    0.36000001    2.73000002
   16.01194382  114.26200104    0.38000000    2.75000000
   16.01527786  110.88300323    0.38000000    2.73000002
   16.01861000  109.84700012    0.38000000    2.73000002
   16.02166557  120.39199829    0.38000000    2.73000002
   16.02499962  118.80400085    0.38000000    2.75000000
   16.02805519  114.92199707    0.36000001    2.75000000
   16.03138924  113.27300262    0.36000001    2.75000000
   16.03472137  108.69300079    0.36000001    2.73000002
   16.03527641  116.84999847    0.36000001    2.73000002
   16.04111099  116.84999847    0.36000001    2.73000002
   16.04527664  111.16200256    0.36000001    2.75000000
   16.04833221  111.48400116    0.36000001    2.75000000
   16.05166626  113.35399628    0.34000000    2.75000000
   16.05472183  112.87999725    0.34000000    2.75000000
   16.05805397  111.03900146    0.34000000    2.75000000
   16.06138802  110.56099701    0.34000000    2.73000002
   16.06444359  110.41300201    0.34000000    2.75000000
   16.06777954  110.99299622    0.34000000    2.73000002
   16.06861115  110.63700104    0.34000000    2.73000002
   16.07139015  119.30799866    0.36000001    2.75000000
   16.07444572  110.43199921    0.36000001    2.75000000
   16.07777786  114.31099701    0.36000001    2.73000002
   16.08388901  114.31099701    0.36000001    2.75000000
   16.08805656  109.18199921    0.34000000    2.73000002
   16.09138870  114.19499969    0.36000001    2.75000000
   16.09444427  115.24199677    0.36000001    2.75000000
   16.09777832  106.58499908    0.36000001    2.73000002
   16.10083389  107.92600250    0.36000001    2.73000002
   16.10194397  112.25499725    0.36000001    2.73000002
   16.10472298  111.71199799    0.34000000    2.73000002
   16.10777855  113.87000275    0.34000000    2.75000000
   16.11111069  111.77799988    0.34000000    2.75000000
   16.11444473  117.67800140    0.36000001    2.75000000
   16.11777878  117.55400085    0.34000000    2.75000000
   16.12083435  109.80799866    0.34000000    2.75000000
   16.12666702  109.80799866    0.34000000    2.75000000
   16.13083267  118.75900269    0.38000000    2.75000000
   16.13416672  116.80699921    0.44000000    2.75000000
   16.13527679  119.09200287    0.44000000    2.75000000
   16.13777733  111.48400116    0.41999999    2.75000000
   16.14083290  117.96299744    0.41999999    2.75000000
   16.14416695  113.27400208    0.38000000    2.75000000
   16.14749908  114.64099884    0.38000000    2.75000000
   16.15055466  106.55500031    0.36000001    2.75000000
   16.15388870  116.94300079    0.36000001    2.75000000
   16.15722275  118.46600342    0.38000000    2.73000002
   16.16027832  120.51799774    0.36000001    2.75000000
   16.16361046  115.96399689    0.34000000    2.75000000
   16.16944313  115.96399689    0.36000001    2.73000002
   16.17361069  112.10600281    0.34000000    2.75000000
   16.17694473  117.17600250    0.36000001    2.75000000
   16.18027687  117.03199768    0.36000001    2.75000000
   16.18333244  113.47699738    0.34000000    2.75000000
   16.18666649  120.19899750    0.34000000    2.73000002
   16.18972206  115.24199677    0.34000000    2.75000000
   16.19305420  114.24400330    0.36000001    2.75000000
   16.19638824  109.52100372    0.34000000    2.75000000
   16.19944382  112.56900024    0.34000000    2.75000000
   16.20194435  110.89700317    0.34000000    2.75000000
   16.20333481  115.37899780    0.34000000    2.75000000
   16.20639038  117.32199860    0.34000000    2.75000000
   16.21250153  117.32199860    0.36000001    2.75000000
   16.21666718  113.03099823    0.34000000    2.75000000
   16.21972275  111.10299683    0.34000000    2.75000000
   16.22305679  114.87200165    0.34000000    2.75000000
   16.22638893  114.78700256    0.36000001    2.73000002
   16.22944450  112.28399658    0.36000001    2.75000000
   16.23277855  118.96499634    0.36000001    2.75000000
   16.23527718  115.21099854    0.34000000    2.75000000
   16.23638916  110.65100098    0.34000000    2.75000000
   16.23944473  110.31900024    0.34000000    2.75000000
   16.24277878  111.22200012    0.34000000    2.75000000
   16.24611092  112.53800201    0.34000000    2.75000000
   16.24916649  115.70500183    0.34000000    2.75000000
   16.25527763  115.70500183    0.34000000    2.75000000
   16.25944519  111.67900085    0.34000000    2.75000000
   16.26250076  114.19499969    0.34000000    2.75000000
   16.26583290  118.58000183    0.34000000    2.75000000
   16.26861000  114.40200043    0.34000000    2.75000000
   16.26944351  116.20899963    0.34000000    2.75000000
   16.27249908  110.90299988    0.34000000    2.75000000
   16.27583313  114.76999664    0.36000001    2.73000002
   16.27916718  110.34500122    0.34000000    2.75000000
   16.28222275  112.19699860    0.34000000    2.75000000
   16.28555489  115.77600098    0.34000000    2.75000000
   16.28861046  114.66500092    0.34000000    2.75000000
   16.29194450  109.33999634    0.34000000    2.73000002
   16.29805565  109.33999634    0.36000001    2.75000000
   16.30222130  109.82700348    0.36000001    2.75000000
   16.30555534  111.36499786    0.36000001    2.75000000
   16.30888748  106.62000275    0.36000001    2.75000000
   16.31194305  114.79599762    0.36000001    2.75000000
   16.31527710  111.90000153    0.36000001    2.75000000
   16.31833458  111.40699768    0.36000001    2.75000000
   16.32166672  106.02999878    0.36000001    2.75000000
   16.32500076  108.63999939    0.36000001    2.75000000
   16.32805634  110.29499817    0.36000001    2.75000000
   16.33139038  108.66500092    0.36000001    2.75000000
   16.33472252  112.63800049    0.36000001    2.75000000
   16.33527756  112.08599854    0.36000001    2.75000000
   16.34111214  112.08599854    0.36000001    2.75000000
   16.34527779  105.76200104    0.36000001    2.73000002
   16.34833336  114.36599731    0.36000001    2.73000002
   16.35166740  114.34600067    0.38000000    2.75000000
   16.35472298  114.81099701    0.38000000    2.75000000
   16.35805511  111.46900177    0.36000001    2.73000002
   16.36138916  112.04900360    0.36000001    2.75000000
   16.36444473  117.40299988    0.36000001    2.75000000
   16.36777878  114.43699646    0.38000000    2.73000002
   16.36861038  108.53800201    0.38000000    2.73000002
   16.37138939  116.24500275    0.38000000    2.73000002
   16.37444496  113.46800232    0.38000000    2.75000000
   16.37777710  109.59600067    0.36000001    2.73000002
   16.38388824  109.59600067    0.38000000    2.75000000
   16.38805580  116.03099823    0.38000000    2.75000000
   16.39111137  113.91300201    0.36000001    2.75000000
   16.39444351  118.69200134    0.36000001    2.75000000
   16.39777756  110.58799744    0.36000001    2.73000002
   16.40111160  114.43099976    0.36000001    2.73000002
   16.40194321  111.81600189    0.36000001    2.75000000
   16.40499878  115.68599701    0.36000001    2.75000000
   16.40805435  106.96700287    0.36000001    2.75000000
   16.41138840  113.48899841    0.36000001    2.75000000
   16.41472244  113.52600098    0.36000001    2.75000000
   16.41777802  111.85199738    0.36000001    2.75000000
   16.42111015  110.18099976    0.36000001    2.75000000
   16.42666626  110.18099976    0.36000001    2.75000000
   16.43083191  112.76999664    0.36000001    2.75000000
   16.43416595  109.36799622    0.36000001    2.75000000
   16.43527603  111.53500366    0.36000001    2.75000000
   16.43777657  106.72599792    0.36000001    2.75000000
   16.44083214  111.98999786    0.38000000    2.75000000
   16.44416618  114.48899841    0.38000000    2.75000000
   16.44749832  115.34100342    0.38000000    2.75000000
   16.45055580  113.99500275    0.36000001    2.75000000
   16.45388985  108.29900360    0.36000001    2.75000000
   16.45722389  109.53800201    0.36000001    2.75000000
   16.46027946  112.44699860    0.36000001    2.75000000
   16.46361160  103.78500366    0.36000001    2.75000000
   16.46944427  103.78500366    0.36000001    2.75000000
   16.47361183  108.59500122    0.36000001    2.75000000
   16.47694588  109.34899902    0.36000001    2.75000000
   16.48000145  108.97599792    0.36000001    2.75000000
   16.48333359  109.54799652    0.36000001    2.75000000
   16.48666763  111.96099854    0.34000000    2.75000000
   16.48972321  108.41899872    0.36000001    2.75000000
   16.49305534  110.83499908    0.34000000    2.76999998
   16.49638939  107.34700012    0.34000000    2.76999998
   16.49944496  108.13200378    0.34000000    2.75000000
   16.50222206  116.07599640    0.36000001    2.75000000
   16.50305557  109.45999908    0.36000001    2.75000000
   16.50638962  110.50399780    0.34000000    2.75000000
   16.51250076  110.50399780    0.38000000    2.75000000
   16.51638794  111.57800293    0.36000001    2.75000000
   16.51972198  111.29199982    0.36000001    2.75000000
   16.52305603  105.50399780    0.36000001    2.76999998
   16.52611160  103.92099762    0.36000001    2.75000000
   16.52944374  104.61299896    0.36000001    2.75000000
   16.53277779  102.23400116    0.36000001    2.75000000
   16.53527641  108.20700073    0.36000001    2.75000000
   16.53638840  122.82599640    0.36000001    2.75000000
   16.53972244  113.92900085    0.36000001    2.75000000
   16.54277802  116.86799622    0.36000001    2.75000000
   16.54611015  116.23400116    0.38000000    2.75000000
   16.54916573  112.98699951    0.36000001    2.75000000
   16.55527687  112.98699951    0.36000001    2.73000002
   16.55944443  108.68599701    0.38000000    2.75000000
   16.56250000  119.21600342    0.36000001    2.75000000
   16.56583214  109.65499878    0.36000001    2.75000000
   16.56861115  112.76200104    0.38000000    2.75000000
   16.56944466  121.50399780    0.38000000    2.75000000
   16.57277870  111.12000275    0.36000001    2.75000000
   16.57583427  106.32299805    0.38000000    2.75000000
   16.57916832  110.21700287    0.36000001    2.75000000
   16.58222389  114.20999908    0.36000001    2.75000000
   16.58555603  108.16100311    0.36000001    2.76999998
   16.58889008  108.05200195    0.36000001    2.75000000
   16.59194565  105.27100372    0.36000001    2.75000000
   16.59805679  105.27100372    0.38000000    2.75000000
   16.60222244  114.01499939    0.38000000    2.73000002
   16.60527802  114.32599640    0.40000001    2.75000000
   16.60861206  106.19699860    0.40000001    2.75000000
   16.61194420  104.58300018    0.40000001    2.75000000
   16.61499977  106.02999878    0.41999999    2.75000000
   16.61833382  107.14299774    0.41999999    2.75000000
   16.62166595  112.27600098    0.40000001    2.75000000
   16.62472153  112.86000061    0.41999999    2.73000002
   16.62805557  105.66500092    0.40000001    2.75000000
   16.63111115  113.88800049    0.38000000    2.75000000
   16.63444519  113.46299744    0.38000000    2.75000000
   16.63527679  110.80799866    0.38000000    2.75000000
   16.65611076  110.80799866    0.40000001    2.75000000
   16.66027832  106.18199921    0.40000001    2.75000000
   16.66333389  115.49400330    0.38000000    2.75000000
   16.66666603  109.15299988    0.40000001    2.75000000
   16.66860962  111.17900085    0.40000001    2.75000000
   16.67027664  108.38200378    0.38000000    2.75000000
   16.67361069  113.15200043    0.40000001    2.75000000
   16.67666626  114.24600220    0.40000001    2.75000000
   16.68000031  105.77100372    0.40000001    2.75000000
   16.68333244  116.37400055    0.40000001    2.75000000
   16.68638802  111.00399780    0.40000001    2.75000000
   16.68972206  115.80300140    0.40000001    2.75000000
   16.69305420  114.73600006    0.40000001    2.75000000
   16.69888878  114.73600006    0.40000001    2.75000000
   16.70277786  111.92600250    0.40000001    2.75000000
   16.70611191  112.39499664    0.40000001    2.75000000
   16.70944595  114.73200226    0.40000001    2.75000000
   16.71250153  113.88200378    0.40000001    2.75000000
   16.71583366  108.56999969    0.40000001    2.75000000
   16.71916771  116.98899841    0.40000001    2.75000000
   16.72222328  118.49099731    0.40000001    2.75000000
   16.72555542  116.02700043    0.40000001    2.75000000
   16.72861099  115.16300201    0.40000001    2.75000000
   16.73194504  111.62400055    0.40000001    2.75000000
   16.73527718  113.93099976    0.40000001    2.75000000
   16.73583412  106.56700134    0.40000001    2.75000000
   16.74166679  106.56700134    0.40000001    2.75000000
   16.74583435  119.25499725    0.40000001    2.75000000
   16.74888992  107.57399750    0.40000001    2.75000000
   16.75222206  104.57199860    0.40000001    2.75000000
   16.75555611  114.77999878    0.40000001    2.75000000
   16.75861168  108.06300354    0.40000001    2.75000000
   16.76194382  110.19100189    0.38000000    2.75000000
   16.76499939  110.51799774    0.38000000    2.76999998
   16.76833344  111.63600159    0.40000001    2.75000000
   16.76916695  114.20700073    0.40000001    2.75000000
   16.77194405  107.88700104    0.40000001    2.75000000
   16.77527809  107.70899963    0.38000000    2.75000000
   16.77861023  110.12999725    0.40000001    2.75000000
   16.78444481  110.12999725    0.38000000    2.75000000
   16.78861046  111.23799896    0.38000000    2.75000000
   16.79194450  108.14900208    0.38000000    2.75000000
   16.79500008  108.10800171    0.38000000    2.76999998
   16.79833221  111.72000122    0.40000001    2.76999998
   16.80138779  115.94999695    0.38000000    2.75000000
   16.80249977  112.65699768    0.38000000    2.75000000
   16.80499840  112.92600250    0.40000001    2.75000000
   16.80833244  104.22100067    0.40000001    2.75000000
   16.81166649  106.53500366    0.38000000    2.73000002
   16.81472206  113.47000122    0.38000000    2.73000002
   16.81805611  116.69699860    0.38000000    2.75000000
   16.82111168  111.33200073    0.38000000    2.75000000
   16.82722282  111.33200073    0.38000000    2.75000000
   16.83139038  109.29499817    0.38000000    2.75000000
   16.83472252  107.82399750    0.38000000    2.75000000
   16.83583450  110.08100128    0.38000000    2.75000000
   16.83833313  110.60399628    0.38000000    2.75000000
   16.84166718  110.21099854    0.36000001    2.76999998
   16.84500122  115.57199860    0.38000000    2.75000000
   16.84805679  109.15499878    0.38000000    2.76999998
   16.85138893  122.59799957    0.36000001    2.76999998
   16.85472298  118.57299805    0.36000001    2.76999998
   16.85777855  109.38899994    0.38000000    2.75000000
   16.86111069  108.89099884    0.38000000    2.75000000
   16.86416626  116.97399902    0.38000000    2.75000000
   16.87027740  116.97399902    0.38000000    2.75000000
   16.87416649  119.79299927    0.36000001    2.75000000
   16.87750053  110.88700104    0.38000000    2.75000000
   16.88083267  113.63300323    0.38000000    2.75000000
   16.88416672  114.52500153    0.36000001    2.75000000
   16.88722229  114.05200195    0.36000001    2.75000000
   16.89055634  116.38800049    0.36000001    2.76999998
   16.89388847  114.53900146    0.36000001    2.76999998
   16.89694405  112.53700256    0.36000001    2.75000000
   16.90027809  122.43599701    0.36000001    2.76999998
   16.90250015  113.10299683    0.36000001    2.76999998
   16.90388870  116.75900269    0.36000001    2.75000000
   16.90722275  116.83300018    0.36000001    2.75000000
   16.91305542  116.83300018    0.38000000    2.75000000
   16.91722107  110.27400208    0.36000001    2.75000000
   16.92027664  108.56800079    0.36000001    2.75000000
   16.92361069  111.73000336    0.36000001    2.75000000
   16.92666626  115.74600220    0.36000001    2.75000000
   16.93000031  111.43900299    0.36000001    2.75000000
   16.93333244  117.10600281    0.36000001    2.75000000
   16.93583298  109.71399689    0.36000001    2.75000000
   16.93666649  116.49199677    0.36000001    2.75000000
   16.93999863  105.72499847    0.36000001    2.75000000
   16.94333267  116.29399872    0.36000001    2.75000000
   16.94638824  114.80100250    0.36000001    2.75000000
   16.94972038  118.98200226    0.36000001    2.75000000
   16.95583344  118.98200226    0.36000001    2.75000000
   16.96000099  117.41000366    0.36000001    2.76999998
   16.96333504  110.34200287    0.36000001    2.75000000
   16.96638870  121.99400330    0.36000001    2.75000000
   16.96916771  121.25399780    0.36000001    2.75000000
   16.97000122  111.52600098    0.36000001    2.75000000
   16.97333336  114.44799805    0.36000001    2.75000000
   16.97666740  110.05899811    0.36000001    2.75000000
   16.97972298  117.12999725    0.36000001    2.75000000
   16.98305511  117.32800293    0.36000001    2.75000000
   16.98638916  108.83100128    0.36000001    2.75000000
   16.98944473  114.31500244    0.36000001    2.75000000
   16.99277878  109.20099640    0.36000001    2.75000000
   16.99861145  109.20099640    0.36000001    2.75000000
   17.00277710  112.25499725    0.36000001    2.75000000
   17.00611115  109.90299988    0.38000000    2.75000000
   17.00916672  111.00000000    0.36000001    2.75000000
   17.01250076  115.53900146    0.36000001    2.75000000
   17.01583290  108.28900146    0.36000001    2.75000000
   17.01888847  114.81099701    0.36000001    2.75000000
   17.02222252  106.47399902    0.36000001    2.75000000
   17.02555466  112.84700012    0.38000000    2.75000000
   17.02861023  108.89299774    0.38000000    2.75000000
   17.03194427  111.83200073    0.38000000    2.75000000
   17.03499985  109.55400085    0.36000001    2.75000000
   17.03583336  107.91699982    0.36000001    2.75000000
   17.04138756  107.91699982    0.36000001    2.73000002
   17.04555511  108.79000092    0.36000001    2.76999998
   17.04888916  109.56099701    0.38000000    2.75000000
   17.05222130  111.90200043    0.40000001    2.75000000
   17.05527687  112.58699799    0.46000001    2.75000000
   17.05861092  116.47100067    0.51999998    2.75000000
   17.06166649  107.19999695    0.51999998    2.75000000
   17.06499863  115.74800110    0.52999997    2.75000000
   17.06833458  120.45200348    0.51999998    2.75000000
   17.06916809  121.92199707    0.51999998    2.75000000
   17.07166672  111.47599792    0.50000000    2.75000000
   17.07500076  116.39499664    0.50000000    2.75000000
   17.07833481  115.62799835    0.50000000    2.75000000
   17.08444595  115.62799835    0.50000000    2.75000000
   17.08861160  114.20200348    0.50000000    2.75000000
   17.09166718  114.52799988    0.47999999    2.75000000
   17.09500122  112.14600372    0.47999999    2.73000002
   17.09805679  111.82900238    0.50000000    2.76999998
   17.10138893  104.39900208    0.50000000    2.76999998
   17.10250092  110.13999939    0.50000000    2.76999998
   17.10527802  115.80999756    0.50000000    2.76999998
   17.10833359  112.78900146    0.50000000    2.76999998
   17.11166763  114.44599915    0.50000000    2.75000000
   17.11472321  118.74099731    0.47999999    2.76999998
   17.11805534  109.76899719    0.46000001    2.75000000
   17.12138939  114.16899872    0.44000000    2.76999998
   17.12722206  114.16899872    0.44000000    2.75000000
   17.13138962  114.33100128    0.41999999    2.76999998
   17.13444519  109.45700073    0.41999999    2.75000000
   17.13583374  109.13999939    0.40000001    2.75000000
   17.13833237  115.00599670    0.40000001    2.75000000
   17.14138794  105.21800232    0.38000000    2.75000000
   17.14472198  109.04900360    0.38000000    2.76999998
   17.14777756  109.09500122    0.38000000    2.76999998
   17.15111160  113.61399841    0.38000000    2.76999998
   17.15444374  110.56900024    0.40000001    2.76999998
   17.15749931  115.85700226    0.40000001    2.76999998
   17.16083336  110.28299713    0.38000000    2.75000000
   17.16416550  110.07800293    0.40000001    2.75000000
   17.17027664  110.07800293    0.40000001    2.75000000
   17.17444420  109.14499664    0.40000001    2.75000000
   17.17777634  109.60900116    0.40000001    2.76999998
   17.18083191  109.89600372    0.40000001    2.76999998
   17.18416595  115.18199921    0.40000001    2.75000000
   17.18722153  108.76300049    0.40000001    2.76999998
   17.19055557  107.51399994    0.40000001    2.76999998
   17.19388771  102.49600220    0.40000001    2.75000000
   17.19694328  101.18299866    0.40000001    2.76999998
   17.20027924  106.86799622    0.40000001    2.75000000
   17.20250130  102.49199677    0.40000001    2.75000000
   17.20416832  107.89099884    0.40000001    2.75000000
   17.20722389  115.58200073    0.40000001    2.75000000
   17.21277809  115.58200073    0.41999999    2.75000000
   17.21694565  116.26399994    0.41999999    2.75000000
   17.22027779  114.98300171    0.41999999    2.76999998
   17.22361183  115.54000092    0.41999999    2.76999998
   17.22666740  112.73200226    0.41999999    2.75000000
   17.23000145  109.99900055    0.41999999    2.75000000
   17.23305511  112.97399902    0.41999999    2.75000000
   17.23583412  113.55200195    0.40000001    2.75000000
   17.23694420  112.15499878    0.40000001    2.75000000
   17.23999977  111.36900330    0.40000001    2.76999998
   17.24333382  115.31900024    0.40000001    2.75000000
   17.24638939  111.13099670    0.40000001    2.75000000
   17.24972153  109.43699646    0.40000001    2.75000000
   17.25583267  109.43699646    0.40000001    2.75000000
   17.26000023  110.75099945    0.41999999    2.75000000
   17.26305580  112.84300232    0.41999999    2.75000000
   17.26638794  104.61000061    0.41999999    2.75000000
   17.26916695  110.40599823    0.41999999    2.76999998
   17.27000046  110.69000244    0.41999999    2.76999998
   17.27333260  113.14399719    0.41999999    2.75000000
   17.27666664  106.34300232    0.41999999    2.75000000
   17.27972221  111.71800232    0.41999999    2.73000002
   17.28305435  115.44300079    0.41999999    2.75000000
   17.28638840  116.09999847    0.40000001    2.75000000
   17.28944397  110.94400024    0.40000001    2.76999998
   17.29277802  112.79000092    0.40000001    2.75000000
   17.29861069  112.79000092    0.40000001    2.75000000
   17.30277634  107.99199677    0.41999999    2.75000000
   17.30583191  111.41000366    0.40000001    2.75000000
   17.30916595  108.54599762    0.40000001    2.75000000
   17.31250000  108.99199677    0.38000000    2.75000000
   17.31555557  105.37400055    0.38000000    2.75000000
   17.31888962  116.22000122    0.38000000    2.75000000
   17.32222366  111.84999847    0.38000000    2.75000000
   17.32527924  117.21099854    0.40000001    2.75000000
   17.32861137  107.89800262    0.38000000    2.76999998
   17.33166695  118.60700226    0.38000000    2.75000000
   17.33500099  112.96800232    0.38000000    2.75000000
   17.33583450  112.72399902    0.38000000    2.75000000
   17.34138870  112.72399902    0.38000000    2.75000000
   17.34555626  114.85800171    0.38000000    2.75000000
   17.34889030  114.98200226    0.38000000    2.75000000
   17.35194397  111.80000305    0.36000001    2.75000000
   17.35527802  113.25599670    0.38000000    2.75000000
   17.35861206  110.90599823    0.38000000    2.75000000
   17.36166763  114.47200012    0.36000001    2.75000000
   17.36499977  113.80999756    0.36000001    2.75000000
   17.36833382  112.49500275    0.36000001    2.75000000
   17.36916733  112.21299744    0.36000001    2.75000000
   17.37194443  117.06199646    0.38000000    2.75000000
   17.37500000  110.62300110    0.38000000    2.75000000
   17.37833405  108.40200043    0.38000000    2.75000000
   17.38416672  108.40200043    0.38000000    2.75000000
   17.38833237  110.79100037    0.38000000    2.75000000
   17.39166641  117.10199738    0.38000000    2.75000000
   17.39500046  117.97100067    0.38000000    2.75000000
   17.39805603  117.73100281    0.36000001    2.75000000
   17.40138817  113.21499634    0.36000001    2.75000000
   17.40250015  114.31600189    0.36000001    2.75000000
   17.40499878  113.66899872    0.36000001    2.75000000
   17.40833282  109.79000092    0.36000001    2.75000000
   17.41138840  114.81400299    0.36000001    2.75000000
   17.41472244  111.70800018    0.36000001    2.75000000
   17.41777802  119.15299988    0.36000001    2.75000000
   17.42111015  115.62599945    0.36000001    2.75000000
   17.42722130  115.62599945    0.36000001    2.75000000
   17.43138885  119.55799866    0.38000000    2.75000000
   17.43444443  117.58100128    0.38000000    2.75000000
   17.43583298  116.11000061    0.38000000    2.75000000
   17.43833160  110.58000183    0.38000000    2.75000000
   17.44138718  117.29499817    0.40000001    2.75000000
   17.44472122  122.53299713    0.40000001    2.75000000
   17.44805527  113.62400055    0.40000001    2.75000000
   17.45111275  113.87899780    0.38000000    2.75000000
   17.45444489  108.90599823    0.38000000    2.75000000
   17.45750046  112.85700226    0.38000000    2.75000000
   17.46083450  115.14299774    0.38000000    2.75000000
   17.46416664  106.51499939    0.38000000    2.75000000
   17.47000122  106.51499939    0.38000000    2.75000000
   17.47416687  114.93499756    0.40000001    2.75000000
   17.47722244  116.60299683    0.38000000    2.75000000
   17.48055649  113.05500031    0.38000000    2.75000000
   17.48388863  114.83799744    0.40000001    2.75000000
   17.48694420  117.38500214    0.40000001    2.75000000
   17.49027824  114.86199951    0.38000000    2.75000000
   17.49361229  110.74099731    0.38000000    2.75000000
   17.49666786  115.75900269    0.38000000    2.75000000
   17.50000000  106.15599823    0.38000000    2.75000000
   17.50250053  113.94699860    0.38000000    2.75000000
   17.50361061  111.79499817    0.38000000    2.75000000
   17.50666618  110.71800232    0.38000000    2.75000000
   17.51277733  110.71800232    0.38000000    2.75000000
   17.51694489  111.09799957    0.38000000    2.75000000
   17.52027702  109.35700226    0.36000001    2.75000000
   17.52361107  113.26999664    0.36000001    2.75000000
   17.52666664  106.30699921    0.36000001    2.75000000
   17.53000069  113.09300232    0.36000001    2.75000000
   17.53305435  109.65000153    0.36000001    2.75000000
   17.53583336  109.31400299    0.38000000    2.75000000
   17.53694344  104.44899750    0.38000000    2.75000000
   17.53999901  109.68699646    0.38000000    2.75000000
   17.54333305  101.67199707    0.40000001    2.75000000
   17.54666710  112.60399628    0.41999999    2.75000000
   17.54972076  106.19499969    0.41999999    2.75000000
   17.55555534  106.19499969    0.40000001    2.73000002
   17.55972099  107.63999939    0.38000000    2.75000000
   17.56305504  110.01300049    0.38000000    2.75000000
   17.56638718  112.92299652    0.38000000    2.75000000
   17.56916809  108.36299896    0.38000000    2.75000000
   17.57000160  112.11900330    0.36000001    2.75000000
   17.57305717  111.94000244    0.36000001    2.75000000
   17.57638931  114.83599854    0.36000001    2.75000000
   17.57972336  107.59500122    0.36000001    2.73000002
   17.58277893  110.28600311    0.36000001    2.75000000
   17.58611107  106.72200012    0.36000001    2.75000000
   17.58916664  114.69300079    0.38000000    2.75000000
   17.59250069  111.60700226    0.38000000    2.75000000
   17.59861183  111.60700226    0.36000001    2.75000000
   17.60277748  112.70999908    0.36000001    2.75000000
   17.60583305  109.64299774    0.38000000    2.75000000
   17.60916710  115.01300049    0.36000001    2.73000002
   17.61222267  110.15599823    0.36000001    2.75000000
   17.61555672  111.08200073    0.36000001    2.75000000
   17.61888885  112.50299835    0.36000001    2.75000000
   17.62194443  112.80699921    0.36000001    2.75000000
   17.62527847  115.58200073    0.38000000    2.75000000
   17.62861061  114.68000031    0.36000001    2.75000000
   17.63166618  117.78700256    0.36000001    2.75000000
   17.63500023  117.19100189    0.36000001    2.75000000
   17.63583374  112.58300018    0.36000001    2.75000000
   17.64138794  112.58300018    0.36000001    2.75000000
   17.64555550  114.59200287    0.36000001    2.75000000
   17.64861107  109.27999878    0.36000001    2.75000000
   17.65194321  116.33200073    0.36000001    2.75000000
   17.66944313  112.18699646    0.36000001    2.75000000
   17.67194366  108.88099670    0.38000000    2.75000000
   17.67499924  109.95400238    0.38000000    2.75000000
   17.67833328  110.02799988    0.40000001    2.75000000
   17.68444443  110.02799988    0.44000000    2.75000000
   17.68861008  114.26399994    0.46000001    2.73000002
   17.69166565  122.69200134    0.44000000    2.73000002
   17.69499969  109.74299622    0.44000000    2.75000000
   17.69833183  123.87799835    0.44000000    2.75000000
   17.70138931  119.74500275    0.44000000    2.75000000
   17.70277786  115.90100098    0.44000000    2.73000002
   17.70527840  119.47899628    0.44000000    2.73000002
   17.70833397  113.80400085    0.44000000    2.75000000
   17.71166801  118.84100342    0.44000000    2.73000002
   17.71500015  116.19899750    0.41999999    2.73000002
   17.71805573  110.76100159    0.41999999    2.73000002
   17.72138977  109.20300293    0.41999999    2.73000002
   17.72722244  109.20300293    0.41999999    2.75000000
   17.73139000  116.66899872    0.41999999    2.73000002
   17.73472214  120.99099731    0.41999999    2.73000002
   17.73611069  111.76899719    0.41999999    2.73000002
   17.73833275  113.47899628    0.41999999    2.73000002
   17.74138832  115.72699738    0.41999999    2.75000000
   17.74472237  117.39199829    0.41999999    2.73000002
   17.74777794  112.24600220    0.41999999    2.73000002
   17.75111198  115.16600037    0.41999999    2.73000002
   17.75444412  115.04499817    0.41999999    2.73000002
   17.75749969  111.11299896    0.41999999    2.73000002
   17.76083374  116.68399811    0.41999999    2.75000000
   17.76416588  112.20800018    0.41999999    2.75000000
   17.77000046  112.20800018    0.41999999    2.73000002
   17.77416611  115.39900208    0.41999999    2.73000002
   17.77750015  112.27300262    0.41999999    2.73000002
   17.78055573  117.62200165    0.44000000    2.73000002
   17.78388786  114.56700134    0.44000000    2.73000002
   17.78722191  111.13099670    0.41999999    2.75000000
   17.79027748  113.92800140    0.41999999    2.73000002
   17.79361153  115.52799988    0.44000000    2.75000000
   17.79666710  111.65399933    0.44000000    2.73000002
   17.79999924  112.55000305    0.44000000    2.73000002
   17.80277634  116.83399963    0.44000000    2.75000000
   17.80388832  107.83699799    0.44000000    2.75000000
   17.80694389  116.41200256    0.41999999    2.75000000
   17.81305504  116.41200256    0.41999999    2.73000002
   17.81694603  116.25399780    0.41999999    2.73000002
   17.82027817  113.91899872    0.41999999    2.73000002
   17.82361221  119.52300262    0.41999999    2.73000002
   17.82666779  122.43299866    0.41999999    2.73000002
   17.83000183  122.90100098    0.41999999    2.73000002
   17.83333397  117.39900208    0.44000000    2.75000000
   17.83611107  124.86900330    0.44000000    2.75000000
   17.83694458  115.95600128    0.44000000    2.75000000
   17.84000015  120.64600372    0.44000000    2.73000002
   17.84333420  120.15000153    0.44000000    2.73000002
   17.84666824  117.61299896    0.41999999    2.73000002
   17.84972191  112.77999878    0.41999999    2.73000002
   17.85583305  112.77999878    0.44000000    2.73000002
   17.86000061  121.77100372    0.41999999    2.73000002
   17.86305618  114.92400360    0.41999999    2.73000002
   17.86638832  116.09999847    0.41999999    2.73000002
   17.86944389  116.36900330    0.44000000    2.73000002
   17.87000084  112.85500336    0.44000000    2.73000002
   17.87305641  109.75299835    0.41999999    2.73000002
   17.87638855  109.15100098    0.41999999    2.73000002
   17.87972260  117.19400024    0.41999999    2.73000002
   17.88277817  110.30000305    0.41999999    2.73000002
   17.88611031  115.93399811    0.41999999    2.73000002
   17.88944435  114.75000000    0.41999999    2.73000002
   17.89249992  122.90899658    0.41999999    2.73000002
   17.89861107  122.90899658    0.41999999    2.75000000
   17.90277672  115.85800171    0.41999999    2.73000002
   17.90611076  124.36900330    0.41999999    2.73000002
   17.90916634  109.84700012    0.41999999    2.73000002
   17.91250038  118.49800110    0.41999999    2.73000002
   17.91583252  115.34200287    0.41999999    2.73000002
   17.91888809  116.79199982    0.41999999    2.73000002
   17.92222214  115.74400330    0.41999999    2.73000002
   17.92527771  115.98600006    0.41999999    2.73000002
   17.92860985  115.77999878    0.41999999    2.73000002
   17.93194389  113.58100128    0.41999999    2.73000002
   17.93527603  114.73000336    0.41999999    2.73000002
   17.93610954  116.97699738    0.41999999    2.73000002
   17.94138718  116.97699738    0.41999999    2.73000002
   17.94555473  115.91000366    0.41999999    2.73000002
   17.94888878  114.73100281    0.41999999    2.73000002
   17.95194435  119.22399902    0.40000001    2.73000002
   17.95527840  116.61100006    0.41999999    2.73000002
   17.95861244  122.61199951    0.40000001    2.73000002
   17.96166801  116.91899872    0.41999999    2.73000002
   17.96500015  116.49299622    0.40000001    2.73000002
   17.96805573  113.35800171    0.40000001    2.73000002
   17.96944427  113.84600067    0.40000001    2.73000002
   17.97194481  114.39299774    0.40000001    2.73000002
   17.97500038  120.15599823    0.40000001    2.73000002
   17.97833443  123.42400360    0.40000001    2.73000002
   17.98416710  123.42400360    0.40000001    2.73000002
   17.98833275  118.81099701    0.40000001    2.73000002
   17.99166679  117.69400024    0.40000001    2.71000004
   17.99500084  113.97699738    0.40000001    2.71000004
   17.99805641  119.52300262    0.41999999    2.71000004
   18.00138855  110.65899658    0.41999999    2.73000002
   18.00277710  113.84400177    0.41999999    2.73000002
   18.00499916  110.66600037    0.41999999    2.73000002
   18.00805473  112.81900024    0.41999999    2.73000002
   18.01138878  111.13300323    0.41999999    2.73000002
   18.01472282  112.42600250    0.41999999    2.73000002
   18.01777840  110.69799805    0.41999999    2.73000002
   18.02111053  117.60700226    0.41999999    2.73000002
   18.02722168  117.60700226    0.41999999    2.73000002
   18.03138924  119.43000031    0.41999999    2.73000002
   18.03444481  117.92600250    0.44000000    2.73000002
   18.03610992  115.06800079    0.44000000    2.73000002
   18.03833199  114.64700317    0.44000000    2.73000002
   18.04138756  112.93299866    0.44000000    2.73000002
   18.04500008  116.48899841    0.41999999    2.73000002
   18.04805565  114.17800140    0.41999999    2.71000004
   18.05138779  114.33899689    0.41999999    2.73000002
   18.05472183  114.48600006    0.44000000    2.73000002
   18.05777740  108.68800354    0.44000000    2.73000002
   18.06110954  110.01999664    0.44000000    2.73000002
   18.06444359  114.52500153    0.44000000    2.73000002
   18.07000160  114.52500153    0.41999999    2.73000002
   18.07416725  113.45200348    0.41999999    2.71000004
   18.07722282  110.85800171    0.41999999    2.73000002
   18.08055687  110.64700317    0.41999999    2.73000002
   18.08388901  115.73000336    0.41999999    2.71000004
   18.08694458  106.36499786    0.44000000    2.73000002
   18.09027863  110.31400299    0.41999999    2.73000002
   18.09361267  118.54000092    0.41999999    2.73000002
   18.09666824  115.86299896    0.41999999    2.73000002
   18.10000038  113.90699768    0.44000000    2.73000002
   18.10277748  115.47000122    0.44000000    2.73000002
   18.10361099  117.71099854    0.44000000    2.73000002
   18.10666656  115.78399658    0.44000000    2.73000002
   18.11277771  115.78399658    0.44000000    2.73000002
   18.11694527  120.48699951    0.44000000    2.71000004
   18.12027740  113.11699677    0.44000000    2.71000004
   18.12333298  122.08000183    0.44000000    2.71000004
   18.12666702  113.93499756    0.44000000    2.71000004
   18.13000107  116.22000122    0.44000000    2.73000002
   18.13305473  112.75399780    0.44000000    2.71000004
   18.13611031  111.07299805    0.44000000    2.71000004
   18.13694382  115.85500336    0.44000000    2.71000004
   18.13999939  106.39299774    0.44000000    2.71000004
   18.14333344  113.42800140    0.44000000    2.71000004
   18.14666748  112.92500305    0.44000000    2.73000002
   18.14972115  112.03700256    0.44000000    2.71000004
   18.15555573  112.03700256    0.46000001    2.71000004
   18.15972137  112.59500122    0.44000000    2.71000004
   18.16305542  118.55100250    0.44000000    2.71000004
   18.16638756  117.63099670    0.44000000    2.73000002
   18.16944313  115.30000305    0.44000000    2.73000002
   18.17000008  118.88800049    0.44000000    2.73000002
   18.17305565  114.31600189    0.44000000    2.73000002
   18.17638779  113.34100342    0.46000001    2.73000002
   18.17972183  117.92800140    0.46000001    2.73000002
   18.18277740  106.85399628    0.44000000    2.71000004
   18.18610954  110.57499695    0.44000000    2.73000002
   18.18916512  118.38600159    0.44000000    2.71000004
   18.19249916  119.48000336    0.46000001    2.73000002
   18.19861031  119.48000336    0.46000001    2.71000004
   18.20277786  111.95300293    0.46000001    2.73000002
   18.20305634  115.10600281    0.46000001    2.73000002
   18.20639038  110.10800171    0.46000001    2.71000004
   18.20972252  112.01000214    0.46000001    2.71000004
   18.21305656  109.96099854    0.46000001    2.71000004
   18.21611214  117.16100311    0.47999999    2.71000004
   18.21944427  111.45200348    0.46000001    2.73000002
   18.22249985  118.65899658    0.47999999    2.71000004
   18.22583389  103.79900360    0.47999999    2.71000004
   18.22916794  115.29799652    0.47999999    2.71000004
   18.23222351  103.01100159    0.46000001    2.73000002
   18.23555565  106.81900024    0.46000001    2.71000004
   18.23638916  110.02600098    0.46000001    2.71000004
   18.24138832  110.02600098    0.47999999    2.71000004
   18.24555588  108.35399628    0.47999999    2.71000004
   18.24888992  110.09600067    0.47999999    2.71000004
   18.25194359  117.59799957    0.47999999    2.71000004
   18.25527763  114.39099884    0.47999999    2.71000004
   18.25833321  114.63600159    0.50000000    2.73000002
   18.26166725  117.14900208    0.47999999    2.73000002
   18.26499939  116.87899780    0.50000000    2.71000004
   18.26805496  126.82599640    0.50000000    2.73000002
   18.26972198  114.06300354    0.50000000    2.73000002
   18.27166557  111.52999878    0.50000000    2.73000002
   18.27499962  114.57099915    0.51999998    2.73000002
   18.27805519  120.10900116    0.51999998    2.73000002
   18.28416634  120.10900116    0.50000000    2.71000004
   18.28833199  112.04000092    0.50000000    2.71000004
   18.29166603  113.37200165    0.50000000    2.71000004
   18.29472160  114.47699738    0.51999998    2.71000004
   18.29805565  113.39299774    0.51999998    2.71000004
   18.30138779  113.02999878    0.51999998    2.71000004
   18.30305481  110.16400146    0.52999997    2.71000004
   18.30499840  108.58300018    0.52999997    2.71000004
   18.30833244  106.63099670    0.52999997    2.71000004
   18.31138802  117.18199921    0.51999998    2.71000004
   18.31472206  111.15599823    0.52999997    2.71000004
   18.31805611  117.54499817    0.55000001    2.71000004
   18.32111168  117.75000000    0.55000001    2.71000004
   18.32694626  117.75000000    0.55000001    2.71000004
   18.33111191  118.53399658    0.52999997    2.71000004
   18.33444595  113.37400055    0.51999998    2.71000004
   18.33666801  113.00700378    0.51999998    2.71000004
   18.33805656  115.58000183    0.51999998    2.71000004
   18.34138870  116.06199646    0.50000000    2.71000004
   18.34444427  114.16200256    0.50000000    2.71000004
   18.34777832  117.79900360    0.50000000    2.71000004
   18.35111237  113.48899841    0.50000000    2.71000004
   18.35416794  119.08599854    0.50000000    2.71000004
   18.35750008  116.29599762    0.50000000    2.71000004
   18.36083412  110.52799988    0.50000000    2.71000004
   18.36388969  113.88200378    0.50000000    2.71000004
   18.37000084  113.88200378    0.50000000    2.71000004
   18.37416649  119.56900024    0.50000000    2.71000004
   18.37722206  116.57499695    0.50000000    2.71000004
   18.38055611  117.07599640    0.50000000    2.71000004
   18.38361168  119.96199799    0.50000000    2.71000004
   18.38694382  114.07900238    0.47999999    2.71000004
   18.39027786  122.04599762    0.47999999    2.71000004
   18.39333344  110.94899750    0.47999999    2.71000004
   18.39666748  118.70200348    0.47999999    2.71000004
   18.39999962  112.52100372    0.47999999    2.71000004
   18.40305519  118.09200287    0.47999999    2.71000004
   18.40361023  114.42900085    0.47999999    2.71000004
   18.40694427  120.02400208    0.47999999    2.71000004
   18.41277695  120.02400208    0.47999999    2.71000004
   18.41694450  116.33699799    0.47999999    2.71000004
   18.42000008  118.17900085    0.47999999    2.71000004
   18.42333221  118.24900055    0.47999999    2.71000004
   18.42666626  115.90599823    0.47999999    2.71000004
   18.42972183  120.21499634    0.47999999    2.71000004
   18.43305397  110.01699829    0.47999999    2.71000004
   18.43638802  118.86499786    0.47999999    2.71000004
   18.43694305  117.90499878    0.47999999    2.71000004
   18.43999863  127.48100281    0.47999999    2.71000004
   18.44305420  116.78900146    0.47999999    2.71000004
   18.44638824  122.11399841    0.47999999    2.71000004
   18.44972038  121.70099640    0.47999999    2.69000006
   18.45555687  121.70099640    0.47999999    2.69000006
   18.45972252  113.86199951    0.47999999    2.71000004
   18.46305656  122.30000305    0.50000000    2.71000004
   18.46611214  122.78199768    0.50000000    2.71000004
   18.46944427  113.59899902    0.50000000    2.71000004
   18.47027779  118.47100067    0.50000000    2.71000004
   18.47305679  119.24099731    0.50000000    2.71000004
   18.47611237  123.11199951    0.50000000    2.71000004
   18.47944450  117.51599884    0.50000000    2.71000004
   18.48277855  112.02600098    0.50000000    2.71000004
   18.48583412  116.71499634    0.50000000    2.71000004
   18.48916626  116.73500061    0.50000000    2.69000006
   18.49222183  114.65699768    0.50000000    2.71000004
   18.49833298  114.65699768    0.47999999    2.71000004
   18.50250053  109.95500183    0.47999999    2.71000004
   18.50361061  119.85299683    0.47999999    2.71000004
   18.50638962  122.37400055    0.50000000    2.71000004
   18.50944519  118.90699768    0.47999999    2.73000002
   18.51277733  115.41300201    0.47999999    2.73000002
   18.51611137  122.54900360    0.47999999    2.71000004
   18.51916695  119.08899689    0.47999999    2.71000004
   18.52249908  117.98200226    0.47999999    2.71000004
   18.52583313  127.80000305    0.47999999    2.71000004
   18.52888870  115.43599701    0.47999999    2.71000004
   18.53222275  119.90299988    0.47999999    2.71000004
   18.53527641  120.94400024    0.50000000    2.71000004
   18.53694344  118.32099915    0.50000000    2.71000004
   18.54138756  118.32099915    0.50000000    2.71000004
   18.54527664  111.11799622    0.50000000    2.71000004
   18.54861069  109.81099701    0.50000000    2.71000004
   18.55194283  115.03199768    0.50000000    2.71000004
   18.55499840  115.07199860    0.50000000    2.71000004
   18.55833244  119.44000244    0.50000000    2.71000004
   18.56166649  112.18800354    0.51999998    2.71000004
   18.56499863  114.19899750    0.51999998    2.71000004
   18.56805611  121.73500061    0.51999998    2.71000004
   18.57027817  112.84400177    0.51999998    2.71000004
   18.57166672  119.03099823    0.51999998    2.71000004
   18.57472229  109.72599792    0.51999998    2.71000004
   18.57805634  113.80599976    0.51999998    2.71000004
   18.58416748  113.80599976    0.51999998    2.71000004
   18.58833313  111.05699921    0.51999998    2.71000004
   18.59138870  118.20099640    0.52999997    2.71000004
   18.59472275  113.83999634    0.52999997    2.71000004
   18.59805679  117.40200043    0.52999997    2.71000004
   18.60111237  119.64900208    0.52999997    2.71000004
   18.60361099  119.51699829    0.51999998    2.69000006
   18.60499954  116.07599640    0.51999998    2.69000006
   18.60805511  111.54699707    0.51999998    2.71000004
   18.61138916  116.91200256    0.51999998    2.71000004
   18.61472321  109.49700165    0.51999998    2.69000006
   18.61777878  119.55599976    0.51999998    2.71000004
   18.62111092  112.40000153    0.51999998    2.71000004
   18.62694550  112.40000153    0.51999998    2.71000004
   18.63111115  113.33100128    0.51999998    2.69000006
   18.64555550  121.88600159    0.00000000    0.00000000
   18.64611053  113.69300079    0.52999997    2.69000006
   18.64916611  109.23300171    0.51999998    2.69000006
   18.65250015  111.31500244    0.52999997    2.69000006
   18.65555573  112.51100159    0.52999997    2.69000006
   18.65888786  109.17900085    0.52999997    2.69000006
   18.66222191  111.58100128    0.52999997    2.69000006
   18.66527748  115.10399628    0.52999997    2.69000006
   18.66860962  110.28800201    0.52999997    2.69000006
   18.68750000   71.40750122    0.52999997    2.69000006
   18.68944359  104.09300232    0.51999998    2.71000004
   18.70250130  119.93699646    0.00000000    0.00000000
   18.70583344  113.63300323    0.52999997    2.71000004
   18.70888901  117.25499725    0.52999997    2.69000006
   18.71222305  110.97599792    0.55000001    2.69000006
   18.71638870  110.97599792    0.55000001    2.69000006
   18.72583389  116.10900116    0.55000001    2.69000006
   18.72611237  113.69100189    0.55000001    2.69000006
   18.72944450  111.44100189    0.55000001    2.71000004
   18.73250008  110.25599670    0.55000001    2.69000006
   18.73583412  110.99400330    0.56999999    2.69000006
   18.74777794  108.95200348    0.00000000    0.00000000
   18.75111198  108.70700073    0.56999999    2.69000006
   18.75416756  117.12899780    0.56999999    2.69000006
   18.75499916  115.15299988    0.56999999    2.69000006
   18.76861000  115.15299988    0.56999999    2.69000006
   18.77277756  110.97799683    0.58999997    2.69000006
   18.77583313  117.39399719    0.58999997    2.69000006
   18.77916718  118.91400146    0.58999997    2.69000006
   18.79111099  115.00700378    0.00000000    0.00000000
   18.79166603  112.91600037    0.63000000    2.69000006
   18.79472160  116.78199768    0.61000001    2.71000004
   18.79777718  115.39099884    0.61000001    2.69000006
   18.80194283  115.39099884    0.67000002    2.69000006
   18.80861092  118.65799713    0.76999998    2.69000006
   18.81194305  109.17600250    0.73000002    2.69000006
   18.82444572  117.83399963    0.00000000    0.00000000
   18.82500076  114.68499756    1.03999996    2.69000006
   18.82805634  112.70700073    1.01999998    2.67000008
   18.83111191  112.01999664    0.94000000    2.69000006
   18.83444595  109.54100037    1.09000003    2.67000008
   18.83777809  113.81500244    0.94000000    2.69000006
   18.84083366  109.62999725    0.94000000    2.69000006
   18.84416771  113.15100098    0.89999998    2.67000008
   18.84722328  109.04799652    0.95999998    2.69000006
   18.85194397  109.04799652    0.89999998    2.67000008
   18.85611153  111.77600098    0.80000001    2.67000008
   18.85861206  109.70999908    0.76999998    2.69000006
   18.86000061  113.21299744    0.76999998    2.69000006
   18.86333466  113.71900177    0.69000000    2.69000006
   18.86666679  113.09100342    0.75000000    2.67000008
   18.86972237  110.92600250    0.79000002    2.69000006
   18.87305641  112.62999725    0.79000002    2.69000006
   18.87611198  111.52999878    0.79000002    2.69000006
   18.87944412  110.20200348    0.75000000    2.67000008
   18.88277817  109.96700287    0.70999998    2.69000006
   18.88583374  118.38999939    0.73000002    2.69000006
   18.88916588  108.54299927    0.75000000    2.69000006
   18.91250038  108.54299927    0.00000000    0.00000000
   18.91666603  112.61799622    0.69000000    2.69000006
   18.91972160  108.76499939    0.69000000    2.69000006
   18.92305565  116.65699768    0.67000002    2.67000008
   18.92611122  110.87100220    0.67000002    2.69000006
   18.92805481  113.03399658    0.67000002    2.69000006
   18.93000031  112.28600311    0.67000002    2.67000008
   18.93305397  113.53500366    0.67000002    2.69000006
   18.93999863  113.53500366    0.67000002    2.69000006
   18.94416618  110.90699768    0.67000002    2.69000006
   18.94749832  108.48400116    0.67000002    2.67000008
   18.95055580  112.24099731    0.67000002    2.67000008
   18.95388985  117.07199860    0.67000002    2.69000006
   18.95722389  105.96299744    0.64999998    2.69000006
   18.96027946  108.43800354    0.64999998    2.67000008
   18.96138954  104.96399689    0.64999998    2.67000008
   18.96416664  109.63899994    0.64999998    2.69000006
   18.96722221  113.84899902    0.64999998    2.67000008
   18.97055626  112.45800018    0.64999998    2.67000008
   18.98333359  110.36199951    0.00000000    0.00000000
   18.98750114  110.36199951    0.64999998    2.69000006
   18.99166679  108.84100342    0.63000000    2.67000008
   19.00583267  110.17600250    0.00000000    0.00000000
   19.00638962  113.46399689    0.63000000    2.69000006
   19.00944519  112.35800171    0.63000000    2.69000006
   19.01277733  114.31099701    0.63000000    2.69000006
   19.01583290  113.15699768    0.63000000    2.67000008
   19.01916695  112.18199921    0.63000000    2.69000006
   19.02222252  112.73799896    0.63000000    2.69000006
   19.02555466  112.83999634    0.63000000    2.69000006
   19.02888870  111.98400116    0.63000000    2.69000006
   19.03333282  111.98400116    0.63000000    2.67000008
   19.03750038  113.45200348    0.63000000    2.67000008
   19.03972244  110.45999908    0.63000000    2.67000008
   19.04138756  118.08899689    0.64999998    2.67000008
   19.04444313  111.83599854    0.64999998    2.67000008
   19.04777718  109.47399902    0.64999998    2.67000008
   19.05111122  111.61199951    0.64999998    2.67000008
   19.05416679  108.44400024    0.67000002    2.67000008
   19.05749893  113.73200226    0.67000002    2.67000008
   19.06055450  113.15799713    0.67000002    2.66000009
   19.06388855  115.97699738    0.67000002    2.67000008
   19.06722260  118.36100006    0.67000002    2.67000008
   19.07027817  114.21700287    0.67000002    2.67000008
   19.07638931  114.21700287    0.67000002    2.67000008
   19.08027840  118.84500122    0.67000002    2.67000008
   19.08361244  115.38700104    0.67000002    2.67000008
   19.08694458  126.58300018    0.69000000    2.67000008
   19.09000015  121.22399902    0.69000000    2.67000008
   19.09333420  118.87999725    0.69000000    2.67000008
   19.09666824  113.82800293    0.67000002    2.66000009
   19.09972191  127.97000122    0.67000002    2.66000009
   19.10305595  115.98200226    0.67000002    2.66000009
   19.10639000  117.61599731    0.67000002    2.67000008
   19.10722351  116.88200378    0.67000002    2.67000008
   19.11000061  117.40299988    0.67000002    2.67000008
   19.11305618  110.82399750    0.67000002    2.67000008
   19.11916733  110.82399750    0.64999998    2.66000009
   19.12333298  113.50800323    0.67000002    2.67000008
   19.12638855  118.97699738    0.67000002    2.67000008
   19.12972260  112.58300018    0.67000002    2.67000008
   19.13305473  111.08999634    0.67000002    2.66000009
   19.13611031  111.66899872    0.67000002    2.67000008
   19.13944435  108.69799805    0.67000002    2.67000008
   19.14055634  110.53600311    0.67000002    2.67000008
   19.14333344  117.47899628    0.64999998    2.67000008
   19.14638901  113.44799805    0.64999998    2.67000008
   19.14972115  116.82099915    0.64999998    2.66000009
   19.15305519  108.62500000    0.64999998    2.67000008
   19.15611076  107.53600311    0.64999998    2.67000008
   19.16194344  107.53600311    0.64999998    2.67000008
   19.16611099  115.17199707    0.64999998    2.67000008
   19.16944313  117.87000275    0.64999998    2.66000009
   19.17249870  119.10800171    0.64999998    2.66000009
   19.18610954  116.43299866    0.64999998    2.66000009
   19.18833160  110.12699890    0.67000002    2.66000009
   19.19138718  111.81999969    0.67000002    2.67000008
   19.19472122  109.33999634    0.67000002    2.66000009
   19.19777679  113.37400055    0.67000002    2.66000009
   19.20111275  113.45099640    0.67000002    2.66000009
   19.20444489  113.28800201    0.67000002    2.66000009
   19.20750046  111.44699860    0.67000002    2.66000009
   19.20805550  111.50599670    0.67000002    2.66000009
   19.21361160  111.50599670    0.69000000    2.66000009
   19.21777916  111.11699677    0.69000000    2.67000008
   19.22111130  113.35700226    0.69000000    2.67000008
   19.22416687  118.06700134    0.69000000    2.66000009
   19.22750092  109.51499939    0.69000000    2.67000008
   19.23055649  108.96399689    0.70999998    2.66000009
   19.23388863  110.56999969    0.70999998    2.66000009
   19.23722267  111.36199951    0.70999998    2.66000009
   19.24027824  108.23300171    0.70999998    2.66000009
   19.24083328  110.40100098    0.70999998    2.66000009
   19.24416733  117.71299744    0.70999998    2.66000009
   19.24749947  117.85099792    0.73000002    2.66000009
   19.25055504  110.49800110    0.73000002    2.66000009
   19.25638962  110.49800110    0.76999998    2.67000008
   19.26055527  110.71199799    0.76999998    2.66000009
   19.26388931  111.43399811    0.79000002    2.66000009
   19.26694489  119.65899658    0.79000002    2.66000009
   19.27027702  113.83000183    0.80000001    2.66000009
   19.27361107  111.82499695    0.80000001    2.66000009
   19.27416611  110.88999939    0.80000001    2.66000009
   19.27722168  117.53800201    0.81999999    2.66000009
   19.28055573  111.88600159    0.80000001    2.64000010
   19.28361130  110.82700348    0.81999999    2.66000009
   19.28694344  111.66500092    0.81999999    2.66000009
   19.28999901  117.20500183    0.81999999    2.64000010
   19.29333305  113.13500214    0.81999999    2.64000010
   19.29944420  113.13500214    0.86000001    2.66000009
   19.30360985  113.16400146    0.83999997    2.66000009
   19.30666542  111.24600220    0.83999997    2.66000009
   19.30749893  114.92900085    0.86000001    2.64000010
   19.31027794  115.03700256    0.86000001    2.64000010
   19.31361008  116.73400116    0.81999999    2.66000009
   19.31666756  116.32800293    0.81999999    2.66000009
   19.32000160  115.73999786    0.81999999    2.64000010
   19.32333374  114.36100006    0.81999999    2.64000010
   19.32638931  111.90299988    0.80000001    2.64000010
   19.32972336  114.30699921    0.80000001    2.66000009
   19.33277893  114.50199890    0.80000001    2.66000009
   19.33611107  118.26599884    0.80000001    2.64000010
   19.34222221  118.26599884    0.80000001    2.66000009
   19.34638977  115.69100189    0.79000002    2.66000009
   19.34944534  118.71900177    0.79000002    2.66000009
   19.35277748  116.97799683    0.79000002    2.66000009
   19.35611153  118.43900299    0.76999998    2.66000009
   19.35916710  111.79199982    0.79000002    2.66000009
   19.36250114  119.48600006    0.79000002    2.66000009
   19.36555672  117.04900360    0.79000002    2.64000010
   19.36888885  116.35399628    0.79000002    2.64000010
   19.37222290  113.76699829    0.79000002    2.64000010
   19.37416649  115.11000061    0.79000002    2.64000010
   19.37583351  112.23000336    0.79000002    2.64000010
   19.37916756  114.94699860    0.79000002    2.64000010
   19.38500023  114.94699860    0.79000002    2.64000010
   19.38916588  125.33000183    0.80000001    2.64000010
   19.39249992  116.32299805    0.80000001    2.64000010
   19.39555550  117.40899658    0.80000001    2.64000010
   19.39888954  113.10700226    0.80000001    2.64000010
   19.40194321  109.57599640    0.80000001    2.64000010
   19.40527725  109.68000031    0.80000001    2.64000010
   19.40749931  109.64900208    0.80000001    2.64000010
   19.40888786  107.61599731    0.80000001    2.64000010
   19.41222191  112.51799774    0.80000001    2.64000010
   19.41527748  113.68699646    0.80000001    2.61999989
   19.41860962  107.33699799    0.80000001    2.64000010
   19.42166519  115.36499786    0.80000001    2.64000010
   19.42777634  115.36499786    0.80000001    2.64000010
   19.43194389  108.26499939    0.80000001    2.64000010
   19.43527603  108.27300262    0.81999999    2.64000010
   19.43833160  114.04000092    0.81999999    2.64000010
   19.44083214  113.25700378    0.81999999    2.64000010
   19.44222069  105.93099976    0.81999999    2.64000010
   19.44555473  113.23400116    0.80000001    2.64000010
   19.44861031  110.24500275    0.80000001    2.64000010
   19.45194435  110.67700195    0.80000001    2.64000010
   19.45499992  108.25099945    0.80000001    2.64000010
   19.45833397  110.38899994    0.80000001    2.64000010
   19.46166801  109.95300293    0.80000001    2.64000010
   19.46472359  106.00099945    0.80000001    2.61999989
   19.47083473  106.00099945    0.81999999    2.64000010
   19.47472191  111.28500366    0.80000001    2.64000010
   19.47805595  110.08699799    0.80000001    2.64000010
   19.48139000  111.21499634    0.80000001    2.64000010
   19.48444557  118.75499725    0.80000001    2.64000010
   19.48777771  118.73600006    0.81999999    2.64000010
   19.49111176  117.62899780    0.80000001    2.64000010
   19.49416733  115.37999725    0.94000000    2.61999989
   19.49749947  107.11100006    0.94000000    2.61999989
   19.50055504  115.15200043    0.83999997    2.64000010
   19.50388908  113.83399963    0.83999997    2.61999989
   19.50722313  107.15599823    0.83999997    2.61999989
   19.50777817  107.17900085    0.86000001    2.64000010
   19.51361084  107.17900085    0.88000000    2.64000010
   19.51777840  116.99600220    0.86000001    2.61999989
   19.52083397  116.47299957    0.86000001    2.61999989
   19.52416611  111.29799652    0.86000001    2.61999989
   19.52750015  115.21900177    0.86000001    2.61999989
   19.53055573  110.00800323    0.86000001    2.61999989
   19.53388786  113.20899963    0.86000001    2.61999989
   19.53722191  117.78099823    0.86000001    2.61999989
   19.54027748  110.18099976    0.83999997    2.61999989
   19.54111099  111.11000061    0.83999997    2.61999989
   19.54388809  116.73699951    0.86000001    2.64000010
   19.54722214  114.67199707    0.86000001    2.61999989
   19.55055428  112.89900208    0.86000001    2.64000010
   19.55638885  112.89900208    0.86000001    2.61999989
   19.56055450  112.73200226    0.86000001    2.61999989
   19.56361008  117.42199707    0.86000001    2.61999989
   19.56694603  108.26699829    0.86000001    2.61999989
   19.57027817  109.86199951    0.86000001    2.61999989
   19.57333374  109.07900238    0.86000001    2.61999989
   19.57444572  120.00900269    0.86000001    2.61999989
   19.57694626  109.37599945    0.86000001    2.61999989
   19.58027840  110.49900055    0.86000001    2.64000010
   19.58361244  108.84100342    0.88000000    2.61999989
   19.58666801  112.24800110    0.88000000    2.61999989
   19.59000015  109.63500214    0.88000000    2.61999989
   19.59333420  108.36299896    0.89999998    2.61999989
   19.59916687  108.36299896    0.94000000    2.61999989
   19.60333443  111.06400299    1.00000000    2.59999990
   19.60666656  112.75299835    1.03999996    2.59999990
   19.60777855  120.01100159    1.03999996    2.59999990
   19.61027908  117.01799774    1.05999994    2.61999989
   19.61361122  111.82299805    1.05999994    2.61999989
   19.61694527  109.83000183    1.05999994    2.61999989
   19.62000084  116.52200317    1.07000005    2.61999989
   19.62333298  112.00599670    1.09000003    2.61999989
   19.62666702  114.79100037    1.07000005    2.61999989
   19.62972260  115.81199646    1.05999994    2.59999990
   19.63305473  113.13400269    1.05999994    2.59999990
   19.63611031  112.82099915    1.03999996    2.59999990
   19.64222145  112.82099915    1.00000000    2.61999989
   19.64611053  111.83699799    0.98000002    2.59999990
   19.64944458  112.48400116    0.98000002    2.61999989
   19.65277672  111.86900330    1.00000000    2.59999990
   19.65583229  107.27100372    1.00000000    2.61999989
   19.65916634  114.70500183    1.00000000    2.61999989
   19.66222191  110.76100159    1.00000000    2.59999990
   19.66555595  114.73400116    1.00000000    2.59999990
   19.66888809  115.63200378    0.95999998    2.59999990
   19.67194366  115.19000244    0.95999998    2.59999990
   19.67444420  111.59200287    0.98000002    2.59999990
   19.67555428  112.62400055    0.98000002    2.59999990
   19.67888832  108.00000000    0.95999998    2.59999990
   19.68499947  108.00000000    0.94000000    2.59999990
   19.68916512  111.48699951    0.94000000    2.59999990
   19.69222069  111.62599945    0.94000000    2.59999990
   19.69555473  116.67900085    0.94000000    2.59999990
   19.69888878  116.69999695    0.94000000    2.59999990
   19.70194435  114.70200348    0.94000000    2.59999990
   19.70527840  112.47499847    0.94000000    2.59999990
   19.70777893  116.85900116    0.94000000    2.59999990
   19.70916748  115.65599823    0.94000000    2.59999990
   19.71222305  116.63400269    0.94000000    2.59999990
   19.71555710  117.25599670    0.94000000    2.59999990
   19.73611069  117.25599670    0.94000000    2.59999990
   19.74027824  115.94699860    0.94000000    2.59999990
   19.74138832  110.30200195    0.94000000    2.57999992
   19.74388885  110.44799805    0.94000000    2.57999992
   19.74722290  107.02799988    0.92000002    2.57999992
   19.75055504  112.02899933    0.92000002    2.59999990
   19.75361061  108.16000366    0.94000000    2.57999992
   19.75694466  111.81900024    0.94000000    2.59999990
   19.76000023  114.72000122    0.94000000    2.59999990
   19.76333427  112.51300049    0.94000000    2.59999990
   19.76666641  115.47299957    0.94000000    2.59999990
   19.76972198  114.36499786    0.94000000    2.59999990
   19.77305603  111.85600281    0.94000000    2.57999992
   19.77472115  112.58100128    0.94000000    2.57999992
   19.77888870  112.58100128    0.95999998    2.57999992
   19.78305435  114.97299957    0.95999998    2.57999992
   19.78610992  113.07099915    0.95999998    2.57999992
   19.78944397  110.63500214    0.95999998    2.57999992
   19.79277802  107.34999847    0.98000002    2.59999990
   19.79583359  109.81900024    0.95999998    2.59999990
   19.79916573  110.77500153    0.98000002    2.57999992
   19.80249977  106.86299896    0.95999998    2.57999992
   19.80555534  112.13899994    0.95999998    2.57999992
   19.80805397  113.18000031    0.95999998    2.57999992
   19.80916595  115.43199921    0.98000002    2.57999992
   19.81250000  108.48200226    0.98000002    2.57999992
   19.81583214  109.13099670    0.95999998    2.57999992
   19.82166672  109.13099670    1.07000005    2.57999992
   19.82583427  110.70899963    1.11000001    2.57999992
   19.82916832  112.93699646    1.07000005    2.57999992
   19.83222389  106.41300201    1.01999998    2.57999992
   19.83555603  110.50199890    1.00000000    2.57999992
   19.83889008  109.79599762    1.00000000    2.57999992
   19.84138870  110.72799683    0.98000002    2.55999994
   19.84222221  107.01100159    0.98000002    2.55999994
   19.84555626  109.04599762    0.98000002    2.57999992
   19.84889030  105.69400024    1.00000000    2.57999992
   19.85194397  107.05699921    0.98000002    2.57999992
   19.85527802  105.00000000    1.00000000    2.57999992
   19.85861206  112.62699890    1.00000000    2.57999992
   19.86444473  112.62699890    1.00000000    2.55999994
   19.86861038  116.73300171    1.00000000    2.57999992
   19.87194443  112.09100342    1.00000000    2.57999992
   19.87472153  110.57199860    1.01999998    2.57999992
   19.87555504  110.60199738    1.01999998    2.57999992
   19.87888908  115.78099823    1.01999998    2.55999994
   19.88222313  107.45999908    1.01999998    2.57999992
   19.88527679  113.55899811    1.03999996    2.57999992
   19.88861084  108.62899780    1.03999996    2.55999994
   19.89194489  117.07800293    1.03999996    2.55999994
   19.89500046  111.85600281    1.03999996    2.55999994
   19.89833260  116.55799866    1.03999996    2.55999994
   19.90138817  111.64800262    1.05999994    2.55999994
   19.90749931  111.64800262    1.03999996    2.55999994
   19.91166687  113.64600372    1.03999996    2.55999994
   19.91472244  115.44100189    1.03999996    2.55999994
   19.91805458  112.55699921    1.01999998    2.57999992
   19.92111015  113.10099792    1.03999996    2.55999994
   19.92444420  115.98600006    1.01999998    2.55999994
   19.92777634  114.37699890    1.01999998    2.55999994
   19.93083191  113.68000031    1.01999998    2.55999994
   19.93416595  112.07900238    1.03999996    2.55999994
   19.93750000  109.61299896    1.03999996    2.55999994
   19.94055557  108.24099731    1.03999996    2.55999994
   19.94249916  108.98799896    1.03999996    2.55999994
   19.94444275  113.29000092    1.03999996    2.55999994
   19.95027924  113.29000092    1.03999996    2.55999994
   19.95444489  114.93399811    1.03999996    2.55999994
   19.95750046  111.59999847    1.05999994    2.55999994
   19.96083450  110.36299896    1.05999994    2.55999994
   19.96416664  110.50499725    1.05999994    2.55999994
   19.96750069  114.84799957    1.05999994    2.53999996
   19.97055626  115.38999939    1.07000005    2.55999994
   19.97389030  111.38899994    1.07000005    2.55999994
   19.97583389  113.87100220    1.07000005    2.55999994
   19.97750092  109.63800049    1.09000003    2.55999994
   19.98055649  114.41300201    1.09000003    2.55999994
   19.98388863  115.07399750    1.09000003    2.55999994
   19.98694420  121.83200073    1.09000003    2.55999994
   19.99305534  121.83200073    1.09000003    2.55999994
   19.99722290  115.52100372    1.09000003    2.55999994
   20.00055504  116.36499786    1.09000003    2.53999996
   20.00361061  111.94499969    1.09000003    2.53999996
   20.00694466  111.17800140    1.09000003    2.53999996
   20.00944519  116.97799683    1.09000003    2.53999996
   20.01055527  114.69699860    1.09000003    2.53999996
   20.01388931  111.39299774    1.09000003    2.55999994
   20.01722145  114.23100281    1.09000003    2.55999994
   20.02027702  112.56500244    1.11000001    2.53999996
   20.02361107  117.53600311    1.11000001    2.53999996
   20.02666664  118.56900024    1.11000001    2.53999996
   20.03000069  133.49400330    1.11000001    2.53999996
   20.03583336  133.49400330    1.13000000    2.53999996
   20.03999901  143.81500244    1.13000000    2.53999996
   20.04277802  168.21099854    1.13000000    2.53999996
   20.04361153  188.13000488    1.13000000    2.53999996
   20.04694366  214.05599976    1.13000000    2.53999996
   20.04999924  298.04199219    1.13000000    2.53999996
   20.05333328  119.25199890    1.13000000    2.53999996
   20.05666542   97.06279755    1.13000000    2.55999994
   20.05972099   -1.00000000    1.13000000    2.53999996
   20.06305504   -1.00000000    1.13000000    2.53999996
   20.06638718   -1.00000000    1.13000000    2.53999996
   20.06944466   -1.00000000    1.13000000    2.53999996
   20.07277870   -1.00000000    1.14999998    2.53999996
   20.08277893   -1.00000000    1.13000000    2.53999996
   20.08611107   -1.00000000    1.13000000    2.53999996
   20.08916664   -1.00000000    1.13000000    2.53999996
