    HOUR (UT)   FLARE FACTOR    SKY TESTER    SUN TESTER
   11.58138847   -1.00000000   -1.00000000   -1.00000000
   11.65972137  349.50399780    0.00000000    0.00000000
   11.66305542  365.24099731    0.00000000    0.00000000
   11.66638851  346.78399658    0.00000000    0.00000000
   11.66944504  332.06201172    0.00000000    0.00000000
   11.67277813  412.95199585    0.00000000    0.00000000
   11.67472267  275.44198608    0.00000000    0.00000000
   11.67500019  365.24099731    0.00000000    0.00000000
   11.67500019  346.78399658    0.00000000    0.00000000
   11.67500019  332.06201172    0.00000000    0.00000000
   11.67527771  412.95199585    0.00000000    0.00000000
   11.67722225  327.55398560    0.00000000    0.00000000
   11.68027782  357.14700317    0.00000000    0.00000000
   11.68361092  285.76901245    0.00000000    0.00000000
   11.68694496  352.39599609    0.00000000    0.00000000
   11.69000053  300.45300293    0.00000000    0.00000000
   11.69555569  300.45300293    0.00000000    0.00000000
   11.69972229  310.37500000    0.00000000    0.00000000
   11.70305538  300.07101440    0.00000000    0.00000000
   11.70638847  265.16598511    0.00000000    0.00000000
   11.70861053  280.17300415    0.00000000    0.00000000
   11.71000004  295.07101440    0.00000000    0.00000000
   11.71305561  314.83700562    0.00000000    0.00000000
   11.71638870  308.23199463    0.00000000    0.00000000
   11.71972179  296.68399048    0.00000000    0.00000000
   11.72277737  292.88000488    0.00000000    0.00000000
   11.72638798  282.98599243    0.00000000    0.00000000
   11.72972202  320.86999512    0.00000000    0.00000000
   11.73277760  324.61499023    0.00000000    0.00000000
   11.73833370  324.61499023    0.00000000    0.00000000
   11.74250031  364.37100220    0.00000000    0.00000000
   11.74583340  390.10000610    0.00000000    0.00000000
   11.74916649  431.28298950    0.00000000    0.00000000
   11.75111103  445.31500244    0.00000000    0.00000000
   11.75249958  387.56399536    0.00000000    0.00000000
   11.75388908  458.89898682    0.00000000    0.00000000
   11.75527763  455.70700073    0.00000000    0.00000000
   11.75666714  473.53500366    0.00000000    0.00000000
   11.75805569  411.83099365    4.21999979    1.91999996
   11.75944424  435.95800781    4.21999979    1.91999996
   11.76083374  463.33999634    4.21999979    1.91999996
   11.76222229  481.48800659    4.21999979    1.91999996
   11.76361084  375.52398682    4.21999979    1.91999996
   11.76500034  558.41198730    4.21999979    1.91999996
   11.76638889   19.99290085    4.21999979    1.91999996
   11.76638889  431.28298950    0.00000000    0.00000000
   11.76666641  308.23199463    0.00000000    0.00000000
   11.76666641  296.68399048    0.00000000    0.00000000
   11.76666641  292.88000488    0.00000000    0.00000000
   11.76694393  282.98599243    0.00000000    0.00000000
   11.76694393  320.86999512    0.00000000    0.00000000
   11.76694393  324.61499023    0.00000000    0.00000000
   11.76722240  364.37100220    0.00000000    0.00000000
   11.76722240  390.10000610    0.00000000    0.00000000
   11.76777744   -1.00000000    4.21999979    1.91999996
   11.77111053   -1.00000000    4.21999979    1.91999996
   11.77416611   -1.00000000    4.21999979    1.91999996
   11.77750015   -1.00000000    4.21999979    1.91999996
   11.78055573   -1.00000000    4.21999979    1.91999996
   11.79111195   -1.00000000    4.21999979    1.91999996
   11.79583359   -1.00000000    4.21999979    1.91999996
   11.79916668   -1.00000000    4.21999979    1.91999996
   11.80249977  109.62000275    4.21999979    1.91999996
   11.80583382  911.90899658    4.21999979    1.91999996
   11.80777836  650.36602783    4.21999979    1.91999996
   11.80916691  119.93000031    4.21999979    1.91999996
   11.80916691  911.90899658    4.21999979    1.91999996
   11.80916691   -1.00000000    4.21999979    1.91999996
   11.80944443   -1.00000000    4.21999979    1.91999996
   11.80944443   -1.00000000    4.21999979    1.91999996
   11.80944443   -1.00000000    4.21999979    1.91999996
   11.80972195   -1.00000000    4.21999979    1.91999996
   11.80972195   -1.00000000    4.21999979    1.91999996
   11.80972195   -1.00000000    4.21999979    1.91999996
   11.81000042  109.62000275    4.21999979    1.91999996
   11.81388950   -1.00000000    4.21999979    1.91999996
   11.81694412   -1.00000000    4.21999979    1.91999996
   11.82027817   -1.00000000    4.21999979    1.91999996
   11.82333374   -1.00000000    4.21999979    1.91999996
   11.82999992   -1.00000000    4.21999979    1.91999996
   11.83388901   -1.00000000    4.21999979    1.91999996
   11.83722210   -1.00000000    4.21999979    1.91999996
   11.84055519  150.98199463    4.21999979    1.91999996
   11.84305477  385.62600708    4.21999979    1.91999996
   11.84416676  676.12500000    4.21999979    1.91999996
   11.84638882  441.18499756    4.21999979    1.91999996
   11.84749985  560.20300293    4.21999979    1.91999996
   11.84888840  566.88000488    4.21999979    1.91999996
   11.85027790  459.82199097    4.21999979    1.91999996
   11.85166740  533.47198486    4.21999979    1.91999996
   11.85305595  456.79699707    4.21999979    1.91999996
   11.85444450  470.95199585    4.21999979    1.91999996
   11.85583401  444.67498779    4.21999979    1.91999996
   11.85722256  414.11801147    4.21999979    1.91999996
   11.85861111  444.19299316    4.21999979    1.91999996
   11.86000061  440.65100098    4.21999979    1.91999996
   11.86138916  411.57901001    4.21999979    1.91999996
   11.86277771  428.45401001    4.21999979    1.91999996
   11.86416721  429.55099487    4.21999979    1.91999996
   11.86555576  445.10699463    4.21999979    1.91999996
   11.86694431  406.88800049    4.21999979    1.91999996
   11.86833382  415.58700562    4.21999979    1.91999996
   11.86972237  458.66299438    4.21999979    1.91999996
   11.87111092  444.50100708    4.21999979    1.91999996
   11.87250042  620.10601807    4.21999979    1.91999996
   11.87388897  511.59399414    4.21999979    1.91999996
   11.87527752  638.61401367    4.21999979    1.91999996
   11.87666702  169.28999329    4.21999979    1.91999996
   11.87694454   -1.00000000    4.21999979    1.91999996
   11.87694454   -1.00000000    4.21999979    1.91999996
   11.87694454   -1.00000000    4.21999979    1.91999996
   11.87722206   -1.00000000    4.21999979    1.91999996
   11.87722206   -1.00000000    4.21999979    1.91999996
   11.87722206   -1.00000000    4.21999979    1.91999996
   11.87750053  150.98199463    4.21999979    1.91999996
   11.87750053  676.12500000    4.21999979    1.91999996
   11.87805557   99.89640045    4.21999979    1.91999996
   11.88138866  116.70700073    4.21999979    1.91999996
   11.88444424   -1.00000000    4.21999979    1.91999996
   11.88777733   -1.00000000    4.21999979    1.91999996
   11.89083290   -1.00000000    4.21999979    1.91999996
   11.90166664   -1.00000000    4.21999979    1.91999996
   11.90472221   -1.00000000    4.21999979    1.91999996
   11.90805531   -1.00000000    4.21999979    1.91999996
   11.91138840   -1.00000000    4.21999979    1.91999996
   11.91472149   -1.00000000    4.21999979    1.91999996
   11.91805553   -1.00000000    4.21999979    1.91999996
   11.92111111   -1.00000000    4.21999979    1.91999996
   11.92444515   -1.00000000    4.21999979    1.91999996
   11.92777824   -1.00000000    4.21999979    1.91999996
   11.93083382   -1.00000000    4.21999979    1.91999996
   11.93416691   -1.00000000    4.21999979    1.91999996
   11.94499969   -1.00000000    4.21999979    1.91999996
   11.94833374  139.10899353    4.21999979    1.91999996
   11.95166683  330.95498657    4.21999979    1.91999996
   11.95472240  383.24899292    4.21999979    1.91999996
   11.95805550  433.34298706    4.21999979    1.91999996
   11.96000004  348.37701416    4.21999979    1.91999996
   11.96027756  330.95498657    4.21999979    1.91999996
   11.96027756  383.24899292    4.21999979    1.91999996
   11.96027756  433.34298706    4.21999979    1.91999996
   11.96055508   -1.00000000    4.21999979    1.91999996
   11.96055508   -1.00000000    4.21999979    1.91999996
   11.96055508   -1.00000000    4.21999979    1.91999996
   11.96083355   -1.00000000    4.21999979    1.91999996
   11.96083355   -1.00000000    4.21999979    1.91999996
   11.96083355  139.10899353    4.21999979    1.91999996
   11.96277714  208.39599609    4.21999979    1.91999996
   11.96611118   -1.00000000    4.21999979    1.91999996
   11.96944427   -1.00000000    4.21999979    1.91999996
   11.97249985   -1.00000000    4.21999979    1.91999996
   11.97583294   -1.00000000    4.21999979    1.91999996
   11.98500061   -1.00000000    4.21999979    1.91999996
   11.98805618   92.28530121    4.21999979    1.91999996
   11.99138927   -1.00000000    4.21999979    1.91999996
   11.99472237   78.65260315    4.21999979    1.91999996
   11.99805546  208.87500000    4.21999979    1.91999996
   12.00138855  285.51300049    4.21999979    1.91999996
   12.00444412  289.10299683    4.21999979    1.91999996
   12.00777817  343.17800903    4.21999979    1.91999996
   12.01111126  331.14599609    4.21999979    1.91999996
   12.01416683  409.64199829    4.21999979    1.91999996
   12.01611137  280.27499390    4.21999979    1.91999996
   12.01638889  208.87500000    4.21999979    1.91999996
   12.01638889  285.51300049    4.21999979    1.91999996
   12.01638889  289.10299683    4.21999979    1.91999996
   12.01666641  343.17800903    4.21999979    1.91999996
   12.01666641  331.14599609    4.21999979    1.91999996
   12.01694393  409.64199829    4.21999979    1.91999996
   12.01694393   92.28530121    4.21999979    1.91999996
   12.01694393   -1.00000000    4.21999979    1.91999996
   12.01722240   78.65260315    4.21999979    1.91999996
   12.01916599  109.51499939    4.21999979    1.91999996
   12.02222157  254.96400452    4.21999979    1.91999996
   12.02555561   -1.00000000    4.21999979    1.91999996
   12.02888870   -1.00000000    4.21999979    1.91999996
   12.03194427   -1.00000000    4.21999979    1.91999996
   12.04111195   -1.00000000    4.21999979    1.91999996
   12.04444504  114.53500366    4.21999979    1.91999996
   12.04750061   90.88240051    4.21999979    1.91999996
   12.05000019   67.32700348    4.21999979    1.91999996
   12.05111122   -1.00000000    4.21999979    1.91999996
   12.05444431   -1.00000000    4.21999979    1.91999996
   12.05749989   -1.00000000    4.21999979    1.91999996
   12.06083393   -1.00000000    4.21999979    1.91999996
   12.06388950   -1.00000000    4.21999979    1.91999996
   12.06722260   -1.00000000    4.21999979    1.91999996
   12.07055569   -1.00000000    4.21999979    1.91999996
   12.07361126   -1.00000000    4.21999979    1.91999996
   12.08388901   -1.00000000    4.21999979    1.91999996
   12.08722210   -1.00000000    4.21999979    1.91999996
   12.09055519   -1.00000000    4.21999979    1.91999996
   12.09361076   -1.00000000    4.21999979    1.91999996
   12.09694386   -1.00000000    4.21999979    1.91999996
   12.10000038   -1.00000000    4.21999979    1.91999996
   12.10333347   -1.00000000    4.21999979    1.91999996
   12.10666752   -1.00000000    4.21999979    1.91999996
   12.10972214   -1.00000000    4.21999979    1.91999996
   12.11305618  204.62899780    4.21999979    1.91999996
   12.11638927  719.75299072    4.21999979    1.91999996
   12.11833382  340.78799438    4.21999979    1.91999996
   12.11833382   -1.00000000    4.21999979    1.91999996
   12.11861134   -1.00000000    4.21999979    1.91999996
   12.11861134   -1.00000000    4.21999979    1.91999996
   12.11861134   -1.00000000    4.21999979    1.91999996
   12.11888885   -1.00000000    4.21999979    1.91999996
   12.11888885   -1.00000000    4.21999979    1.91999996
   12.11888885   -1.00000000    4.21999979    1.91999996
   12.11916637  204.62899780    4.21999979    1.91999996
   12.11916637  719.75299072    4.21999979    1.91999996
   12.12111092  703.85498047    4.21999979    1.91999996
   12.12305546  331.40301514    4.21999979    1.91999996
   12.12500000  304.91799927    4.21999979    1.91999996
   12.12833309  364.36300659    4.21999979    1.91999996
   12.13166714  415.16299438    4.21999979    1.91999996
   12.13361073  304.91799927    4.21999979    1.91999996
   12.13361073  364.36300659    4.21999979    1.91999996
   12.13388920  415.16299438    4.21999979    1.91999996
   12.13583279   -1.00000000    4.21999979    1.91999996
   12.13888836   -1.00000000    4.21999979    1.91999996
   12.14222240   -1.00000000    4.21999979    1.91999996
   12.14555550   -1.00000000    4.21999979    1.91999996
   12.14861107   -1.00000000    4.21999979    1.91999996
   12.15833282   -1.00000000    4.21999979    1.91999996
   12.16166592   -1.00000000    4.21999979    1.91999996
   12.16499996   -1.00000000    4.21999979    1.91999996
   12.16833401   -1.00000000    4.21999979    1.91999996
   12.17166710   -1.00000000    4.21999979    1.91999996
   12.17500019   -1.00000000    4.21999979    1.91999996
   12.17833328   -1.00000000    4.21999979    1.91999996
   12.18138885   -1.00000000    4.21999979    1.91999996
   12.18472195   -1.00000000    4.21999979    1.91999996
   12.18777752   -1.00000000    4.21999979    1.91999996
   12.19111156   -1.00000000    4.21999979    1.91999996
   12.20111084   -1.00000000    4.21999979    1.91999996
   12.20444393   -1.00000000    4.21999979    1.91999996
   12.20777798   -1.00000000    4.21999979    1.91999996
   12.21083355   -1.00000000    4.21999979    1.91999996
   12.21416664   -1.00000000    4.21999979    1.91999996
   12.21749973   -1.00000000    4.21999979    1.91999996
   12.22055531   -1.00000000    4.21999979    1.91999996
   12.22388840   -1.00000000    4.21999979    1.91999996
   12.22722149   -1.00000000    4.21999979    1.91999996
   12.23027706   -1.00000000    4.21999979    1.91999996
   12.23361111   -1.00000000    4.21999979    1.91999996
   12.24416733   -1.00000000    4.21999979    1.91999996
   12.24722290   -1.00000000    4.21999979    1.91999996
   12.25055599   -1.00000000    4.21999979    1.91999996
   12.25388908   -1.00000000    4.21999979    1.91999996
   12.25694466   -1.00000000    4.21999979    1.91999996
   12.26027775   -1.00000000    4.21999979    1.91999996
   12.26333332   -1.00000000    4.21999979    1.91999996
   12.26666641   -1.00000000    4.21999979    1.91999996
   12.27027798   -1.00000000    4.21999979    1.91999996
   12.27361107   -1.00000000    4.21999979    1.91999996
   12.27666664   -1.00000000    4.21999979    1.91999996
   12.28694534   -1.00000000    4.21999979    1.91999996
   12.29027843   -1.00000000    4.21999979    1.91999996
   12.29333401   -1.00000000    4.21999979    1.91999996
   12.29666710   -1.00000000    4.21999979    1.91999996
   12.29972267   -1.00000000    4.21999979    1.91999996
   12.30333328   -1.00000000    4.21999979    1.91999996
   12.30666733   -1.00000000    4.21999979    1.91999996
   12.30972195   -1.00000000    4.21999979    1.91999996
   12.31305599   -1.00000000    4.21999979    1.91999996
   12.31638908   -1.00000000    4.21999979    1.91999996
   12.31944466   -1.00000000    4.21999979    1.91999996
   12.32972240   -1.00000000    4.21999979    1.91999996
   12.33305550   -1.00000000    4.21999979    1.91999996
   12.33666611   -1.00000000    4.21999979    1.91999996
   12.34000015   -1.00000000    4.21999979    1.91999996
   12.34305477   -1.00000000    4.21999979    1.91999996
   12.34638882   -1.00000000    4.21999979    1.91999996
   12.34972191   -1.00000000    4.21999979    1.91999996
   12.35277843   -1.00000000    4.21999979    1.91999996
   12.35611153   -1.00000000    4.21999979    1.91999996
   12.35916710   -1.00000000    4.21999979    1.91999996
   12.36250019   -1.00000000    4.21999979    1.91999996
   12.37250042   -1.00000000    4.21999979    1.91999996
   12.37583351   -1.00000000    4.21999979    1.91999996
   12.37916660   -1.00000000    4.21999979    1.91999996
   12.38222218   -1.00000000    4.21999979    1.91999996
   12.38555527   -1.00000000    4.21999979    1.91999996
   12.38888836   -1.00000000    4.21999979    1.91999996
   12.39194393   -1.00000000    4.21999979    1.91999996
   12.39527798   -1.00000000    4.21999979    1.91999996
   12.39833355   -1.00000000    4.21999979    1.91999996
   12.40194416   -1.00000000    4.21999979    1.91999996
   12.40527725   -1.00000000    4.21999979    1.91999996
   12.41555500   -1.00000000    4.21999979    1.91999996
   12.41861153   -1.00000000    4.21999979    1.91999996
   12.42194462   -1.00000000    4.21999979    1.91999996
   12.42527771   -1.00000000    4.21999979    1.91999996
   12.42833328   -1.00000000    4.21999979    1.91999996
   12.43166733   -1.00000000    4.21999979    1.91999996
   12.43527794   -1.00000000    4.21999979    1.91999996
   12.43861103   -1.00000000    4.21999979    1.91999996
   12.44166660   -1.00000000    4.21999979    1.91999996
   12.44499969   -1.00000000    4.21999979    1.91999996
   12.44833374   -1.00000000    4.21999979    1.91999996
   12.45833302   -1.00000000    4.21999979    1.91999996
   12.46166611   -1.00000000    4.21999979    1.91999996
   12.46472168   -1.00000000    4.21999979    1.91999996
   12.46833324   -1.00000000    4.21999979    1.91999996
   12.47166634   -1.00000000    4.21999979    1.91999996
   12.47472191   -1.00000000    4.21999979    1.91999996
   12.57111073   -1.00000000   -1.00000000   -1.00000000
   12.67083359   -1.00000000   -1.00000000   -1.00000000
   12.78472233   -1.00000000   -1.00000000   -1.00000000
   12.90361118   -1.00000000   -1.00000000   -1.00000000
   12.95527744  145.90600586    4.21999979    1.91999996
   12.95833302  142.50000000    4.21999979    1.91999996
   12.96166611  142.75500488    4.21999979    1.91999996
   12.96472168  150.98500061    4.21999979    1.91999996
   12.96805477  139.68400574    4.21999979    1.91999996
   12.97138882  148.49800110    4.21999979    1.91999996
   12.97555542  148.49800110    4.21999979    1.91999996
   12.97944355  149.17999268    4.21999979    1.91999996
   12.98333359  142.93899536    4.21999979    1.91999996
   12.98666668  142.26400757    4.21999979    1.91999996
   12.98833370  136.27299500    4.21999979    1.91999996
   12.99027824  139.13200378    4.21999979    1.91999996
   12.99333382  174.76899719    4.21999979    1.91999996
   12.99666691  151.80700684    4.21999979    1.91999996
   13.00000000  139.38200378    4.21999979    1.91999996
   13.00305557  136.42900085    4.21999979    1.91999996
   13.00638866  139.11799622    4.21999979    1.91999996
   13.00972176  147.02299500    4.21999979    1.91999996
   13.01277733  149.99699402    4.21999979    1.91999996
   13.01833344  149.99699402    4.21999979    1.91999996
   13.02250004  148.31700134    4.21999979    1.91999996
   13.02555561  146.43899536    4.21999979    1.91999996
   13.02888870  148.76199341    4.21999979    1.91999996
   13.03222179  147.29899597    4.21999979    1.91999996
   13.03527832  148.93499756    4.21999979    1.91999996
   13.03861141  143.18899536    4.21999979    1.91999996
   13.04166698  145.05499268    4.21999979    1.91999996
   13.04500008  154.82699585    4.21999979    1.91999996
   13.04833412  149.47300720    4.21999979    1.91999996
   13.05138874  151.89999390    4.21999979    1.91999996
   13.05472279  149.70500183    4.21999979    1.91999996
   13.05527782  140.92500305    4.21999979    1.91999996
   13.06111145  140.92500305    4.21999979    1.91999996
   13.06527805  147.83700562    4.21999979    1.91999996
   13.06861115  144.69400024    4.21999979    1.91999996
   13.07166672  147.06199646    4.21999979    1.91999996
   13.07499981  145.76899719    4.21999979    1.91999996
   13.07805538  139.77799988    4.21999979    1.91999996
   13.08138847  149.70199585    4.21999979    1.91999996
   13.08472157  154.44999695    4.21999979    1.91999996
   13.08777714  145.03300476    4.21999979    1.91999996
   13.08861065  148.16799927    4.21999979    1.91999996
   13.09166622  150.97200012    4.21999979    1.91999996
   13.09472179  149.17700195    4.21999979    1.91999996
   13.09805489  148.99099731    4.21999979    1.91999996
   13.10388947  148.99099731    4.21999979    1.91999996
   13.10805607  142.50900269    4.21999979    1.91999996
   13.11138916  154.38499451    4.21999979    1.91999996
   13.11444473  151.31399536    4.21999979    1.91999996
   13.11777782  149.47900391    4.21999979    1.91999996
   13.12111092  145.49299622    4.21999979    1.91999996
   13.12194443  151.24600220    4.21999979    1.91999996
   13.12444496  140.99499512    4.21999979    1.91999996
   13.12777805  151.47900391    4.21999979    1.91999996
   13.13111115  150.13400269    4.21999979    1.91999996
   13.13416672  144.63999939    4.21999979    1.91999996
   13.13749981  147.73199463    4.21999979    1.91999996
   13.14083290  149.13499451    4.21999979    1.91999996
   13.14694405  149.13499451    4.21999979    1.91999996
   13.15083313  159.68200684    4.21999979    1.91999996
   13.15416622  157.13299561    4.21999979    1.91999996
   13.15527725  159.88800049    4.21999979    1.91999996
   13.15777779  149.96899414    4.21999979    1.91999996
   13.16111088  147.16600037    4.21999979    1.91999996
   13.16444397  151.21200562    4.21999979    1.91999996
   13.16750050  145.95899963    4.21999979    1.91999996
   13.17083359  147.74400330    4.21999979    1.91999996
   13.17416668  143.51600647    4.21999979    1.91999996
   13.17722225  150.65400696    4.21999979    1.91999996
   13.18055630  103.71600342    4.21999979    1.91999996
   13.18361092   -1.00000000    4.21999979    1.91999996
   13.18972206   -1.00000000    4.21999979    1.91999996
   13.19388866  158.78399658    4.21999979    1.91999996
   13.19694424  140.26199341    4.21999979    1.91999996
   13.20027733  164.78700256    4.21999979    1.91999996
   13.20333290  140.36199951    4.21999979    1.91999996
   13.20666695  139.55400085    4.21999979    1.91999996
   13.21000004  147.37100220    4.21999979    1.91999996
   13.21305561  153.25100708    4.21999979    1.91999996
   13.21638870  140.03500366    4.21999979    1.91999996
   13.21972179  132.45399475    4.21999979    1.91999996
   13.22194386  136.38999939    4.21999979    1.91999996
   13.22333336  137.97000122    4.21999979    1.91999996
   13.22638798  139.48300171    4.21999979    1.91999996
   13.23249912  139.48300171    4.21999979    1.91999996
   13.23666668  132.59599304    4.21999979    1.91999996
   13.24000072  144.19700623    4.21999979    1.91999996
   13.24305534  150.37300110    4.21999979    1.91999996
   13.24638939  136.90600586    4.21999979    1.91999996
   13.24944496  150.97000122    4.21999979    1.91999996
   13.25277805  136.75399780    4.21999979    1.91999996
   13.25527763  138.50799561    4.21999979    1.91999996
   13.25638866  150.23500061    4.21999979    1.91999996
   13.25972176  141.93499756    4.21999979    1.91999996
   13.26305580  150.06700134    4.21999979    1.91999996
   13.26611137  133.69099426    4.21999979    1.91999996
   13.26944447  138.75300598    4.21999979    1.91999996
   13.27527714  138.75300598    4.21999979    1.91999996
   13.27944374  142.34399414    4.21999979    1.91999996
   13.28305531  138.65699768    4.21999979    1.91999996
   13.28611183  139.47999573    4.21999979    1.91999996
   13.28861141  145.92900085    4.21999979    1.91999996
   13.29000092  142.61799622    4.21999979    1.91999996
   13.29305553  139.69000244    4.21999979    1.91999996
   13.29638958  132.72799683    4.21999979    1.91999996
   13.29972267  133.14399719    4.21999979    1.91999996
   13.30305576  138.71200562    4.21999979    1.91999996
   13.30611134  141.06799316    4.21999979    1.91999996
   13.30944443  134.13800049    4.21999979    1.91999996
   13.31277752  142.78999329    4.21999979    1.91999996
   13.32722187  142.78999329    1.78999996    0.01000000
   13.33138847  142.49000549    1.78999996    0.01000000
   13.33444405  140.37300110    1.78999996    0.01000000
   13.33777714  133.31199646    1.78999996    0.01000000
   13.34111118  136.29100037    1.78999996    0.01000000
   13.34416676  141.55900574    1.78999996    0.01000000
   13.34749985  145.43800354    1.78999996    0.01000000
   13.35055637  141.02600098    1.78999996    0.01000000
   13.35388947  137.94299316    1.78999996    0.01000000
   13.35722256  130.74000549    1.78999996    0.01000000
   13.36138916  130.74000549    1.78999996    0.01000000
   13.36527824  137.64700317    1.78999996    0.01000000
   13.36861134  130.25300598    1.78999996    0.01000000
   13.37194443  143.40499878    1.78999996    0.01000000
   13.37500000  125.86699677    1.78999996    0.01000000
   13.37833309  130.38299561    1.78999996    0.01000000
   13.38166714  141.37100220    1.78999996    0.01000000
   13.38472176  137.68200684    1.78999996    0.01000000
   13.38805580  136.78300476    1.78999996    0.01000000
   13.39111137  140.71699524    1.78999996    0.01000000
   13.39444447  139.35600281    1.78999996    0.01000000
   13.39638901  137.44400024    1.78999996    0.01000000
   13.39805508  135.82899475    1.78999996    0.01000000
   13.40416622  135.82899475    1.78999996    0.01000000
   13.40833282  131.80000305    1.78999996    0.01000000
   13.41138840  173.44200134    1.78999996    0.01000000
   13.41472149  147.82800293    1.78999996    0.01000000
   13.41805553  136.59100342    1.78999996    0.01000000
   13.42111111  142.52299500    1.78999996    0.01000000
   13.42444515  137.88499451    1.78999996    0.01000000
   13.42750072  134.64500427    1.78999996    0.01000000
   13.42972279  135.05799866    1.78999996    0.01000000
   13.43111134  139.12899780    1.78999996    0.01000000
   13.43444443  133.36599731    1.78999996    0.01000000
   13.43777752  135.72599792    1.78999996    0.01000000
   13.44083309  130.58500671    1.78999996    0.01000000
   13.44694424  130.58500671    1.78999996    0.01000000
   13.45111084  130.09500122    1.78999996    0.01000000
   13.45444393  131.71899414    1.78999996    0.01000000
   13.45777798  123.83899689    1.78999996    0.01000000
   13.46083355  131.39100647    1.78999996    0.01000000
   13.46333313  136.16000366    1.78999996    0.01000000
   13.46444416  130.76899719    1.78999996    0.01000000
   13.46777725  130.42900085    1.78999996    0.01000000
   13.47083282  131.23500061    1.78999996    0.01000000
   13.47416592  131.38200378    1.78999996    0.01000000
   13.47749996  130.04100037    1.78999996    0.01000000
   13.48055553  130.65699768    1.78999996    0.01000000
   13.48388958  126.60099792    1.78999996    0.01000000
   13.48972225  126.60099792    1.78999996    0.01000000
   13.49388885  142.08200073    1.78999996    0.01000000
   13.49666691  131.32800293    1.78999996    0.01000000
   13.49750042  134.76800537    1.78999996    0.01000000
   13.50083351  129.25199890    1.78999996    0.01000000
   13.50388908  144.16499329    1.78999996    0.01000000
   13.50722218  134.03900146    1.78999996    0.01000000
   13.51055527  129.18200684    1.78999996    0.01000000
   13.51361084  136.84899902    1.78999996    0.01000000
   13.51694393  133.69700623    1.78999996    0.01000000
   13.52027798  131.39799500    1.78999996    0.01000000
   13.52333355  132.31399536    1.78999996    0.01000000
   13.52666664  127.94000244    1.78999996    0.01000000
   13.53444481  127.94000244    1.78999996    0.01000000
   13.53861141  141.05999756    1.78999996    0.01000000
   13.54194450  131.39799500    1.78999996    0.01000000
   13.54500008  143.13999939    1.78999996    0.01000000
   13.54833412  136.35299683    1.78999996    0.01000000
   13.55166721  141.46099854    1.78999996    0.01000000
   13.55472279  136.66200256    1.78999996    0.01000000
   13.55805588  134.96099854    1.78999996    0.01000000
   13.56138897  137.00900269    1.78999996    0.01000000
   13.56361103  143.24699402    1.78999996    0.01000000
   13.56472206  142.25300598    1.78999996    0.01000000
   13.56805515  138.20399475    1.78999996    0.01000000
   13.57138920  136.93600464    1.78999996    0.01000000
   13.57555580  136.93600464    1.73000002    0.01000000
   13.57972240  134.91200256    2.21000004    0.01000000
   13.58277798  138.11000061    2.07999992    0.01000000
   13.58611107  127.61499786    2.03999996    0.01000000
   13.58944416  131.26699829    2.03999996    0.01000000
   13.59249973  137.72300720    2.03999996    0.01000000
   13.59583282  129.29100037    2.03999996    0.01000000
   13.59694386  126.01899719    2.03999996    0.01000000
   13.59944439  136.28799438    2.03999996    0.01000000
   13.60249996  133.55700684    2.03999996    0.01000000
   13.60583401  126.48400116    2.03999996    0.01000000
   13.60888958  131.17500305    2.03999996    0.01000000
   13.61222267  130.20399475    2.03999996    0.01000000
   13.61833382  130.20399475    2.03999996    0.01000000
   13.63138866  128.81599426    0.00000000    0.00000000
   13.63222218  122.67900085    0.09000000    0.03000000
   13.63500023  134.36300659    0.09000000    0.01000000
   13.63833332  132.16700745    0.09000000    0.01000000
   13.64138889  133.59300232    0.09000000    0.01000000
   13.64611053  132.39300537    0.09000000    0.01000000
   13.64916611   98.10330200    0.09000000    0.01000000
   13.65249920  123.37300110    0.09000000    0.01000000
   13.65555477  381.48400879    0.09000000    0.01000000
   13.66555500   -1.00000000    4.90999985    0.05000000
   13.67805576   -1.00000000    2.61999989    0.01000000
   13.68138885   -1.00000000    2.61999989    0.01000000
   13.68472195   -1.00000000    2.61999989    0.01000000
   13.68777752   -1.00000000    2.61999989    0.01000000
   13.69111156   -1.00000000    2.61999989    0.01000000
   13.69416714   -1.00000000    4.90999985    0.20999999
   13.69750023  226.32800293    4.90999985    0.44000000
   13.69916630  166.09800720    4.90999985    0.55000001
   13.70805550   -1.00000000    4.90999985    0.73000002
   13.71138859   -1.00000000    4.90999985    0.44000000
   13.71444416   92.34359741    4.90999985    2.07999992
   13.71777725  138.01400757    4.90999985    2.01999998
   13.72111034  156.49499512    4.90999985    1.63000000
   13.72416592  162.61099243    4.90999985    2.55999994
   13.72749996  231.25700378    4.90999985    2.13000011
   13.73083305   77.40689850    4.90999985    2.50000000
   13.73249912  111.89900208    4.90999985    2.40000010
   13.73444462   -1.00000000    4.90999985    1.66999996
   13.73777771   -1.00000000    4.90999985    0.19000000
   13.74083328   -1.00000000    4.90999985    0.05000000
   13.75083351   -1.00000000    4.90999985    0.05000000
   13.75416660   -1.00000000    4.90999985    0.05000000
   13.75749969   -1.00000000    4.90999985    0.05000000
   13.76055527   -1.00000000    4.90999985    0.05000000
   13.76388931   -1.00000000    4.90999985    0.05000000
   13.76749992   -1.00000000    4.90999985    0.05000000
   13.77055550   -1.00000000    4.90999985    0.05000000
   13.77388859   -1.00000000    4.90999985    0.05000000
   13.77722168   -1.00000000    4.90999985    0.01000000
   13.78027725   -1.00000000    2.98000002    0.01000000
   13.78361130   -1.00000000    4.90999985    0.03000000
   13.79388905   -1.00000000    4.90999985    0.03000000
   13.79694462   -1.00000000    2.57999992    0.03000000
   13.80055618   -1.00000000    2.26999998    0.03000000
   13.80361176   -1.00000000    2.89000010    0.03000000
   13.80694485   -1.00000000    4.44999981    0.03000000
   13.81027794   -1.00000000    3.66000009    0.03000000
   13.81333351   -1.00000000    3.11999989    0.01000000
   13.81666660   -1.00000000    2.09999990    0.01000000
   13.81999969   -1.00000000    2.57999992    0.01000000
   13.82305527   -1.00000000    4.05999994    0.03000000
   13.82638836   -1.00000000    4.90999985    0.05000000
   13.83666611  159.44400024    4.90999985    0.83999997
   13.84000015  172.66400146    4.90999985    2.53999996
   13.84305477  168.25000000    4.90999985    2.39000010
   13.84638882  157.87199402    4.90999985    2.75000000
   13.84944439  168.65100098    4.36999989    2.73000002
   13.85277843  144.47099304    4.90999985    2.71000004
   13.85611153  149.57200623    4.32999992    2.71000004
   13.85916710  146.28399658    4.69999981    2.71000004
   13.86250019  147.33399963    4.90999985    2.75000000
   13.86583328  157.56100464    4.90999985    2.76999998
   13.86750031  128.38999939    4.90999985    2.76999998
   13.86944485  136.78700256    4.90999985    2.80999994
   13.87555599  136.78700256    4.90999985    2.78999996
   13.87944412  111.79699707    4.90999985    2.51999998
   13.88277817   -1.00000000    4.90999985    1.85000002
   13.88611126   -1.00000000    4.90999985    0.09000000
   13.88916683   -1.00000000    4.90999985    0.03000000
   13.89249992   -1.00000000    4.90999985    0.01000000
   13.89583302   -1.00000000    4.90999985    0.01000000
   13.89888859   -1.00000000    4.90999985    0.01000000
   13.90249920   -1.00000000    4.90999985    0.01000000
   13.90555477   -1.00000000    4.90999985    0.01000000
   13.90888882   -1.00000000    4.90999985    0.01000000
   13.91194439   -1.00000000    4.90999985    0.01000000
   13.92222214   -1.00000000    4.90999985    0.05000000
   13.92555618  129.55999756    4.90999985    0.23000000
   13.92888927   -1.00000000    4.90999985    0.25000000
   13.93194485  153.31500244    4.90999985    0.11000000
   13.93444443  130.34899902    4.90999985    0.88000000
   13.93583298  160.22999573    4.90999985    2.32999992
   13.93888855  155.99400330    4.90999985    2.66000009
   13.94222260  139.65199280    4.90999985    2.71000004
   13.94527817  157.29400635    4.90999985    2.69000006
   13.94861126  139.67799377    4.90999985    2.69000006
   13.95194435  147.75199890    3.39000010    2.69000006
   13.95499992  156.13600159    1.23000002    2.67000008
   13.96111107  156.13600159    1.25000000    2.69000006
   13.96527767  139.36500549    1.25000000    2.67000008
   13.98222160  137.96099854    1.26999998    2.67000008
   13.98500061  130.96699524    1.48000002    2.67000008
   13.98833370  129.41799927    1.71000004    2.67000008
   13.99138927  134.74499512    1.98000002    2.71000004
   13.99472237  125.77400208    4.90999985    2.73000002
   13.99805546  143.21200562    4.90999985    2.75000000
   14.00416660  143.21200562    4.90999985    1.80999994
   14.00833321   -1.00000000    4.90999985    0.11000000
   14.01138878   -1.00000000    4.90999985    0.05000000
   14.01472187   -1.00000000    4.90999985    0.05000000
   14.01805496   -1.00000000    4.90999985    0.07000000
   14.02138901   -1.00000000    4.44999981    0.05000000
   14.02472210   -1.00000000    1.94000006    0.01000000
   14.02777767   -1.00000000    1.30999994    0.01000000
   14.03111076   -1.00000000    1.30999994    0.01000000
   14.03444481   -1.00000000    1.30999994    0.01000000
   14.03750038   -1.00000000    1.30999994    0.01000000
   14.04083347   -1.00000000    1.30999994    0.01000000
   14.05111122   -1.00000000    1.30999994    0.01000000
   14.05416679   -1.00000000    2.11999989    0.01000000
   14.05749989   -1.00000000    4.90999985    0.07000000
   14.06083393   -1.00000000    4.90999985    0.17000000
   14.06388950  223.59599304    4.90999985    0.36000001
   14.06722260   -1.00000000    4.90999985    2.00000000
   14.07027817   -1.00000000    4.90999985    0.55000001
   14.07361126  166.13400269    4.90999985    0.50000000
   14.07694435  169.19700623    4.90999985    2.15000010
   14.07999992  138.44200134    4.90999985    2.78999996
   14.08222198   98.70919800    4.90999985    2.76999998
   14.08388901  182.80200195    4.90999985    2.73000002
   14.08972168  182.80200195    4.90999985    2.73000002
   14.09388828   -1.00000000    4.90999985    2.39000010
   14.09722233   -1.00000000    4.90999985    0.13000000
   14.10027790   -1.00000000    4.90999985    0.09000000
   14.10361195   -1.00000000    4.90999985    0.09000000
   14.10694504   -1.00000000    4.90999985    0.09000000
   14.11000061   -1.00000000    4.90999985    0.09000000
   14.11333370   -1.00000000    4.90999985    0.07000000
   14.11666679   -1.00000000    4.90999985    0.07000000
   14.11999989   -1.00000000    4.90999985    0.09000000
   14.12333393   -1.00000000    4.90999985    0.09000000
   14.12638855   -1.00000000    4.90999985    0.07000000
   14.13666630   -1.00000000    1.25000000    0.01000000
   14.14000034   -1.00000000    3.68000007    0.03000000
   14.14305496   -1.00000000    4.90999985    0.09000000
   14.14638901   -1.00000000    4.90999985    0.30000001
   14.14916611   86.87619781    4.90999985    0.55000001
   14.15027714  254.52299500    4.90999985    0.47999999
   14.15333271   -1.00000000    4.90999985    1.80999994
   14.15666676   -1.00000000    4.90999985    0.05000000
   14.15972137   -1.00000000    0.88000000    0.01000000
   14.16305542   -1.00000000    0.88000000    0.01000000
   14.16638851   -1.00000000    0.88000000    0.01000000
   14.16944504   -1.00000000    0.88000000    0.01000000
   14.17944431   -1.00000000    0.88000000    0.01000000
   14.18305588   -1.00000000    0.88000000    0.01000000
   14.18638897   -1.00000000    0.88000000    0.01000000
   14.18944454   -1.00000000    0.88000000    0.01000000
   14.19277763   -1.00000000    0.88000000    0.01000000
   14.19611073   -1.00000000    0.88000000    0.01000000
   14.19916630   -1.00000000    0.88000000    0.01000000
   14.20249939   -1.00000000    1.33000004    0.01000000
   14.20583344   -1.00000000    1.21000004    0.01000000
   14.20888901   -1.00000000    1.36000001    0.01000000
   14.21222210   -1.00000000    1.73000002    0.01000000
   14.22249985   -1.00000000    4.90999985    0.30000001
   14.22555542   -1.00000000    4.90999985    0.19000000
   14.22888851   -1.00000000    4.90999985    0.05000000
   14.23222160   -1.00000000    4.90999985    0.03000000
   14.23527813   -1.00000000    4.90999985    0.03000000
   14.23861122   -1.00000000    4.90999985    0.03000000
   14.24166679   -1.00000000    4.90999985    0.05000000
   14.24499989   -1.00000000    4.90999985    0.07000000
   14.24833393   -1.00000000    4.90999985    0.13000000
   14.25194454   -1.00000000    4.90999985    0.34000000
   14.25500011   -1.00000000    4.90999985    0.47999999
   14.26111126   -1.00000000    4.90999985    0.47999999
   14.26527786  159.59700012    4.90999985    1.44000006
   14.26861095  135.84899902    4.90999985    2.51999998
   14.27166653   -1.00000000    4.90999985    2.78999996
   14.27499962  256.29199219    4.90999985    1.14999998
   14.27833271  165.07099915    4.90999985    1.58000004
   14.28138828  203.69200134    4.90999985    2.50000000
   14.28249931  136.94400024    4.90999985    1.55999994
   14.28500080   -1.00000000    4.90999985    1.96000004
   14.28833389   -1.00000000    4.90999985    0.76999998
   14.29138947   -1.00000000    4.90999985    0.89999998
   14.29472256   -1.00000000    4.90999985    0.51999998
   14.29805565  137.62399292    4.90999985    1.83000004
   14.30416679  137.62399292    1.13000000    2.73000002
   14.30805588  145.91200256    1.09000003    2.71000004
   14.31138897  142.21600342    1.09000003    2.71000004
   14.31472206  143.16499329    1.09000003    2.71000004
   14.31611156  134.28300476    1.09000003    2.71000004
   14.31833363  148.09199524    1.09000003    2.71000004
   14.32138920  137.43499756    1.09000003    2.71000004
   14.32472229  141.89199829    1.13000000    2.71000004
   14.32805538  143.05200195    1.13000000    2.71000004
   14.33111095  132.96499634    1.14999998    2.73000002
   14.33444405  136.10400391    1.14999998    2.73000002
   14.33749962  142.66900635    1.14999998    2.71000004
   14.34083271  134.38299561    1.16999996    2.69000006
   14.34694386  134.38299561    1.16999996    2.71000004
   14.35111141  131.90699768    1.16999996    2.73000002
   14.35416698  137.86900330    1.16999996    2.73000002
   14.35750008  130.60400391    1.16999996    2.71000004
   14.36083412  133.79899597    1.46000004    2.71000004
   14.36388969  138.32200623    1.53999996    2.71000004
   14.36722279  141.71000671    1.53999996    2.71000004
   14.37055588  136.06399536    1.60000002    2.71000004
   14.37361145  130.79200745    1.19000006    2.71000004
   14.37694454  131.75799561    1.19000006    2.71000004
   14.38000011  129.39599609    1.33000004    2.73000002
   14.38277817  134.16400146    1.89999998    2.75000000
   14.38388920  137.24800110    1.86000001    2.75000000
   14.38972187  137.24800110    1.39999998    2.75000000
   14.39388847  131.41299438    1.30999994    2.75000000
   14.39722252  132.59300232    1.19000006    2.75000000
   14.40027714  132.82800293    1.13000000    2.75000000
   14.40361118  124.10600281    1.14999998    2.73000002
   14.40666676  133.98100281    1.14999998    2.73000002
   14.40999985  136.24600220    1.16999996    2.73000002
   14.41333294  137.44500732    1.21000004    2.73000002
   14.41611099  130.39700317    1.21000004    2.73000002
   14.41694450  132.35699463    1.63000000    2.73000002
   14.42000008  129.63299561    4.90999985    2.78999996
   14.42333412  114.04900360    4.90999985    2.84999990
   14.42666721   78.59519958    4.90999985    2.39000010
   14.43249989   78.59519958    4.90999985    0.79000002
   14.43666649   -1.00000000    4.90999985    0.88000000
   14.44000053  133.24499512    4.90999985    0.44000000
   14.44305515  140.76100159    4.90999985    2.59999990
   14.44638920  132.03500366    4.90999985    2.89000010
   14.44944477  129.87699890    4.90999985    2.82999992
   14.44999981  134.49299622    4.90999985    2.82999992
   14.45305538  135.53100586    4.90999985    2.78999996
   14.45638847   -1.00000000    4.90999985    2.82999992
   14.45972157  125.23300171    4.90999985    1.51999998
   14.46277714   -1.00000000    4.90999985    0.23000000
   14.46611118   -1.00000000    4.90999985    0.09000000
   14.46944427   -1.00000000    4.90999985    0.13000000
   14.47944355   -1.00000000    4.90999985    0.09000000
   14.48277760   -1.00000000    4.90999985    0.13000000
   14.48638916   -1.00000000    4.90999985    0.28000000
   14.48972225   -1.00000000    4.90999985    0.61000001
   14.49277782   -1.00000000    4.90999985    1.11000001
   14.49611092   -1.00000000    4.90999985    0.34000000
   14.49916649   -1.00000000    4.90999985    0.17000000
   14.50249958   -1.00000000    4.90999985    0.20999999
   14.50583363   -1.00000000    4.90999985    0.31999999
   14.50888920   -1.00000000    4.90999985    0.36000001
   14.51222229   -1.00000000    4.90999985    1.39999998
   14.52222157   -1.00000000    4.90999985    2.07999992
   14.52555561   -1.00000000    4.90999985    0.61000001
   14.52888870   -1.00000000    4.90999985    0.31999999
   14.53194427   -1.00000000    4.90999985    0.17000000
   14.53527832   -1.00000000    4.90999985    0.09000000
   14.53833389   -1.00000000    4.65999985    0.07000000
   14.54166698   -1.00000000    4.90999985    0.09000000
   14.54500008   -1.00000000    4.90999985    0.09000000
   14.54805565   -1.00000000    4.90999985    0.15000001
   14.55166721  253.50300598    4.90999985    0.28000000
   14.55500031  146.59500122    4.90999985    2.59999990
   14.56111145  146.59500122    4.90999985    2.89000010
   14.56527805   -1.00000000    4.90999985    1.66999996
   14.56861115   92.04679871    4.90999985    0.88000000
   14.57166672   -1.00000000    4.90999985    1.19000006
   14.57499981   -1.00000000    4.90999985    0.86000001
   14.57805538   -1.00000000    4.90999985    0.94000000
   14.58138847   -1.00000000    4.90999985    0.36000001
   14.58500004   -1.00000000    4.90999985    0.11000000
   14.58833313   -1.00000000    4.90999985    0.07000000
   14.59138870   -1.00000000    4.90999985    0.05000000
   14.59472179   -1.00000000    1.07000005    0.01000000
   14.59777737   -1.00000000    1.07000005    0.01000000
   14.60805607   -1.00000000    1.07000005    0.01000000
   14.61111164   -1.00000000    1.88000000    0.01000000
   14.61444473   -1.00000000    2.09999990    0.01000000
   14.61805534   -1.00000000    4.09999990    0.05000000
   14.62138939   -1.00000000    4.90999985    0.07000000
   14.62444496   -1.00000000    4.90999985    0.07000000
   14.62777805   -1.00000000    4.90999985    0.05000000
   14.63111115   -1.00000000    4.90999985    0.05000000
   14.63416672   -1.00000000    4.90999985    0.13000000
   14.63749981   -1.00000000    4.90999985    0.25000000
   14.64083290  109.15899658    4.90999985    0.61000001
   14.64694405  109.15899658    4.90999985    2.46000004
   14.65083313  129.46699524    4.90999985    2.89000010
   14.65416622  137.02099609    4.90999985    2.82999992
   14.65749931  136.71699524    4.90999985    2.76999998
   14.66055489  142.10400391    1.13000000    2.75000000
   14.66388893  134.02400208    1.05999994    2.75000000
   14.66694450  139.49699402    1.05999994    2.73000002
   14.67027855  142.20300293    1.05999994    2.73000002
   14.67361164  132.89999390    1.05999994    2.73000002
   14.67666721  136.19400024    1.05999994    2.75000000
   14.68000031  135.70399475    1.07000005    2.75000000
   14.68333340  138.53300476    1.07000005    2.75000000
   14.68361092  142.59100342    1.07000005    2.75000000
   14.68972206  142.59100342    1.07000005    2.75000000
   14.69388866   -1.00000000    4.90999985    2.66000009
   14.69694424   -1.00000000    4.90999985    0.11000000
   14.70027733   -1.00000000    4.90999985    0.09000000
   14.70361137   -1.00000000    4.90999985    0.05000000
   14.70666695   -1.00000000    3.76999998    0.01000000
   14.71000004   -1.00000000    3.76999998    0.01000000
   14.71305561   -1.00000000    3.76999998    0.01000000
   14.71638870   -1.00000000    3.76999998    0.01000000
   14.71999931   -1.00000000    3.76999998    0.01000000
   14.72305489   -1.00000000    3.76999998    0.01000000
   14.72638798   -1.00000000    3.76999998    0.01000000
   14.73666668   -1.00000000    3.76999998    0.01000000
   14.73972225   -1.00000000    3.76999998    0.01000000
   14.74305534   -1.00000000    3.76999998    0.01000000
   14.74611092   -1.00000000    3.76999998    0.01000000
   14.74944496   -1.00000000    3.76999998    0.01000000
   14.75305557   -1.00000000    3.76999998    0.01000000
   14.75611115   -1.00000000    3.76999998    0.01000000
   14.75944424   -1.00000000    3.76999998    0.01000000
   14.76277733   -1.00000000    3.76999998    0.01000000
   14.76583290   -1.00000000    3.76999998    0.01000000
   14.76916599   -1.00000000    3.76999998    0.01000000
   14.77944374   -1.00000000    2.48000002    0.01000000
   14.78249931   -1.00000000    2.09999990    0.01000000
   14.78611183   -1.00000000    2.09999990    0.01000000
   14.78916740   -1.00000000    3.76999998    0.01000000
   14.79250050   -1.00000000    4.90999985    0.05000000
   14.79583359   -1.00000000    4.90999985    0.09000000
   14.79888916  193.57699585    4.90999985    0.34000000
   14.80222225  193.72799683    4.90999985    1.26999998
   14.80555534  171.84700012    4.90999985    2.40000010
   14.80861092  170.19000244    4.90999985    2.51999998
   14.81194496  147.89500427    4.90999985    2.76999998
   14.81805515  147.89500427    4.90999985    2.78999996
   14.82250023   -1.00000000    4.90999985    1.60000002
   14.82555580   -1.00000000    4.90999985    0.86000001
   14.82888889   -1.00000000    4.90999985    0.70999998
   14.83222198   -1.00000000    4.90999985    0.79000002
   14.83527756   -1.00000000    4.90999985    0.75000000
   14.83861065   -1.00000000    4.90999985    0.83999997
   14.84194374   -1.00000000    4.90999985    0.70999998
   14.84499931  418.95401001    4.90999985    0.92000002
   14.84694386  272.66699219    4.90999985    1.23000002
   14.84722233   -1.00000000    4.90999985    0.79000002
   14.84722233   -1.00000000    4.90999985    0.75000000
   14.84749985   -1.00000000    4.90999985    0.83999997
   14.84749985   -1.00000000    4.90999985    0.70999998
   14.84749985  418.95401001    4.90999985    0.92000002
   14.84777737  147.89500427    4.90999985    2.76999998
   14.84777737   -1.00000000    4.90999985    1.60000002
   14.84777737   -1.00000000    4.90999985    0.86000001
   14.84805489   -1.00000000    4.90999985    0.70999998
   14.85000038  228.35200500    4.90999985    1.86000001
   14.85305595  202.35800171    4.90999985    2.25000000
   14.85638905  142.68800354    4.90999985    2.59999990
   14.85972214  168.60400391    4.90999985    2.78999996
   14.86277771  167.05400085    4.90999985    2.76999998
   14.86777782  167.05400085    1.03999996    2.75000000
   14.87194443  153.38400269    1.05999994    2.75000000
   14.87527752  149.94700623    1.05999994    2.75000000
   14.87861156  155.31700134    1.03999996    2.75000000
   14.88083363  162.25900269    1.03999996    2.75000000
   14.88222218  150.76199341    1.03999996    2.75000000
   14.88555527  136.91299438    1.03999996    2.73000002
   14.88861084  134.88099670    1.03999996    2.73000002
   14.89194393  135.01100159    1.03999996    2.76999998
   14.89527798   93.96700287    1.03999996    2.75000000
   14.89833355   -1.00000000    4.90999985    0.67000002
   14.90166664   -1.00000000    4.90999985    0.23000000
   14.90472221   -1.00000000    4.90999985    0.40000001
   14.91083336   -1.00000000    4.90999985    0.70999998
   14.91499996  157.70300293    4.90999985    1.14999998
   14.91805553  155.80200195    4.90999985    1.69000006
   14.92138958  154.25700378    4.90999985    2.73000002
   14.92444515  145.37199402    4.90999985    2.76999998
   14.92777824  147.22500610    4.17999983    2.73000002
   14.93111134  137.17700195    2.76999998    2.73000002
   14.93416691  139.41099548    1.05999994    2.75000000
   14.93750000  145.29699707    1.03999996    2.75000000
   14.94083309  145.41799927    1.01999998    2.75000000
   14.95249939  134.03799438    0.00000000    0.00000000
   14.95305538  145.17900085    1.25000000    2.75000000
   14.95611095  145.25300598    1.71000004    2.75000000
   14.96194458  145.25300598    4.46999979    2.73000002
   14.96638870  155.85099792    2.86999989    2.71000004
   14.96972179  135.27699280    1.19000006    2.71000004
   14.97305489  143.32899475    1.11000001    2.73000002
   14.97611046  156.38200378    1.11000001    2.73000002
   14.97944355  132.85000610    1.09000003    2.75000000
   14.98249912  145.65499878    1.09000003    2.75000000
   14.98583317  141.44999695    1.07000005    2.75000000
   14.98638916  140.60400391    1.05999994    2.76999998
   15.01249981   -1.00000000    4.90999985    0.15000001
   15.01555538   -1.00000000    4.90999985    0.17000000
   15.01888847   -1.00000000    4.90999985    0.15000001
   15.02250004   -1.00000000    4.90999985    0.09000000
   15.02555561   -1.00000000    4.90999985    0.09000000
   15.02888870   -1.00000000    4.90999985    0.15000001
   15.03222179   -1.00000000    4.90999985    0.36000001
   15.03527832   -1.00000000    4.90999985    1.39999998
   15.03861141   -1.00000000    4.90999985    1.01999998
   15.04194450   -1.00000000    4.90999985    0.46000001
   15.04500008   -1.00000000    4.90999985    0.25999999
   15.05527782   -1.00000000    4.90999985    0.20999999
   15.05833340   -1.00000000    4.90999985    0.31999999
   15.06166649   -1.00000000    4.90999985    0.36000001
   15.06500053  133.53599548    4.90999985    0.64999998
   15.06805515  143.40899658    4.90999985    2.00000000
   15.07138920  125.93199921    4.90999985    2.89000010
   15.07472229  138.13200378    4.90999985    2.75000000
   15.07777786  129.74299622    1.98000002    2.78999996
   15.08111095  125.74099731    1.13000000    2.76999998
   15.08416653  127.43800354    1.14999998    2.76999998
   15.08638859  127.80200195    1.13000000    2.76999998
   15.08777714  128.75500488    1.13000000    2.76999998
   15.09388828  128.75500488    1.19000006    2.78999996
   15.09805489  121.76499939    1.21000004    2.76999998
   15.10138893  123.69999695    1.26999998    2.76999998
   15.10472298  127.41000366    1.28999996    2.76999998
   15.10777855  132.44400024    1.36000001    2.76999998
   15.11111164  114.19300079    1.41999996    2.78999996
   15.11416721  129.96400452    1.46000004    2.75000000
   15.11750031  119.63700104    1.51999998    2.76999998
   15.11972237  125.79900360    2.78999996    2.76999998
   15.12111092  133.43299866    2.57999992    2.76999998
   15.12444496  127.54399872    1.55999994    2.75000000
   15.12750053  124.34300232    1.46000004    2.75000000
   15.13083363  126.74400330    1.38000000    2.76999998
   15.13694477  126.74400330    1.28999996    2.76999998
   15.14111137  128.20100403    1.21000004    2.76999998
   15.14416695  129.43699646    1.23000002    2.76999998
   15.14750004  132.56399536    1.16999996    2.78999996
   15.15055561  128.56300354    1.16999996    2.78999996
   15.15333271  124.77500153    1.16999996    2.76999998
   15.15444374  128.36999512    1.16999996    2.76999998
   15.15777779  130.11999512    1.16999996    2.76999998
   15.16083336  124.52999878    1.16999996    2.76999998
   15.16416645  121.26999664    1.16999996    2.76999998
   15.16722298  122.47200012    1.19000006    2.76999998
   15.17055607  119.38899994    1.16999996    2.76999998
   15.17388916  126.24700165    1.16999996    2.76999998
   15.17972279  126.24700165    1.14999998    2.76999998
   15.18388939  130.73699951    1.13000000    2.76999998
   15.18666649  125.76899719    1.13000000    2.76999998
   15.18750000  120.39800262    1.13000000    2.76999998
   15.19083309  125.74600220    1.13000000    2.76999998
   15.19388866  112.18199921    1.16999996    2.75000000
   15.19722271  119.95800018    1.14999998    2.75000000
   15.20055580  122.80899811    1.14999998    2.75000000
   15.20388889  124.36599731    1.14999998    2.76999998
   15.20694447  126.69599915    1.73000002    2.73000002
   15.21027756  124.79599762    1.78999996    2.76999998
   15.21361065  123.48699951    4.90999985    2.78999996
   15.21666622   -1.00000000    4.90999985    2.78999996
   15.22249985   -1.00000000    4.90999985    0.64999998
   15.22666645   -1.00000000    4.90999985    1.46000004
   15.22999954   -1.00000000    4.90999985    1.14999998
   15.23305511  357.78100586    4.90999985    1.11000001
   15.23638916  148.28100586    4.90999985    2.15000010
   15.23972225   -1.00000000    4.90999985    2.05999994
   15.24277782   -1.00000000    4.90999985    0.50000000
   15.24611092   -1.00000000    4.90999985    0.31999999
   15.24944496   -1.00000000    4.90999985    0.25999999
   15.25277805   -1.00000000    4.90999985    0.36000001
   15.25638866   -1.00000000    4.90999985    0.20999999
   15.25944424   -1.00000000    4.90999985    0.19000000
   15.26527786   -1.00000000    4.90999985    1.00000000
   15.26944447   -1.00000000    4.90999985    1.01999998
   15.27277756   -1.00000000    4.90999985    0.30000001
   15.27611065   -1.00000000    4.90999985    0.13000000
   15.27916622   -1.00000000    4.90999985    0.11000000
   15.28249931   -1.00000000    4.90999985    0.13000000
   15.28555584   -1.00000000    4.90999985    0.17000000
   15.28916740   -1.00000000    4.90999985    0.46000001
   15.29222298   -1.00000000    4.90999985    0.56999999
   15.29555607   -1.00000000    4.90999985    0.30000001
   15.29888916   -1.00000000    4.90999985    0.46000001
   15.30194473  123.32700348    4.90999985    0.76999998
   15.30833340  123.32700348    4.90999985    1.33000004
   15.31250000  150.52699280    4.90999985    1.85000002
   15.31555557  136.76600647    1.26999998    2.75000000
   15.31888866  136.74899292    1.05999994    2.76999998
   15.32027817  135.70399475    1.05999994    2.76999998
   15.32250023  133.90499878    1.00000000    2.75000000
   15.32555580  131.70899963    1.00000000    2.76999998
   15.32888889  132.30799866    1.00000000    2.76999998
   15.33222198  130.63299561    1.01999998    2.78999996
   15.33527756  135.02600098    1.01999998    2.78999996
   15.33861065  135.29100037    1.00000000    2.76999998
   15.34194374  133.56799316    0.98000002    2.78999996
   15.34499931  131.71800232    0.98000002    2.80999994
   15.35111141  131.71800232    1.00000000    2.78999996
   15.35527802  130.48500061    0.98000002    2.78999996
   15.35833359  130.88000488    0.98000002    2.78999996
   15.36166668  122.94899750    0.98000002    2.78999996
   15.36500072  136.50300598    0.95999998    2.78999996
   15.36805534  135.24899292    0.95999998    2.78999996
   15.37138939  133.21000671    0.94000000    2.78999996
   15.37472248  122.79900360    0.94000000    2.78999996
   15.37777805  130.52900696    0.94000000    2.78999996
   15.38111115  118.73200226    0.94000000    2.78999996
   15.38416672  122.91000366    0.94000000    2.78999996
   15.38694477  125.28500366    0.95999998    2.80999994
   15.38805580  120.33699799    0.95999998    2.80999994
   15.39388847  120.33699799    1.00000000    2.78999996
   15.39805508  120.95400238    0.98000002    2.78999996
   15.40138817  134.47000122    0.98000002    2.76999998
   15.40444374  131.66000366    0.98000002    2.76999998
   15.40777779  127.92400360    1.01999998    2.78999996
   15.41111088  130.82899475    1.01999998    2.78999996
   15.41416645  121.73699951    1.03999996    2.78999996
   15.41750050  123.04799652    1.03999996    2.78999996
   15.42027855  124.33699799    1.07000005    2.78999996
   15.42111111  128.87899780    1.07000005    2.78999996
   15.42444515  131.75000000    1.05999994    2.78999996
   15.42777824  131.82699585    1.05999994    2.78999996
   15.43083382  129.91600037    1.11000001    2.76999998
   15.43666649  129.91600037    1.34000003    2.76999998
   15.44083309  137.00700378    1.19000006    2.78999996
   15.44416714  131.97399902    1.11000001    2.78999996
   15.44750023  131.78199768    1.11000001    2.76999998
   15.45055580  129.34599304    1.11000001    2.76999998
   15.45361137  125.80200195    1.09000003    2.76999998
   15.45416641  129.32099915    1.09000003    2.76999998
   15.45749950  136.11500549    1.09000003    2.76999998
   15.46055508  129.17399597    1.11000001    2.78999996
   15.46388912  128.72900391    1.11000001    2.78999996
   15.46722221  134.77099609    1.09000003    2.78999996
   15.47027779  126.29100037    1.07000005    2.76999998
   15.47361088  135.80999756    1.09000003    2.78999996
   15.47972202  135.80999756    1.07000005    2.78999996
   15.48388958  132.27999878    1.05999994    2.76999998
   15.48694515  131.50500488    1.05999994    2.76999998
   15.48750019  134.63699341    1.05999994    2.76999998
   15.49083328  133.10299683    1.07000005    2.76999998
   15.49388885  134.21499634    1.05999994    2.78999996
   15.49722290  138.39199829    1.01999998    2.78999996
   15.50027752  133.48500061    1.00000000    2.76999998
   15.50361156  139.08000183    1.00000000    2.76999998
   15.50694466  134.88499451    0.98000002    2.78999996
   15.51000023  162.19200134    0.98000002    2.78999996
   15.51333332  163.33500671    0.98000002    2.78999996
   15.51666641  158.51100159    0.98000002    2.78999996
   15.52250004  158.51100159    0.95999998    2.80999994
   15.52666664  154.75799561    0.95999998    2.80999994
   15.52972221  159.32800293    0.98000002    2.80999994
   15.53305531  165.11700439    0.98000002    2.80999994
   15.53638935   84.10859680    4.90999985    2.82999992
   15.53944492   38.40689850    4.90999985    1.34000003
   15.54277802   -1.00000000    4.90999985    1.00000000
   15.54611111  152.99099731    4.90999985    0.61000001
   15.54916668  161.85899353    4.90999985    0.98000002
   15.55249977  168.78100586    4.90999985    2.73000002
   15.55361176  164.10299683    4.90999985    2.80999994
   15.55611134  167.10400391    4.90999985    2.84999990
   15.55944443  163.20399475    4.90999985    2.84999990
   15.56527805  163.20399475    4.90999985    2.64000010
   15.56944466  163.81100464    4.90999985    2.86999989
   15.57277775  114.88999939    4.90999985    2.78999996
   15.57583332   92.76490021    4.90999985    1.03999996
   15.57916641   -1.00000000    4.90999985    2.00000000
   15.58249950   -1.00000000    4.90999985    0.30000001
   15.58555508   -1.00000000    4.90999985    0.25000000
   15.58916664   -1.00000000    4.90999985    0.86000001
   15.59222221   -1.00000000    4.90999985    0.36000001
   15.59555531   -1.00000000    4.90999985    0.09000000
   15.59888840   -1.00000000    4.90999985    0.09000000
   15.60194492   -1.00000000    4.90999985    0.11000000
   15.61222267   -1.00000000    4.90999985    0.23000000
   15.61555576  146.09399414    4.90999985    1.07000005
   15.61861134  143.87500000    4.90999985    2.28999996
   15.62055588  161.36599731    4.90999985    2.34999990
   15.62250042  142.25000000    4.90999985    2.71000004
   15.62555599  162.84800720    4.90999985    2.76999998
   15.62888908  161.63200378    4.90999985    2.80999994
   15.63222218  162.44900513    2.66000009    2.82999992
   15.63527775  150.32299805    1.34000003    2.80999994
   15.63861084  136.68099976    1.28999996    2.78999996
   15.64166641  152.79400635    1.23000002    2.78999996
   15.64499950  143.27099609    1.21000004    2.76999998
   15.65111065  143.27099609    1.13000000    2.78999996
   15.65499973  154.14399719    1.11000001    2.78999996
   15.65833282  159.68400574    1.11000001    2.78999996
   15.66166592  158.35200500    1.09000003    2.78999996
   15.66472149  162.11900330    1.09000003    2.78999996
   15.66805553  153.96099854    1.05999994    2.78999996
   15.67138958  148.46000671    1.01999998    2.78999996
   15.67444515  152.55099487    1.01999998    2.78999996
   15.67777824  162.36199951    1.03999996    2.78999996
   15.68083382  163.31599426    1.03999996    2.80999994
   15.68416691  158.98300171    1.03999996    2.80999994
   15.68722248  156.96200562    1.03999996    2.80999994
   15.68777752  145.61300659    1.03999996    2.78999996
   15.69388866  145.61300659    0.98000002    2.80999994
   15.69805527  137.87100220    0.98000002    2.80999994
   15.70111084  143.10400391    0.98000002    2.80999994
   15.70444393  149.30000305    0.95999998    2.80999994
   15.70777798  152.66700745    0.94000000    2.80999994
   15.71083355  141.86799622    0.92000002    2.80999994
   15.71416664  133.78199768    0.92000002    2.82999992
   15.71749973  156.88900757    0.92000002    2.80999994
   15.72055531  145.11000061    0.92000002    2.82999992
   15.72111034  136.77099609    0.92000002    2.82999992
   15.72416592  142.74099731    0.92000002    2.80999994
   15.72749996  154.42799377    0.89999998    2.82999992
   15.73083305  146.01300049    0.89999998    2.82999992
   15.73666668  146.01300049    0.88000000    2.80999994
   15.74083328  147.88200378    0.88000000    2.80999994
   15.74416733  142.81100464    0.88000000    2.82999992
   15.74722290  140.11500549    0.88000000    2.82999992
   15.75055599  149.08900452    0.86000001    2.82999992
   15.75361156  147.03900146    0.86000001    2.82999992
   15.75444412  143.07099915    0.86000001    2.82999992
   15.75777817  134.24800110    0.86000001    2.82999992
   15.76083374  134.94599915    0.88000000    2.80999994
   15.76416683  145.66900635    0.86000001    2.80999994
   15.76722240  140.69900513    0.86000001    2.80999994
   15.77055550  141.27900696    0.86000001    2.80999994
   15.77388859  140.88400269    0.86000001    2.80999994
   15.77944374  140.88400269    0.86000001    2.80999994
   15.78361130  132.70599365    0.86000001    2.80999994
   15.78694534  138.58900452    0.86000001    2.82999992
   15.78750038  145.00000000    0.86000001    2.82999992
   15.79055595  142.53199768    0.88000000    2.80999994
   15.79388905  153.23500061    0.88000000    2.80999994
   15.79694462  141.32000732    0.88000000    2.80999994
   15.80027771  139.38000488    0.88000000    2.80999994
   15.80361176  143.17900085    0.88000000    2.80999994
   15.80666733  136.33000183    0.88000000    2.80999994
   15.81000042  150.33799744    0.88000000    2.80999994
   15.81305599  148.33900452    0.88000000    2.80999994
   15.81638908  148.91900635    0.88000000    2.80999994
   15.82250023  148.91900635    0.86000001    2.80999994
   15.82638836  121.57599640    0.86000001    2.80999994
   15.82972240  140.24400330    0.83999997    2.80999994
   15.83305550  142.99499512    0.83999997    2.80999994
   15.83611107  145.55499268    0.83999997    2.80999994
   15.83944416  142.30000305    0.83999997    2.80999994
   15.84277725  142.62600708    0.83999997    2.78999996
   15.84583282  144.56599426    0.86000001    2.80999994
   15.84916592  151.05099487    0.86000001    2.80999994
   15.85222244  133.71499634    0.86000001    2.80999994
   15.85416698  135.42199707    0.86000001    2.80999994
   15.85611153  150.40899658    0.88000000    2.80999994
   15.85944462  141.61300659    0.88000000    2.80999994
   15.86527824  141.61300659    0.88000000    2.80999994
   15.86944485  137.87199402    0.86000001    2.80999994
   15.87250042  137.48399353    0.86000001    2.80999994
   15.87583351  132.37899780    0.86000001    2.80999994
   15.87916660  139.09700012    0.88000000    2.80999994
   15.88222218  133.98399353    0.86000001    2.80999994
   15.88555527  139.74200439    0.86000001    2.80999994
   15.88749981  131.86900330    0.83999997    2.80999994
   15.88916683  129.37899780    0.83999997    2.80999994
   15.89249992  141.54600525    0.83999997    2.80999994
   15.89555550  144.93099976    0.86000001    2.80999994
   15.89888859  142.83999634    0.86000001    2.80999994
   15.90222168  139.18299866    0.83999997    2.80999994
   15.90805531  139.18299866    0.86000001    2.78999996
   15.91222191  134.61199951    0.86000001    2.80999994
   15.91555500  131.99400330    0.83999997    2.82999992
   15.91861153  142.38800049    0.86000001    2.80999994
   15.92083359  136.63699341    0.86000001    2.80999994
   15.92222214  142.33099365    0.86000001    2.80999994
   15.92555618  133.62699890    0.86000001    2.80999994
   15.92861176  138.82899475    0.81999999    2.80999994
   15.93194485  131.56100464    0.81999999    2.80999994
   15.93527794  139.36399841    0.81999999    2.80999994
   15.93833351  125.96099854    0.81999999    2.82999992
   15.94166660  130.91900635    0.83999997    2.82999992
   15.94472218  133.64199829    0.98000002    2.82999992
   15.95083332  133.64199829    0.94000000    2.80999994
   15.95499992  120.19400024    0.92000002    2.80999994
   15.95833302  121.78199768    0.92000002    2.80999994
   15.96138859  128.31399536    0.92000002    2.80999994
   15.96472168  130.51100159    0.92000002    2.80999994
   15.96805477  131.11300659    0.94000000    2.82999992
   15.97111034  124.16600037    0.92000002    2.80999994
   15.97444439  124.67700195    0.88000000    2.82999992
   15.97777748  130.00300598    0.81999999    2.82999992
   15.98083305  131.98699951    0.81999999    2.82999992
   15.98416710  130.09800720    0.81999999    2.82999992
   15.98722267  131.76600647    0.81999999    2.82999992
   15.98777771  131.17700195    0.81999999    2.82999992
   15.99388885  131.17700195    0.95999998    2.80999994
   15.99777794  129.17300415    0.89999998    2.82999992
   16.00111198  140.24800110    0.94000000    2.80999994
   16.00444412  139.32400513    0.80000001    2.82999992
   16.02194405  137.44700623    0.80000001    2.80999994
   16.02416611  136.14199829    0.76999998    2.84999990
   16.02750015  134.97099304    0.76999998    2.82999992
   16.03083229  138.61300659    0.76999998    2.84999990
   16.03666687  138.61300659    0.73000002    2.82999992
   16.04083252  140.44000244    0.75000000    2.82999992
   16.04416656  128.65899658    0.76999998    2.84999990
   16.04749870  140.73500061    0.76999998    2.82999992
   16.05055428  129.98599243    0.75000000    2.82999992
   16.05388832  140.69299316    0.73000002    2.84999990
   16.05499840  147.97099304    0.73000002    2.84999990
   16.05749893  145.92999268    0.75000000    2.82999992
   16.06083298  159.36199951    0.75000000    2.82999992
   16.06416512  164.73199463    0.79000002    2.82999992
   16.06722260  144.74499512    0.81999999    2.80999994
   16.07055664  153.03500366    0.81999999    2.82999992
   16.07389069  149.15499878    0.83999997    2.82999992
   16.07972336  149.15499878    0.89999998    2.80999994
   16.08388901  147.31700134    0.89999998    2.80999994
   16.08694458  150.90299988    0.89999998    2.80999994
   16.08861160  139.41200256    0.89999998    2.82999992
   16.09055710  157.37699890    0.89999998    2.82999992
   16.09388924  158.72000122    0.89999998    2.82999992
   16.09694481  150.16799927    0.89999998    2.82999992
   16.10027885  145.53599548    0.89999998    2.80999994
   16.10361099  141.70799255    0.92000002    2.80999994
   16.10666656  145.30099487    0.92000002    2.80999994
   16.11000061  149.71699524    0.92000002    2.80999994
   16.11333466  151.66700745    0.94000000    2.82999992
   16.11638832  150.64300537    0.94000000    2.80999994
   16.12249947  150.64300537    0.92000002    2.80999994
   16.12666702  140.24899292    0.94000000    2.80999994
   16.13000107  135.22099304    0.94000000    2.80999994
   16.13305473  129.99499512    0.94000000    2.80999994
   16.13638878  129.62600708    0.98000002    2.80999994
   16.13972282  134.31199646    0.98000002    2.80999994
   16.14277840  132.44700623    0.98000002    2.80999994
   16.14611053  131.76800537    0.98000002    2.80999994
   16.14944458  135.11099243    0.98000002    2.80999994
   16.15250015  143.14700317    1.01999998    2.80999994
   16.15499878  136.63699341    1.05999994    2.80999994
   16.15611076  137.66400146    1.05999994    2.80999994
   16.15944481  132.83000183    1.07000005    2.82999992
   16.16527748  132.83000183    1.05999994    2.82999992
   16.16944313  139.82800293    1.19000006    2.82999992
   16.17277718  145.93400574    1.28999996    2.82999992
   16.17583275  138.17500305    1.51999998    2.80999994
   16.17916679  145.34500122    1.75000000    2.80999994
   16.18249893  127.91400146    0.98000002    2.80999994
   16.18555450  148.82899475    1.00000000    2.82999992
   16.18861008  139.35099792    1.00000000    2.82999992
   16.18916512  137.08999634    1.00000000    2.82999992
   16.19249916  140.30000305    0.98000002    2.82999992
   16.19555473  139.01800537    0.92000002    2.82999992
   16.19888878  144.00700378    0.92000002    2.80999994
   16.20222282  136.91400146    0.92000002    2.82999992
   16.20805550  136.91400146    0.92000002    2.80999994
   16.21222305  138.43400574    0.92000002    2.80999994
   16.21555710  141.09199524    0.89999998    2.80999994
   16.21888924  134.63499451    0.89999998    2.82999992
   16.22194481  136.28399658    0.89999998    2.80999994
   16.22222328  141.72999573    0.89999998    2.80999994
   16.22555542  138.90600586    0.88000000    2.80999994
   16.22916794  137.35200500    0.86000001    2.80999994
   16.23250008  146.28399658    0.86000001    2.80999994
   16.23555565  136.30099487    0.86000001    2.82999992
   16.23888969  137.59399414    0.86000001    2.80999994
   16.24222183  120.90499878    0.88000000    2.80999994
   16.24527740  126.41000366    0.88000000    2.80999994
   16.25111198  126.41000366    0.88000000    2.80999994
   16.25527763  133.25999451    0.86000001    2.82999992
   16.25833321  145.28399658    0.86000001    2.80999994
   16.26166725  140.97700500    0.81999999    2.82999992
   16.26472282  142.55700684    0.81999999    2.82999992
   16.26805496  132.16400146    0.81999999    2.82999992
   16.27138901  139.40499878    0.83999997    2.80999994
   16.27444458  139.37899780    0.81999999    2.82999992
   16.27777672  130.60200500    0.81999999    2.82999992
   16.28111076  132.23399353    0.81999999    2.82999992
   16.28416634  144.42999268    0.83999997    2.80999994
   16.28750038  140.78399658    0.81999999    2.84999990
   16.28861046  135.83599854    0.81999999    2.84999990
   16.29388809  135.83599854    0.81999999    2.82999992
   16.29805565  137.94400024    0.81999999    2.82999992
   16.30111122  132.57000732    0.81999999    2.82999992
   16.30444336  111.15899658    0.81999999    2.82999992
   16.30777740  128.46200562    0.83999997    2.82999992
   16.31083298  128.88900757    0.83999997    2.82999992
   16.31416512  127.08200073    0.81999999    2.82999992
   16.31750107  131.63600159    0.86000001    2.80999994
   16.32055664  127.22000122    0.86000001    2.82999992
   16.32194519  131.43800354    0.86000001    2.82999992
   16.32416725  129.23199463    0.86000001    2.82999992
   16.32750130  141.62300110    0.86000001    2.80999994
   16.33083344  134.90699768    0.88000000    2.82999992
   16.33666801  134.90699768    0.92000002    2.82999992
   16.34083366  132.63900757    0.92000002    2.80999994
   16.34416771  141.39599609    0.92000002    2.80999994
   16.34722328  131.67799377    0.94000000    2.78999996
   16.35055542  138.85699463    0.98000002    2.80999994
   16.35388947  135.36599731    1.01999998    2.78999996
   16.35527802  115.61699677    1.01999998    2.78999996
   16.35722351  126.38500214    2.67000008    2.80999994
   16.36055565  139.79800415    4.90999985    2.84999990
   16.36388969  142.06700134    4.90999985    2.84999990
   16.36694527  140.54499817    4.90999985    2.82999992
   16.37027740  148.46899414    4.90999985    2.82999992
   16.37333298  133.64900208    4.90999985    2.82999992
   16.37944412  133.64900208    2.67000008    2.80999994
   16.38361168  134.50500488    3.32999992    2.80999994
   16.38694382  131.21099854    1.13000000    2.80999994
   16.38861084  135.94400024    1.07000005    2.80999994
   16.39055634  123.09300232    1.00000000    2.80999994
   16.39388847  134.75199890    1.00000000    2.80999994
   16.39722252  135.47000122    1.00000000    2.80999994
   16.40027809  146.55099487    1.00000000    2.80999994
   16.40361023  138.65699768    0.95999998    2.80999994
   16.40666580  143.37800598    0.95999998    2.80999994
   16.40999985  135.36000061    0.95999998    2.80999994
   16.41333389  141.93600464    0.94000000    2.80999994
   16.41638756  142.70100403    0.92000002    2.82999992
   16.42249870  142.70100403    0.89999998    2.80999994
   16.42666626  147.94999695    0.89999998    2.80999994
   16.43027687  141.47099304    0.92000002    2.80999994
   16.43333244  141.82400513    0.92000002    2.80999994
   16.43666649  144.22900391    0.92000002    2.80999994
   16.43999863  152.47599792    0.92000002    2.80999994
   16.44305420  133.18899536    0.89999998    2.80999994
   16.44638824  141.38999939    0.89999998    2.80999994
   16.44944382  152.12800598    0.89999998    2.80999994
   16.45277786  145.01400757    0.88000000    2.82999992
   16.45527840  147.26300049    0.88000000    2.82999992
   16.45639038  154.38600159    0.88000000    2.82999992
   16.45972252  162.58900452    0.88000000    2.82999992
   16.46527863  162.58900452    0.89999998    2.82999992
   16.46944427  151.74400330    0.89999998    2.80999994
   16.47249985  158.07299805    0.89999998    2.80999994
   16.47583389  154.75799561    0.92000002    2.80999994
   16.47916794  166.30499268    0.92000002    2.82999992
   16.48222351  156.14900208    0.92000002    2.82999992
   16.48555565  156.12500000    0.89999998    2.82999992
   16.48861122  149.20300293    0.95999998    2.82999992
   16.48916626  152.87500000    0.95999998    2.82999992
   16.49250031  155.72399902    1.58000004    2.82999992
   16.49583435  155.13000488    2.50000000    2.82999992
   16.49888992  156.72000122    2.69000006    2.84999990
   16.50222206  161.58299255    2.78999996    2.82999992
   16.50805473  161.58299255    3.36999989    2.82999992
   16.51222229  156.44599915    1.44000006    2.80999994
   16.51555634  156.74400330    1.09000003    2.80999994
   16.51861000  157.56399536    1.05999994    2.80999994
   16.52194405  156.36000061    1.03999996    2.80999994
   16.52222252  159.36799622    1.03999996    2.80999994
   16.52555466  160.06599426    0.94000000    2.82999992
   16.52888870  148.76800537    0.88000000    2.80999994
   16.53194427  156.46000671    0.88000000    2.80999994
   16.53527641  153.65600586    0.86000001    2.78999996
   16.53833199  145.12399292    0.86000001    2.80999994
   16.54166603  145.51800537    0.83999997    2.82999992
   16.54500008  143.02699280    0.83999997    2.82999992
   16.55083275  143.02699280    0.83999997    2.82999992
   16.55499840  147.82899475    0.81999999    2.80999994
   16.55555534  147.90499878    0.81999999    2.82999992
   16.55888748  139.48300171    0.81999999    2.80999994
   16.56194305  141.71699524    0.81999999    2.82999992
   16.56527710  116.25399780    0.81999999    2.82999992
   16.56861115  146.91900635    0.81999999    2.80999994
   16.57166672  137.75100708    0.79000002    2.82999992
   16.57500076  153.71499634    0.80000001    2.82999992
   16.57833481  155.59599304    0.80000001    2.82999992
   16.58139038  140.25799561    0.81999999    2.82999992
   16.58472252  148.89199829    0.83999997    2.82999992
   16.58777809  151.44999695    0.83999997    2.80999994
   16.58889008  136.94200134    0.86000001    2.80999994
   16.59388924  136.94200134    0.86000001    2.80999994
   16.59777832  150.07899475    0.86000001    2.82999992
   16.60111237  146.35400391    0.86000001    2.78999996
   16.60444450  142.65299988    0.88000000    2.80999994
   16.60750008  146.73699951    0.88000000    2.80999994
   16.61083412  140.28999329    0.88000000    2.80999994
   16.61416626  148.02099609    0.88000000    2.80999994
   16.61722183  139.00999451    0.88000000    2.80999994
   16.62055588  144.51899719    0.89999998    2.78999996
   16.62222290  142.91900635    0.88000000    2.80999994
   16.62416649  141.98399353    0.88000000    2.80999994
   16.62750053  150.77699280    0.86000001    2.80999994
   16.63083267  146.46600342    0.86000001    2.82999992
   16.63666725  146.46600342    0.83999997    2.82999992
   16.64083290  139.32200623    0.86000001    2.82999992
   16.64388847  145.03999329    0.83999997    2.82999992
   16.64722252  146.77799988    0.81999999    2.82999992
   16.65055466  148.73500061    0.80000001    2.82999992
   16.65361023  146.25199890    0.80000001    2.82999992
   16.65555573  141.40400696    0.80000001    2.82999992
   16.65749931  146.02099609    0.80000001    2.82999992
   16.66055489  143.12600708    0.76999998    2.82999992
   16.66388893  147.23199463    0.76999998    2.82999992
   16.66722107  135.57000732    0.76999998    2.82999992
   16.67027664  129.05499268    0.76999998    2.82999992
   16.67361069  131.21699524    0.75000000    2.82999992
   16.67944336  131.21699524    0.75000000    2.84999990
   16.68361092  146.49800110    0.75000000    2.84999990
   16.68694305  146.66099548    0.75000000    2.86999989
   16.68888855  137.81199646    0.75000000    2.82999992
   16.69055557  131.82499695    0.75000000    2.82999992
   16.69388771  141.59599304    0.73000002    2.84999990
   16.69694328  136.64199829    0.75000000    2.82999992
   16.70027924  140.40299988    0.76999998    2.82999992
   16.70333481  136.99099731    0.76999998    2.82999992
   16.70666695  136.95799255    0.79000002    2.82999992
   16.71000099  131.27600098    0.81999999    2.82999992
   16.71305656  140.08700562    0.80000001    2.82999992
   16.71638870  138.23199463    0.81999999    2.84999990
   16.72222328  138.23199463    0.80000001    2.80999994
   16.72638893  143.81100464    0.81999999    2.82999992
   16.72972298  135.05299377    0.81999999    2.82999992
   16.73277855  144.37699890    0.80000001    2.82999992
   16.73611069  138.37699890    0.80000001    2.82999992
   16.73944473  137.28999329    0.80000001    2.82999992
   16.74250031  142.90400696    0.79000002    2.82999992
   16.74583435  136.95599365    0.79000002    2.82999992
   16.74916649  132.59300232    0.79000002    2.82999992
   16.75222206  141.14999390    0.76999998    2.82999992
   16.75555611  135.12300110    0.79000002    2.84999990
   16.75611115  134.55499268    0.79000002    2.84999990
   16.75916672  140.57899475    0.79000002    2.84999990
   16.76527786  140.57899475    0.80000001    2.82999992
   16.76916695  136.32400513    0.81999999    2.82999992
   16.77249908  134.42599487    0.81999999    2.80999994
   16.77583313  137.19299316    0.81999999    2.82999992
   16.77888870  137.75300598    0.81999999    2.82999992
   16.78222275  134.33099365    0.81999999    2.82999992
   16.78555489  141.03700256    0.81999999    2.82999992
   16.78861046  131.50799561    0.83999997    2.82999992
   16.78944397  140.02600098    0.81999999    2.82999992
   16.79222107  119.49800110    0.81999999    2.82999992
   16.79555511  142.60800171    0.81999999    2.82999992
   16.79888916  140.66099548    0.81999999    2.82999992
   16.80194283  136.53399658    0.81999999    2.82999992
   16.80805397  136.53399658    0.86000001    2.82999992
   16.81222153  121.97699738    0.86000001    2.82999992
   16.81527710  132.11900330    0.86000001    2.82999992
   16.81861115  132.58799744    0.86000001    2.82999992
   16.82194519  132.19900513    0.86000001    2.82999992
   16.82277870  127.93000031    0.86000001    2.82999992
   16.82527924  130.33000183    0.83999997    2.82999992
   16.82861137  138.38699341    0.83999997    2.82999992
   16.83194542  131.07099915    0.80000001    2.84999990
   16.83500099  127.38099670    0.80000001    2.84999990
   16.83833313  131.63299561    0.80000001    2.84999990
   16.84166718  136.27699280    0.80000001    2.82999992
   16.84472275  140.32499695    0.80000001    2.82999992
   16.85083389  140.32499695    0.81999999    2.84999990
   16.85499954  129.30299377    0.83999997    2.84999990
   16.85611153  135.19400024    0.83999997    2.84999990
   16.85861206  132.05299377    0.83999997    2.84999990
   16.86194420  134.29800415    0.86000001    2.80999994
   16.86527824  127.79100037    0.88000000    2.84999990
   16.86833382  129.09300232    0.86000001    2.82999992
   16.87166595  133.42300415    0.86000001    2.82999992
   16.87472153  134.58000183    0.86000001    2.84999990
   16.87805557  131.81300354    0.86000001    2.82999992
   16.88138962  121.03500366    0.86000001    2.82999992
   16.88444519  128.86799622    0.81999999    2.84999990
   16.88777733  124.83899689    0.80000001    2.84999990
   16.88944435  131.50999451    0.80000001    2.84999990
   16.89361191  131.50999451    0.80000001    2.84999990
   16.89777756  122.73000336    0.80000001    2.84999990
   16.90111160  122.32900238    0.80000001    2.84999990
   16.90416718  127.52999878    0.80000001    2.82999992
   16.90749931  126.84200287    0.80000001    2.84999990
   16.91083336  132.21499634    0.80000001    2.84999990
   16.91388893  123.99199677    0.79000002    2.84999990
   16.91722107  135.44500732    0.79000002    2.84999990
   16.92027664  118.50499725    0.80000001    2.82999992
   16.92277718  137.52000427    0.80000001    2.82999992
   16.92388916  134.33900452    0.80000001    2.82999992
   16.92722130  133.63600159    0.80000001    2.84999990
   16.93055534  132.06300354    0.80000001    2.82999992
   16.93638802  132.06300354    0.81999999    2.84999990
   16.94055557  138.50900269    0.81999999    2.82999992
   16.94388771  130.98699951    0.83999997    2.82999992
   16.94722176  127.20300293    0.83999997    2.82999992
   16.95027924  129.55599976    0.81999999    2.84999990
   16.95361137  124.46099854    0.83999997    2.84999990
   16.95611191  125.40499878    0.83999997    2.84999990
   16.95722389  138.88800049    0.83999997    2.84999990
   16.96055603  122.70300293    0.81999999    2.82999992
   16.96389008  129.20300293    0.81999999    2.84999990
   16.96694565  139.37100220    0.81999999    2.82999992
   16.97027779  140.22399902    0.81999999    2.84999990
   16.97333336  131.20199585    0.83999997    2.82999992
   16.97944450  131.20199585    0.88000000    2.82999992
   16.98361206  139.85400391    0.88000000    2.82999992
   16.98666763  130.53900146    0.88000000    2.82999992
   16.98944473  130.78799438    0.88000000    2.82999992
   16.99027824  120.83599854    0.88000000    2.82999992
   16.99361229  132.66400146    0.86000001    2.82999992
   16.99694443  131.07600403    0.88000000    2.82999992
   17.00000000  128.85000610    0.86000001    2.82999992
   17.00333405  132.26600647    0.86000001    2.84999990
   17.00638962  138.78199768    0.86000001    2.82999992
   17.00972176  134.45799255    0.86000001    2.82999992
   17.01305580  127.60500336    0.88000000    2.82999992
   17.01611137  124.96700287    0.86000001    2.82999992
   17.02222252  124.96700287    0.86000001    2.82999992
   17.04055595  111.51799774    0.94000000    2.80999994
   17.04388809  130.26100159    0.95999998    2.80999994
   17.04694366  116.93099976    0.95999998    2.84999990
   17.05027771  130.90899658    0.95999998    2.80999994
   17.05360985  120.27700043    0.95999998    2.80999994
   17.05666542  125.40100098    0.95999998    2.82999992
   17.05999947  113.42500305    0.95999998    2.78999996
   17.06527710  113.42500305    0.95999998    2.82999992
   17.06944466  126.23899841    0.95999998    2.82999992
   17.07277870  135.45599365    0.98000002    2.82999992
   17.07361221  130.53100586    0.95999998    2.82999992
   17.07638931  128.85800171    1.00000000    2.82999992
   17.07944489  138.40199280    1.01999998    2.80999994
   17.08277893  132.39500427    1.00000000    2.82999992
   17.08611107  134.75700378    1.00000000    2.82999992
   17.08916664  134.30400085    0.98000002    2.84999990
   17.09250069  139.30700684    0.98000002    2.82999992
   17.09583473  130.11599731    1.00000000    2.82999992
   17.09889030  134.66900635    1.00000000    2.82999992
   17.10222244  128.76199341    1.00000000    2.82999992
   17.10805511  128.76199341    0.98000002    2.82999992
   17.11222267  134.37899780    0.95999998    2.84999990
   17.11555672  130.51899719    0.95999998    2.84999990
   17.11861038  127.64499664    0.98000002    2.82999992
   17.12194443  117.66300201    1.00000000    2.82999992
   17.12527847  125.98699951    1.00000000    2.82999992
   17.12833405  129.93099976    1.00000000    2.82999992
   17.13166618  124.01999664    0.92000002    2.82999992
   17.13500023  131.94400024    0.88000000    2.82999992
   17.13805580  128.64599609    0.88000000    2.82999992
   17.14027786  124.41699982    0.88000000    2.82999992
   17.14194489  136.47399902    0.88000000    2.82999992
   17.14500046  129.91600037    0.88000000    2.82999992
   17.15111160  129.91600037    0.86000001    2.82999992
   17.15527725  135.29400635    0.86000001    2.84999990
   17.15833282  125.16600037    0.86000001    2.84999990
   17.16166687  137.08900452    0.86000001    2.82999992
   17.16472244  137.74899292    0.83999997    2.82999992
   17.16805458  139.46699524    0.83999997    2.82999992
   17.17138863  132.58299255    0.83999997    2.82999992
   17.17361069  135.61300659    0.86000001    2.82999992
   17.17499924  126.49400330    0.86000001    2.82999992
   17.17805481  138.04100037    0.86000001    2.82999992
   17.18138885  133.21800232    0.86000001    2.82999992
   17.18472099  133.31300354    0.86000001    2.82999992
   17.18777657  132.83200073    0.86000001    2.84999990
   17.19388771  132.83200073    0.86000001    2.84999990
   17.19805527  131.81100464    0.86000001    2.84999990
   17.20111275  127.00599670    0.89999998    2.84999990
   17.20444489  133.43899536    0.89999998    2.82999992
   17.20694542  138.88699341    0.89999998    2.84999990
   17.20805550  128.73800659    0.89999998    2.84999990
   17.21138954  132.06599426    0.89999998    2.82999992
   17.21444511  136.66900635    0.89999998    2.82999992
   17.21777916  139.60600281    0.89999998    2.82999992
   17.22083473  135.47300720    0.89999998    2.82999992
   17.22416687  138.78599548    0.89999998    2.82999992
   17.22750092  136.78100586    0.89999998    2.82999992
   17.23083305  137.13699341    0.89999998    2.82999992
   17.23666763  137.13699341    0.89999998    2.82999992
   17.24083328  136.70799255    0.89999998    2.82999992
   17.24416733  139.40800476    0.89999998    2.82999992
   17.24722290  134.31300354    0.89999998    2.84999990
   17.25194359  134.09899902    0.89999998    2.82999992
   17.25499916  133.41700745    0.89999998    2.82999992
   17.25833321  133.57000732    0.92000002    2.82999992
   17.27027702  130.50500488    0.00000000    0.00000000
   17.27361107  133.68699646    0.89999998    2.80999994
   17.27416611  126.95300293    0.89999998    2.82999992
   17.27972221  126.95300293    0.89999998    2.82999992
   17.28388786  134.12500000    0.89999998    2.82999992
   17.28722191  139.29299927    0.89999998    2.82999992
   17.29027748  135.39300537    0.89999998    2.82999992
   17.29361153  140.31500244    0.89999998    2.84999990
   17.30583191  123.42199707    0.00000000    0.00000000
   17.30749893  132.78700256    0.88000000    2.84999990
   17.30944443  130.65199280    0.88000000    2.84999990
   17.31277657  141.63099670    0.88000000    2.82999992
   17.31611061  140.37500000    0.88000000    2.84999990
   17.32250023  140.37500000    0.89999998    2.84999990
   17.32666779  138.48399353    0.88000000    2.84999990
   17.33916664  134.03399658    0.00000000    0.00000000
   17.34083366  133.03399658    0.92000002    2.84999990
   17.34277916  133.26899719    0.92000002    2.84999990
   17.34611130  132.44000244    0.92000002    2.82999992
   17.34944534  128.42399597    0.94000000    2.84999990
   17.35250092  138.58599854    0.94000000    2.84999990
   17.35583305  134.05900574    0.92000002    2.82999992
   17.35916710  135.44400024    0.92000002    2.82999992
   17.36222267  131.80299377    0.92000002    2.82999992
   17.36694527  131.80299377    0.94000000    2.82999992
   17.37083435  130.09100342    0.94000000    2.84999990
   17.37416649  125.05799866    0.94000000    2.82999992
   17.37472153  131.21600342    0.94000000    2.82999992
   17.37777710  124.33300018    0.98000002    2.84999990
   17.38111115  127.87899780    0.98000002    2.80999994
   17.38416672  129.78999329    0.98000002    2.84999990
   17.38750076  122.54599762    0.98000002    2.84999990
   17.39083290  115.83399963    1.01999998    2.82999992
   17.39388847  133.01199341    1.00000000    2.82999992
   17.39749908  131.41499329    1.01999998    2.82999992
   17.40055466  125.18800354    1.01999998    2.82999992
   17.40388870  126.14199829    1.01999998    2.82999992
   17.41027832  126.14199829    1.01999998    2.82999992
   17.41444397  122.97499847    1.03999996    2.84999990
   17.41749954  129.09599304    1.05999994    2.80999994
   17.42083359  131.19099426    1.05999994    2.80999994
   17.42416573  130.95399475    1.05999994    2.82999992
   17.42722130  127.66799927    1.07000005    2.82999992
   17.43861008  125.61900330    0.00000000    0.00000000
   17.44083214  113.98100281    1.07000005    2.82999992
   17.44222069  115.10299683    1.07000005    2.82999992
   17.44555473  119.50800323    1.07000005    2.82999992
   17.44888878  122.71299744    1.07000005    2.82999992
   17.45305634  122.71299744    1.07000005    2.82999992
   17.45694542  127.67600250    1.07000005    2.82999992
   17.46027946  134.04699707    1.07000005    2.82999992
   17.46389008  122.32499695    1.07000005    2.82999992
   17.47249985  119.44000244    1.07000005    2.82999992
   17.47416687  124.06600189    1.07000005    2.84999990
   17.47611237  133.04600525    1.07000005    2.82999992
   17.47944450  129.05000305    1.07000005    2.82999992
   17.48277855  127.67500305    1.07000005    2.84999990
   17.48694420  135.36399841    1.07000005    2.82999992
   17.49027824  136.18600464    1.07000005    2.82999992
   17.49361229  137.61199951    1.09000003    2.82999992
   17.50111198  137.61199951    1.09000003    2.82999992
   17.50527763  134.19799805    1.11000001    2.82999992
   17.51611137  125.62799835    1.11000001    2.82999992
   17.51777840  127.82299805    1.11000001    2.82999992
   17.52083397  113.67400360    1.11000001    2.84999990
   17.52416611  127.18199921    1.11000001    2.84999990
   17.52750015  137.95300293    1.11000001    2.84999990
   17.53055573  128.05299377    1.11000001    2.82999992
   17.53388786  129.33999634    1.09000003    2.82999992
   17.53694344  126.66899872    1.09000003    2.82999992
   17.54361153  126.66899872    1.09000003    2.82999992
   17.54777718  125.91999817    1.09000003    2.84999990
   17.55111122  135.48300171    1.09000003    2.84999990
   17.55416679  123.66400146    1.11000001    2.84999990
   17.55749893  134.04100037    1.11000001    2.82999992
   17.56083298  131.82800293    1.11000001    2.84999990
   17.56388855  126.10600281    1.09000003    2.84999990
   17.56722260  134.50000000    1.11000001    2.82999992
   17.57055664  138.17100525    1.11000001    2.84999990
   17.57361221  129.09300232    1.09000003    2.84999990
   17.57444572  130.64900208    1.09000003    2.84999990
   17.57722282  137.05000305    1.09000003    2.82999992
   17.58055687  130.51199341    1.09000003    2.82999992
   17.58694458  130.51199341    1.11000001    2.82999992
   17.59111214  134.83099365    1.09000003    2.84999990
   17.59444427  139.96000671    1.09000003    2.82999992
   17.59749985  135.34899902    1.09000003    2.82999992
   17.60083389  132.81500244    1.09000003    2.82999992
   17.60444450  130.09800720    1.07000005    2.84999990
   17.60777855  136.34700012    1.09000003    2.82999992
   17.60833359  130.10000610    1.09000003    2.82999992
   17.61166763  135.68400574    1.09000003    2.82999992
   17.61472321  134.53999329    1.09000003    2.82999992
   17.61805534  130.83599854    1.07000005    2.84999990
   17.62138939  128.40299988    1.07000005    2.84999990
   17.62444496  129.86700439    1.07000005    2.80999994
   17.62944412  129.86700439    1.07000005    2.82999992
   17.63361168  125.68699646    1.09000003    2.82999992
   17.64583397  126.46900177    0.00000000    0.00000000
   17.64638901  134.93899536    1.05999994    2.82999992
   17.64944458  129.84500122    1.05999994    2.82999992
   17.65277672  129.18099976    1.05999994    2.82999992
   17.65583229  133.91799927    1.05999994    2.82999992
   17.65916634  132.37300110    1.05999994    2.84999990
   17.66222191  124.71600342    1.03999996    2.82999992
   17.66611099  130.66799927    1.03999996    2.82999992
   17.66944313  132.47500610    1.03999996    2.82999992
   17.67361069  132.47500610    1.03999996    2.82999992
   17.67777634  130.49000549    1.05999994    2.82999992
   17.67972183  130.92999268    1.05999994    2.82999992
   17.68138885  133.33200073    1.05999994    2.82999992
   17.68472099  126.70899963    1.05999994    2.82999992
   17.68777657  124.25399780    1.09000003    2.82999992
   17.69111061  125.03800201    1.07000005    2.80999994
   17.69416618  125.25399780    1.07000005    2.82999992
   17.69749832  126.21900177    1.07000005    2.82999992
   17.70083427  126.33300018    1.05999994    2.82999992
   17.70388985  120.45800018    1.05999994    2.82999992
   17.70722389  122.76000214    1.05999994    2.82999992
   17.71055603  125.20500183    1.07000005    2.82999992
   17.71638870  125.20500183    1.07000005    2.80999994
   17.72055626  127.57900238    1.07000005    2.80999994
   17.72389030  127.30599976    1.09000003    2.80999994
   17.72694588  124.67099762    1.09000003    2.80999994
   17.73027802  127.26899719    1.09000003    2.80999994
   17.73361206  134.12899780    1.07000005    2.80999994
   17.73666763  124.79000092    1.09000003    2.80999994
   17.73999977  122.01999664    1.05999994    2.82999992
   17.74305534  130.97700500    1.05999994    2.82999992
   17.74638939  130.01100159    1.05999994    2.82999992
   17.74722290  128.12300110    1.05999994    2.82999992
   17.75000000  128.86300659    1.05999994    2.82999992
   17.75333405  120.81400299    1.03999996    2.80999994
   17.75916672  120.81400299    1.03999996    2.82999992
   17.76333427  131.44200134    1.05999994    2.82999992
   17.76666641  127.58399963    1.03999996    2.80999994
   17.77000046  123.08699799    1.03999996    2.80999994
   17.77305603  131.14799500    1.03999996    2.82999992
   17.77638817  130.30200195    1.05999994    2.82999992
   17.77944374  120.36799622    1.05999994    2.82999992
   17.78055573  125.93099976    1.05999994    2.82999992
   17.78305435  131.52200317    1.09000003    2.80999994
   17.78638840  134.02799988    1.05999994    2.80999994
   17.78944397  128.09399414    1.05999994    2.80999994
   17.79277802  122.81600189    1.11000001    2.80999994
   17.79611015  129.18600464    1.13000000    2.82999992
   17.80222130  129.18600464    1.19000006    2.82999992
   17.80638885  127.70600128    1.21000004    2.80999994
   17.80944443  124.23300171    1.16999996    2.80999994
   17.81277657  123.04199982    1.16999996    2.82999992
   17.81416512  128.24800110    1.14999998    2.82999992
   17.81638718  127.81199646    1.11000001    2.80999994
   17.81972313  123.00700378    1.09000003    2.82999992
   17.82277870  129.60499573    1.19000006    2.82999992
   17.82611275  125.85700226    1.21000004    2.82999992
   17.82916832  124.33000183    1.19000006    2.82999992
   17.83250046  132.02000427    1.16999996    2.84999990
   17.83583450  131.29600525    1.16999996    2.84999990
   17.83889008  124.41699982    1.16999996    2.82999992
   17.84500122  124.41699982    1.14999998    2.82999992
   17.84916687  125.52400208    1.16999996    2.82999992
   17.85250092  124.62899780    1.16999996    2.84999990
   17.85555649  126.06800079    1.16999996    2.84999990
   17.85888863  123.79399872    1.11000001    2.82999992
   17.86194420  126.42400360    1.05999994    2.82999992
   17.86527824  122.28700256    1.01999998    2.82999992
   17.86861038  126.92700195    1.00000000    2.84999990
   17.87166595  114.27400208    0.98000002    2.84999990
   17.87500000  120.53099823    0.98000002    2.84999990
   17.87833405  112.42299652    0.98000002    2.84999990
   17.88083267  123.42500305    0.98000002    2.84999990
   17.88194466  119.82299805    0.98000002    2.84999990
   17.88805580  119.82299805    0.98000002    2.84999990
   17.89222145  120.32700348    0.98000002    2.84999990
   17.89527702  120.56999969    1.00000000    2.84999990
   17.89861107  127.89399719    1.00000000    2.84999990
   17.90194321  124.99299622    0.98000002    2.84999990
   17.90499878  125.59400177    0.95999998    2.84999990
   17.90833282  127.52400208    0.98000002    2.82999992
   17.91166687  117.76799774    0.98000002    2.84999990
   17.91416550  123.80599976    0.98000002    2.82999992
   17.91527748  128.44000244    0.98000002    2.82999992
   17.91860962  117.68199921    0.98000002    2.82999992
   17.92166519  126.44300079    1.00000000    2.82999992
   17.92499924  120.73799896    0.98000002    2.82999992
   17.93083191  120.73799896    0.98000002    2.82999992
   17.93610954  132.68899536    1.00000000    2.82999992
   17.93944359  127.92299652    0.98000002    2.84999990
   17.94249916  123.48799896    0.98000002    2.84999990
   17.94722176  125.81099701    0.98000002    2.84999990
   17.94777679  126.09899902    0.98000002    2.84999990
   17.95083427  128.12199402    0.98000002    2.82999992
   17.95388985  123.36000061    0.98000002    2.82999992
   17.95833397  135.26499939    1.00000000    2.82999992
   17.96166801  127.56099701    1.00000000    2.82999992
   17.96472359  132.88299561    1.01999998    2.84999990
   17.96805573  134.16700745    1.00000000    2.82999992
   17.97500038  134.16700745    1.01999998    2.82999992
   17.97888947  126.50099945    1.21000004    2.82999992
   17.98111153  128.33700562    1.21000004    2.82999992
   17.98277855  130.82400513    1.16999996    2.82999992
   17.98583412  125.35299683    1.14999998    2.82999992
   17.98916626  129.94299316    1.13000000    2.82999992
   17.99250031  126.03900146    1.14999998    2.84999990
   17.99555588  114.26200104    1.14999998    2.84999990
   17.99888992  121.59899902    1.14999998    2.82999992
   18.00222206  122.04900360    1.09000003    2.84999990
   18.00527763  129.39500427    1.09000003    2.82999992
   18.00861168  125.00000000    1.07000005    2.82999992
   18.01166725  131.29200745    1.07000005    2.82999992
   18.01777840  131.29200745    1.07000005    2.82999992
   18.02194405  113.15799713    1.07000005    2.82999992
   18.02499962  124.06300354    1.05999994    2.84999990
   18.02833366  130.38400269    1.01999998    2.84999990
   18.03166580  126.80100250    1.01999998    2.82999992
   18.03527641  117.06099701    1.01999998    2.82999992
   18.03861046  121.94899750    1.03999996    2.82999992
   18.04166603  122.61199951    1.03999996    2.82999992
   18.04500008  118.39700317    1.01999998    2.82999992
   18.04833221  128.94000244    1.01999998    2.84999990
   18.04888916  127.62500000    1.01999998    2.84999990
   18.06944466  127.62500000    0.98000002    2.84999990
   18.07361221  117.16600037    0.98000002    2.84999990
   18.07666779  131.10400391    0.95999998    2.82999992
   18.08000183  131.64700317    0.95999998    2.82999992
   18.08222389  129.67799377    0.95999998    2.82999992
   18.08388901  127.26599884    0.95999998    2.84999990
   18.08694458  129.91600037    0.95999998    2.82999992
   18.09027863  124.32599640    0.94000000    2.82999992
   18.09361267  127.06700134    0.95999998    2.82999992
   18.09666824  130.95500183    0.95999998    2.82999992
   18.10000038  122.80500031    0.95999998    2.84999990
   18.10333443  121.22000122    0.95999998    2.82999992
   18.10639000  130.21200562    0.94000000    2.82999992
   18.11222267  130.21200562    0.95999998    2.84999990
   18.11638832  128.95399475    0.95999998    2.82999992
   18.11944389  120.39900208    0.95999998    2.82999992
   18.12277794  126.36199951    0.94000000    2.82999992
   18.12583351  125.77999878    0.94000000    2.82999992
   18.12916756  119.55300140    0.94000000    2.82999992
   18.13249969  118.64199829    0.92000002    2.82999992
   18.13583374  120.84500122    0.94000000    2.82999992
   18.13888931  127.15200043    0.94000000    2.82999992
   18.14222145  123.27200317    0.94000000    2.82999992
   18.14555550  124.94799805    0.92000002    2.82999992
   18.14916611  126.13099670    0.94000000    2.82999992
   18.14944458  122.73699951    0.92000002    2.84999990
   18.15499878  122.73699951    0.94000000    2.86999989
   18.15916634  129.02999878    0.92000002    2.82999992
   18.16222191  116.64099884    0.89999998    2.84999990
   18.16555595  124.85199738    0.89999998    2.82999992
   18.16888809  130.02400208    0.89999998    2.82999992
   18.17194366  123.65100098    0.92000002    2.82999992
   18.17527771  125.93800354    0.92000002    2.82999992
   18.17860985  129.78199768    0.92000002    2.82999992
   18.18166542  124.29599762    0.94000000    2.82999992
   18.18222237  119.96099854    0.92000002    2.82999992
   18.18527603  124.15599823    0.94000000    2.84999990
   18.18833160  125.21499634    0.94000000    2.82999992
   18.19277763  119.94300079    0.92000002    2.82999992
   18.19777679  119.94300079    0.92000002    2.82999992
   18.20194435  128.67300415    0.94000000    2.26999998
   18.20527840  121.23200226    0.94000000    2.82999992
   18.20833397  118.84100342    0.94000000    2.82999992
   18.21166801  123.59400177    0.94000000    2.80999994
   18.21500015  128.24099731    0.94000000    2.80999994
   18.21555710  125.26000214    0.94000000    2.80999994
   18.21861076  114.89199829    0.94000000    2.82999992
   18.22166634  120.51399994    0.95999998    2.82999992
   18.22500038  121.72899628    0.95999998    2.82999992
   18.22833443  119.73899841    0.95999998    2.82999992
   18.23139000  119.11199951    0.98000002    2.82999992
   18.23472214  123.38300323    0.98000002    2.80999994
   18.24083328  123.38300323    0.95999998    2.80999994
   18.24500084  122.85399628    0.98000002    2.80999994
   18.24805641  126.51499939    0.98000002    2.80999994
   18.24888992  130.23300171    0.98000002    2.82999992
   18.25166702  125.61699677    0.98000002    2.82999992
   18.25472260  122.01300049    1.00000000    2.82999992
   18.25805473  131.66999817    1.01999998    2.82999992
   18.26138878  148.54499817    1.00000000    2.80999994
   18.26444435  136.07099915    1.00000000    2.80999994
   18.26805496  136.61599731    1.03999996    2.80999994
   18.27111053  121.02200317    1.03999996    2.82999992
   18.27444458  127.89800262    1.03999996    2.82999992
   18.27777672  123.09200287    1.05999994    2.82999992
   18.28361130  123.09200287    0.98000002    2.82999992
   18.28777695  119.84899902    0.95999998    2.82999992
   18.29083252  114.65899658    0.95999998    2.82999992
   18.29416656  121.28700256    0.95999998    2.82999992
   18.29722214  123.68699646    0.95999998    2.82999992
   18.30055428  127.09600067    0.98000002    2.82999992
   18.30388832  128.69799805    0.98000002    2.82999992
   18.30694389  131.15699768    0.95999998    2.82999992
   18.31027794  127.95999908    0.94000000    2.82999992
   18.31361008  120.81999969    0.94000000    2.82999992
   18.31555557  129.05700684    0.94000000    2.80999994
   18.31722260  128.19200134    0.94000000    2.80999994
   18.32027817  130.19299316    0.94000000    2.82999992
   18.32638931  130.19299316    0.94000000    2.82999992
   18.33055687  122.43199921    0.94000000    2.82999992
   18.33361244  131.06199646    0.94000000    2.82999992
   18.33694458  129.07899475    0.94000000    2.82999992
   18.34027863  128.35400391    0.94000000    2.82999992
   18.34333420  129.68899536    0.94000000    2.84999990
   18.34666824  123.09400177    0.94000000    2.82999992
   18.34889030  124.42800140    0.94000000    2.82999992
   18.35027885  125.71099854    0.94000000    2.82999992
   18.35333443  122.28900146    0.94000000    2.80999994
   18.35666656  123.20600128    0.92000002    2.82999992
   18.36000061  125.18499756    0.92000002    2.82999992
   18.36305618  128.92199707    0.94000000    2.82999992
   18.36916733  128.92199707    0.92000002    2.82999992
   18.37333298  127.45700073    0.92000002    2.82999992
   18.37666702  128.93099976    0.92000002    2.82999992
   18.37972260  128.94900513    0.92000002    2.82999992
   18.38222313  131.74099731    0.92000002    2.82999992
   18.38361168  128.26100159    0.92000002    2.82999992
   18.38694382  124.25900269    0.92000002    2.82999992
   18.39111137  130.15699768    0.92000002    2.82999992
   18.39444351  131.85299683    0.92000002    2.82999992
   18.39777756  129.89700317    0.92000002    2.82999992
   18.40083313  129.14100647    0.92000002    2.82999992
   18.40416718  123.82900238    0.92000002    2.82999992
   18.40749931  126.48799896    0.92000002    2.82999992
   18.41222191  126.48799896    0.94000000    2.84999990
   18.41611099  120.31500244    0.92000002    2.82999992
   18.41944313  120.71600342    0.92000002    2.82999992
   18.42277718  130.13000488    0.94000000    2.84999990
   18.42583275  121.31600189    0.94000000    2.82999992
   18.42916679  116.67500305    0.94000000    2.82999992
   18.43222237  121.92500305    0.94000000    2.82999992
   18.43555450  126.17800140    0.95999998    2.82999992
   18.43888855  125.61699677    1.01999998    2.82999992
   18.44194412  126.20600128    1.03999996    2.82999992
   18.44527626  123.86100006    1.03999996    2.82999992
   18.44861031  128.75300598    1.01999998    2.82999992
   18.44916534  127.00800323    1.01999998    2.82999992
   18.45499992  127.00800323    0.98000002    2.82999992
   18.45916748  131.81300354    0.95999998    2.82999992
   18.46222305  130.46899414    0.95999998    2.82999992
   18.46555710  127.19300079    0.95999998    2.82999992
   18.46888924  133.72900391    0.95999998    2.82999992
   18.47194481  131.98199463    0.95999998    2.82999992
   18.47527885  135.45700073    0.95999998    2.82999992
   18.47861099  133.41900635    0.95999998    2.82999992
   18.48166656  128.05200195    0.98000002    2.82999992
   18.48250008  127.48300171    0.98000002    2.82999992
   18.48527718  125.79100037    0.98000002    2.82999992
   18.48861122  128.91700745    0.98000002    2.82999992
   18.49166679  126.00700378    1.00000000    2.80999994
   18.49777794  126.00700378    1.00000000    2.82999992
   18.50194359  148.34599304    0.98000002    2.82999992
   18.50499916  127.34400177    1.00000000    2.82999992
   18.50833321  135.28399658    1.00000000    2.82999992
   18.51166725  134.55099487    1.00000000    2.82999992
   18.51472282  141.75900269    1.00000000    2.82999992
   18.51583290  146.28199768    1.00000000    2.82999992
   18.51833344  131.52900696    1.00000000    2.82999992
   18.52166557  132.41799927    1.01999998    2.82999992
   18.52499962  137.36199951    1.01999998    2.82999992
   18.52833366  140.41200256    1.00000000    2.82999992
   18.53138924  134.77499390    1.00000000    2.82999992
   18.53472137  130.22099304    1.00000000    2.82999992
   18.54055595  130.22099304    0.98000002    2.82999992
   18.54472160  126.13200378    1.00000000    2.80999994
   18.54805565  136.92500305    1.00000000    2.80999994
   18.54916573  118.51399994    1.01999998    2.80999994
   18.55166626  131.54499817    1.03999996    2.80999994
   18.55499840  144.99000549    1.03999996    2.80999994
   18.55805397  138.52900696    1.03999996    2.80999994
   18.56138802  134.46899414    1.03999996    2.80999994
   18.56472206  132.94700623    1.03999996    2.80999994
   18.56777954  143.58200073    1.05999994    2.80999994
   18.57111168  129.79499817    1.03999996    2.80999994
   18.57444572  129.46699524    1.03999996    2.80999994
   18.57750130  130.25900269    1.03999996    2.80999994
   18.58361244  130.25900269    1.05999994    2.82999992
   18.58750153  131.33299255    1.05999994    2.80999994
   18.59083366  117.28900146    1.07000005    2.80999994
   18.59416771  125.53299713    1.07000005    2.80999994
   18.59722328  129.24600220    1.11000001    2.80999994
   18.60055542  135.00999451    1.14999998    2.80999994
   18.60388947  130.13299561    1.13000000    2.80999994
   18.60694504  115.87799835    1.09000003    2.80999994
   18.61027908  125.53299713    1.09000003    2.80999994
   18.61333466  124.65399933    1.09000003    2.80999994
   18.61583328  126.80899811    1.09000003    2.80999994
   18.61694527  127.65000153    1.09000003    2.80999994
   18.62027740  130.80700684    1.07000005    2.80999994
   18.62638855  130.80700684    1.05999994    2.80999994
   18.63055611  133.04800415    1.05999994    2.82999992
   18.63361168  133.34500122    1.07000005    2.80999994
   18.63694382  133.14300537    1.07000005    2.80999994
   18.63999939  137.68899536    1.05999994    2.80999994
   18.64333344  140.21000671    1.05999994    2.80999994
   18.64666748  126.60600281    1.07000005    2.80999994
   18.64916611  132.60499573    1.07000005    2.80999994
   18.65027809  127.58000183    1.07000005    2.80999994
   18.65361023  124.29100037    1.07000005    2.80999994
   18.65694427  129.21200562    1.07000005    2.80999994
   18.65999985  140.78599548    1.07000005    2.80999994
   18.66333389  131.44999695    1.07000005    2.82999992
   18.67000008  131.44999695    1.09000003    2.80999994
   18.67416573  110.80899811    1.11000001    2.80999994
   18.67805481  122.73899841    1.11000001    2.80999994
   18.68138885  128.11999512    1.11000001    2.80999994
   18.68249893  137.61900330    1.07000005    2.80999994
   18.68499947  132.30400085    1.16999996    2.80999994
   18.68833160  127.72899628    1.21000004    2.80999994
   18.69166565  137.06399536    1.21000004    2.80999994
   18.69472122  136.29100037    1.19000006    2.78999996
   18.69805527  128.75500488    1.19000006    2.78999996
   18.70111275  129.63800049    1.16999996    2.82999992
   18.70444489  124.42700195    1.19000006    2.80999994
   18.70777893  133.91999817    1.19000006    2.80999994
   18.71194458  133.91999817    1.19000006    2.80999994
   18.71611214  134.45899963    1.26999998    2.80999994
   18.71944427  136.33799744    1.28999996    2.78999996
   18.72249985  134.82499695    1.25000000    2.80999994
   18.72583389  129.48800659    1.25000000    2.80999994
   18.72916794  138.36099243    1.25000000    2.80999994
   18.73222351  131.59300232    1.19000006    2.80999994
   18.73555565  132.84500122    1.21000004    2.78999996
   18.73888969  122.65000153    1.19000006    2.80999994
   18.74194527  121.44300079    1.21000004    2.78999996
   18.74527740  126.19200134    1.23000002    2.78999996
   18.74833298  129.15299988    1.21000004    2.80999994
   18.74916649  120.14700317    1.21000004    2.78999996
   18.75555611  120.14700317    1.19000006    2.80999994
   18.75972176  136.79800415    1.13000000    2.80999994
   18.76277733  128.36300659    1.13000000    2.80999994
   18.77472115  132.96699524    0.00000000    0.00000000
   18.77805519  131.22200012    1.09000003    2.80999994
   18.78111076  129.68200684    1.07000005    2.78999996
   18.78444481  128.21000671    1.05999994    2.80999994
   18.78777695  126.27200317    1.05999994    2.80999994
   18.79055595  134.96499634    1.05999994    2.80999994
   18.79138756  131.97700500    1.05999994    2.80999994
   18.79472160  122.14199829    1.05999994    2.80999994
   18.79805565  127.43299866    1.05999994    2.80999994
   18.80249977  127.43299866    1.03999996    2.82999992
   18.80666542  126.34899902    1.03999996    2.80999994
   18.80972099  123.05100250    1.03999996    2.80999994
   18.81305504  118.44300079    1.03999996    2.80999994
   18.81611061  128.39199829    1.03999996    2.80999994
   18.81944466  126.20500183    1.05999994    2.80999994
   18.82277870  124.79499817    1.03999996    2.80999994
   18.82389069  135.93299866    1.03999996    2.80999994
   18.82638931  118.98400116    1.05999994    2.80999994
   18.82972336  129.40100098    1.05999994    2.80999994
   18.83305550  130.10899353    1.05999994    2.80999994
   18.83611107  136.38699341    1.03999996    2.80999994
   18.83944511  123.98999786    1.03999996    2.80999994
   18.84527779  123.98999786    1.03999996    2.80999994
   18.84944534  129.29899597    1.03999996    2.80999994
   18.85250092  137.02799988    1.03999996    2.80999994
   18.85583305  134.20100403    1.03999996    2.80999994
   18.85722351  136.59199524    1.05999994    2.80999994
   18.85944557  113.31500244    1.05999994    2.80999994
   18.86277771  125.78399658    1.05999994    2.80999994
   18.86583328  128.59899902    1.07000005    2.80999994
   18.86916733  137.50500488    1.07000005    2.80999994
   18.87249947  137.38900757    1.05999994    2.78999996
   18.87555504  129.22599792    1.03999996    2.80999994
   18.87888908  137.96400452    1.05999994    2.80999994
   18.88222313  137.34300232    1.05999994    2.82999992
   18.88805580  137.34300232    1.05999994    2.80999994
   18.89222145  119.83399963    1.05999994    2.80999994
   18.89555550  128.88299561    1.03999996    2.80999994
   18.89861107  128.02099609    1.03999996    2.80999994
   18.90194321  132.79299927    1.03999996    2.80999994
   18.90499878  127.43000031    1.03999996    2.80999994
   18.90833282  126.64399719    1.03999996    2.80999994
   18.91166687  132.21200562    1.03999996    2.80999994
   18.91472244  127.65599823    1.03999996    2.80999994
   18.91805458  131.08399963    1.03999996    2.82999992
   18.92138863  130.33500671    1.01999998    2.82999992
   18.92388916  127.02999878    1.01999998    2.82999992
   18.92499924  133.91400146    1.01999998    2.82999992
   18.93083191  133.91400146    1.03999996    2.80999994
   18.93499947  129.38099670    1.05999994    2.80999994
   18.93833160  134.34199524    1.03999996    2.82999992
   18.95027924  126.92299652    0.00000000    0.00000000
   18.95361137  129.33900452    1.05999994    2.80999994
   18.95666695  124.20700073    1.05999994    2.80999994
   18.96000099  130.65699768    1.05999994    2.80999994
   18.96333504  128.75900269    1.05999994    2.80999994
   18.97500038  132.70500183    1.07000005    2.80999994
   18.97583389  128.42100525    1.07000005    2.80999994
   18.97916794  135.02799988    1.07000005    2.80999994
   18.98444557  135.02799988    1.07000005    2.80999994
   18.98833275  141.70300293    1.07000005    2.80999994
   18.99166679  137.25500488    1.07000005    2.80999994
   18.99500084  135.47500610    1.07000005    2.80999994
   18.99833298  132.38499451    1.07000005    2.80999994
   18.99944496  137.57200623    1.07000005    2.82999992
   19.00166702  140.80499268    1.07000005    2.82999992
   19.00499916  131.51300049    1.07000005    2.80999994
   19.00833321  127.53700256    1.07000005    2.80999994
   19.01138878  128.44599915    1.07000005    2.80999994
   19.01472282  142.88800049    1.07000005    2.80999994
   19.01777840  139.89700317    1.05999994    2.78999996
   19.02111053  127.99500275    1.05999994    2.80999994
   19.02722168  127.99500275    1.05999994    2.82999992
   19.03138924  141.49899292    1.07000005    2.80999994
   19.03277779  134.38999939    1.07000005    2.80999994
   19.03472137  131.88299561    1.07000005    2.80999994
   19.03805542  139.96499634    1.03999996    2.80999994
   19.04138756  138.74899292    1.03999996    2.80999994
   19.04444313  134.11000061    1.03999996    2.80999994
   19.04777718  140.28700256    1.03999996    2.80999994
   19.05083275  129.30299377    1.03999996    2.80999994
   19.05416679  142.97099304    1.03999996    2.80999994
   19.05749893  140.33700562    1.03999996    2.80999994
   19.06055450  147.04299927    1.03999996    2.80999994
   19.06388855  134.07499695    1.03999996    2.80999994
   19.06611061  137.47200012    1.03999996    2.80999994
   19.08666801  137.47200012    1.03999996    2.80999994
   19.09083366  131.93899536    1.03999996    2.80999994
   19.09416771  137.59899902    1.03999996    2.80999994
   19.09722328  133.14199829    1.05999994    2.80999994
   19.09944534  118.25399780    1.07000005    2.80999994
   19.10083389  132.66900635    1.07000005    2.80999994
   19.10416794  136.61599731    1.05999994    2.80999994
   19.10750008  128.87899780    1.05999994    2.80999994
   19.11055565  124.91899872    1.07000005    2.78999996
   19.11388969  130.26300049    1.07000005    2.78999996
   19.11722183  137.15600586    1.07000005    2.80999994
   19.12027740  134.84599304    1.07000005    2.80999994
   19.12361145  127.03399658    1.07000005    2.80999994
   19.12944412  127.03399658    1.09000003    2.78999996
   19.13361168  134.52200317    1.09000003    2.80999994
   19.13694382  136.99299622    1.09000003    2.80999994
   19.13999939  137.21699524    1.09000003    2.80999994
   19.14333344  121.21099854    1.09000003    2.78999996
   19.14666748  142.69700623    1.09000003    2.78999996
   19.14972115  134.94700623    1.09000003    2.78999996
   19.15305519  121.19599915    1.11000001    2.78999996
   19.15611076  135.95399475    1.11000001    2.78999996
   19.15944481  135.15299988    1.11000001    2.78999996
   19.16277695  133.38600159    1.11000001    2.78999996
   19.16583252  131.61300659    1.13000000    2.78999996
   19.16638756  127.42199707    1.14999998    2.78999996
   19.17222214  127.42199707    1.13000000    2.78999996
   19.17638779  122.43099976    1.16999996    2.78999996
   19.17972183  128.54400635    1.19000006    2.78999996
   19.18277740  133.89700317    1.23000002    2.78999996
   19.18610954  126.38800049    1.23000002    2.76999998
   19.18944359  135.15600586    1.25000000    2.78999996
   19.19249916  120.61399841    1.25000000    2.78999996
   19.19583321  132.36000061    1.26999998    2.78999996
   19.19916534  127.16999817    1.26999998    2.78999996
   19.19972038  135.08500671    1.26999998    2.78999996
   19.20277786  128.25399780    1.26999998    2.78999996
   19.20611191  133.11099243    1.28999996    2.78999996
   19.20916748  129.57800293    1.28999996    2.78999996
   19.21527863  129.57800293    1.28999996    2.78999996
   19.21916771  129.89700317    1.28999996    2.78999996
   19.22249985  133.15299988    1.30999994    2.78999996
   19.22583389  133.67100525    1.30999994    2.78999996
   19.22888947  128.43800354    1.30999994    2.78999996
   19.23222351  139.51699829    1.33000004    2.76999998
   19.23305511  131.40299988    1.33000004    2.76999998
   19.23583412  132.02099609    1.38000000    2.78999996
   19.23916626  123.72299957    1.38000000    2.78999996
   19.24222183  134.14500427    1.58000004    2.78999996
   19.24555588  129.79499817    1.58000004    2.78999996
   19.24861145  132.99800110    1.55999994    2.78999996
   19.25194359  117.17299652    1.55999994    2.78999996
   19.25805473  117.17299652    1.28999996    2.78999996
   19.26222229  130.77600098    1.23000002    2.78999996
   19.26527786  138.66600037    1.21000004    2.80999994
   19.26638794  139.85200500    1.16999996    2.78999996
   19.26888847  122.64499664    1.16999996    2.78999996
   19.27222252  133.79200745    1.26999998    2.78999996
   19.27527809  123.40000153    1.26999998    2.78999996
   19.27861023  123.80500031    1.26999998    2.78999996
   19.28166580  125.27400208    1.26999998    2.78999996
   19.28499985  134.25799561    1.21000004    2.80999994
   19.28833199  135.89700317    1.34000003    2.80999994
   19.29138756  136.85800171    1.34000003    2.80999994
   19.29472160  142.61399841    1.30999994    2.78999996
   19.30083275  142.61399841    1.26999998    2.78999996
   19.30499840  127.18199921    1.19000006    2.78999996
   19.30833244  121.80599976    1.21000004    2.78999996
   19.31138802  126.07399750    1.21000004    2.78999996
   19.31472206  121.59500122    1.21000004    2.78999996
   19.31861115  134.46499634    1.21000004    2.78999996
   19.32194519  136.11500549    1.21000004    2.78999996
   19.32500076  132.20300293    1.21000004    2.78999996
   19.32833481  135.01300049    1.21000004    2.78999996
   19.33139038  138.93899536    1.25000000    2.80999994
   19.33305550  127.28600311    1.25000000    2.78999996
   19.33527756  123.04000092    1.25000000    2.78999996
   19.33861160  123.91899872    1.25000000    2.76999998
   19.34361267  123.91899872    1.25000000    2.78999996
   19.34777832  126.78299713    1.25000000    2.78999996
   19.35111237  122.56900024    1.25000000    2.78999996
   19.35416794  126.23999786    1.25000000    2.78999996
   19.35750008  131.57000732    1.25000000    2.78999996
   19.36083412  126.86199951    1.25000000    2.78999996
   19.36388969  133.64700317    1.26999998    2.78999996
   19.36638832  130.90800476    1.26999998    2.78999996
   19.36777878  134.84199524    1.33000004    2.78999996
   19.37111092  125.63999939    1.33000004    2.78999996
   19.37416649  128.64700317    1.48000002    2.76999998
   19.37750053  131.12199402    1.48000002    2.76999998
   19.38083267  127.42800140    1.34000003    2.76999998
   19.38666725  127.42800140    1.16999996    2.78999996
   19.39055634  121.87100220    1.16999996    2.78999996
   19.39388847  116.56400299    1.16999996    2.78999996
   19.39722252  137.35699463    1.16999996    2.76999998
   19.39972115  139.87800598    1.16999996    2.78999996
   19.40083313  122.51799774    1.16999996    2.78999996
   19.40416718  128.06700134    1.16999996    2.76999998
   19.40722275  125.55599976    1.19000006    2.78999996
   19.41055489  127.55599976    1.19000006    2.78999996
   19.41361046  122.70099640    1.21000004    2.78999996
   19.41694450  119.93699646    1.19000006    2.78999996
   19.42027664  127.41600037    1.19000006    2.78999996
   19.42361069  125.11900330    1.19000006    2.78999996
   19.42944336  125.11900330    1.19000006    2.78999996
   19.43361092  128.75999451    1.19000006    2.78999996
   19.43666649  124.12200165    1.19000006    2.78999996
   19.43999863  124.29100037    1.16999996    2.78999996
   19.44333267  122.81800079    1.16999996    2.78999996
   19.44638824  122.89199829    1.23000002    2.78999996
   19.44972038  135.90199280    1.21000004    2.76999998
   19.45277786  139.93699646    1.25000000    2.76999998
   19.45611191  135.04200745    1.25000000    2.76999998
   19.45944595  130.76800537    1.25000000    2.76999998
   19.46250153  136.08599854    1.25000000    2.76999998
   19.46583366  135.02900696    1.26999998    2.76999998
   19.46638870  134.52900696    1.26999998    2.78999996
   19.47222328  134.52900696    1.34000003    2.78999996
   19.47638893  137.02699280    1.41999996    2.76999998
   19.47972298  138.61199951    1.26999998    2.76999998
   19.48277855  135.28700256    1.25000000    2.78999996
   19.48611069  138.43899536    1.28999996    2.76999998
   19.48916626  134.82400513    1.28999996    2.76999998
   19.49250031  136.84599304    1.28999996    2.76999998
   19.49583435  136.19799805    1.30999994    2.76999998
   19.49888992  139.87800598    1.30999994    2.76999998
   19.49972153  129.44500732    1.33000004    2.76999998
   19.50250053  149.65699768    1.33000004    2.76999998
   19.50583267  136.69099426    1.33000004    2.76999998
   19.50888824  145.52400208    1.33000004    2.78999996
   19.51499939  145.52400208    1.28999996    2.76999998
   19.51916695  138.72700500    1.26999998    2.76999998
   19.52249908  131.18699646    1.26999998    2.76999998
   19.52555466  127.73300171    1.28999996    2.78999996
   19.52888870  136.89700317    1.28999996    2.78999996
   19.53222275  133.28900146    1.28999996    2.78999996
   19.53305435  128.83599854    1.28999996    2.78999996
   19.53583336  136.00799561    1.28999996    2.76999998
   19.53916550  127.06600189    1.28999996    2.76999998
   19.54222107  134.15199280    1.26999998    2.76999998
   19.54555511  139.46800232    1.30999994    2.76999998
   19.54888916  133.98599243    1.28999996    2.76999998
   19.55194283  140.13099670    1.28999996    2.76999998
   19.55805397  140.13099670    1.28999996    2.76999998
   19.56194305  134.18499756    1.28999996    2.76999998
   19.56527710  142.86199951    1.26999998    2.76999998
   19.56638718  139.33799744    1.26999998    2.76999998
   19.56888962  146.45700073    1.26999998    2.76999998
   19.57222366  154.35299683    1.26999998    2.75000000
   19.57527924  171.35400391    1.25000000    2.76999998
   19.57861137  162.10200500    1.25000000    2.76999998
   19.58194542  182.52799988    1.25000000    2.76999998
   19.58500099  178.42399597    1.25000000    2.76999998
   19.58833313  158.47300720    1.25000000    2.76999998
   19.59166718  185.46699524    1.25000000    2.78999996
   19.59472275  200.13600159    1.26999998    2.76999998
   19.60083389  200.13600159    1.26999998    2.76999998
   19.60499954  175.83799744    1.26999998    2.76999998
   19.60805511  183.69700623    1.25000000    2.76999998
   19.61138916  177.87800598    1.26999998    2.78999996
   19.61472321  177.22099304    1.26999998    2.76999998
   19.61777878  166.78799438    1.26999998    2.78999996
   19.62111092  172.83399963    1.26999998    2.78999996
   19.62444496  168.71299744    1.25000000    2.76999998
   19.62750053  176.04899597    1.25000000    2.76999998
   19.63083267  172.78199768    1.25000000    2.75000000
   19.63305473  176.46499634    1.25000000    2.76999998
   19.63444519  173.63499451    1.26999998    2.76999998
   19.63777733  173.99499512    1.28999996    2.76999998
   19.64361191  173.99499512    1.26999998    2.76999998
   19.64777756  166.40699768    1.26999998    2.76999998
   19.65111160  176.43600464    1.26999998    2.76999998
   19.65416718  178.67199707    1.28999996    2.76999998
   19.65749931  168.60299683    1.34000003    2.76999998
   19.66083336  166.40899658    1.36000001    2.75000000
   19.66416550  172.51100159    1.36000001    2.75000000
   19.66638756  177.43800354    1.36000001    2.75000000
   19.66777802  179.64599609    1.36000001    2.73000002
   19.67111015  161.81199646    1.36000001    2.73000002
   19.67444420  170.61300659    1.36000001    2.75000000
   19.67749977  148.50000000    1.36000001    2.75000000
   19.68083191  172.76699829    1.36000001    2.73000002
   19.68638802  172.76699829    1.36000001    2.75000000
   19.69055557  180.75300598    1.36000001    2.75000000
   19.69388771  178.16200256    1.38000000    2.75000000
   19.69694328  164.38200378    1.39999998    2.75000000
   19.69972038  172.32899475    1.39999998    2.75000000
   19.70055580  162.15899658    1.39999998    2.75000000
   19.70388985  166.22099304    1.39999998    2.75000000
   19.70694542  184.88499451    1.39999998    2.75000000
   19.71027946  173.29899597    1.39999998    2.75000000
   19.71361160  165.11399841    1.39999998    2.75000000
   19.71666718  168.56399536    1.44000006    2.75000000
   19.72000122  147.88299561    1.44000006    2.75000000
   19.72305679  169.12100220    1.44000006    2.73000002
   19.72944450  169.12100220    1.48000002    2.75000000
   19.73333359  159.11000061    1.61000001    2.75000000
   19.73666763  136.49299622    1.61000001    2.75000000
   19.73999977  162.31799316    1.73000002    2.75000000
   19.74305534  163.56799316    1.76999998    2.75000000
   19.74638939  171.64900208    1.76999998    2.75000000
   19.74972153  162.66400146    1.73000002    2.75000000
   19.75277710  161.87300110    1.64999998    2.73000002
   19.75611115  157.26199341    1.64999998    2.73000002
   19.75916672  158.55299377    1.46000004    2.75000000
   19.76250076  159.00199890    1.39999998    2.75000000
   19.76583290  155.60699463    1.39999998    2.75000000
   19.76666641  167.30900574    1.39999998    2.75000000
   19.77222252  167.30900574    1.38000000    2.75000000
   19.77638817  165.23800659    1.36000001    2.75000000
   19.77944374  165.71600342    1.36000001    2.75000000
   19.78277779  153.85899353    1.34000003    2.75000000
   19.78610992  147.27200317    1.36000001    2.75000000
   19.78944397  158.31599426    1.36000001    2.75000000
   19.79249954  155.48899841    1.36000001    2.75000000
   19.79583359  154.39799500    1.36000001    2.73000002
   19.79916573  155.88000488    1.36000001    2.75000000
   19.79999924  156.46299744    1.36000001    2.75000000
   19.80249977  157.07099915    1.36000001    2.75000000
   19.80583191  155.00100708    1.36000001    2.75000000
   19.80888748  147.42700195    1.38000000    2.75000000
   19.81499863  147.42700195    1.38000000    2.75000000
   19.81916809  149.33799744    1.38000000    2.75000000
   19.82250023  144.18699646    1.38000000    2.75000000
   19.82555580  145.46000671    1.38000000    2.75000000
   19.82888985  147.00000000    1.39999998    2.73000002
   19.83222389  139.59899902    1.39999998    2.75000000
   19.83333397  139.24299622    1.39999998    2.75000000
   19.83583450  140.06900024    1.39999998    2.73000002
   19.83916664  150.28999329    1.39999998    2.73000002
   19.84222221  144.70199585    1.41999996    2.75000000
   19.84555626  143.53599548    1.39999998    2.73000002
   19.84889030  146.42999268    1.44000006    2.73000002
   19.85194397  148.26499939    1.48000002    2.73000002
   19.86000061  148.26499939    1.50000000    2.75000000
   19.86416626  142.19299316    1.51999998    2.73000002
   19.87500000  138.22999573    1.50000000    2.73000002
   19.87638855  135.24899292    1.50000000    2.73000002
   19.87944412  143.19999695    1.50000000    2.73000002
   19.88277817  149.70199585    1.46000004    2.75000000
   19.88638878  131.94099426    1.46000004    2.75000000
   19.88944435  145.62199402    1.46000004    2.75000000
   19.89277840  145.23800659    1.48000002    2.73000002
   19.89583397  146.91600037    1.44000006    2.75000000
   19.90277672  146.91600037    1.41999996    2.75000000
   19.90666580  124.79799652    1.44000006    2.75000000
   19.91083336  136.36700439    1.41999996    2.73000002
   19.91388893  145.13499451    1.41999996    2.73000002
   19.91722107  133.65800476    1.41999996    2.73000002
   19.92055511  131.10600281    1.41999996    2.73000002
   19.92361069  136.48500061    1.44000006    2.73000002
   19.92694473  135.40600586    1.44000006    2.71000004
   19.93027687  127.97599792    1.44000006    2.73000002
   19.93333244  131.28500366    1.46000004    2.73000002
   19.93388748  130.14900208    1.46000004    2.73000002
   19.93722153  133.72000122    1.44000006    2.73000002
   19.94055557  140.72000122    1.44000006    2.73000002
   19.94555473  140.72000122    1.44000006    2.73000002
   19.94972038  129.98399353    1.41999996    2.73000002
   19.95333481  131.03900146    1.39999998    2.73000002
   19.95639038  135.44299316    1.39999998    2.73000002
   19.95972252  138.92999268    1.38000000    2.75000000
   19.96277809  123.41600037    1.38000000    2.75000000
   19.96611214  121.92500305    1.38000000    2.73000002
   19.96722221  139.93899536    1.38000000    2.73000002
   19.96972275  132.80999756    1.38000000    2.73000002
   19.97305679  127.38099670    1.38000000    2.73000002
   19.97611237  125.61799622    1.38000000    2.73000002
   19.97944450  138.44000244    1.38000000    2.73000002
   19.98250008  130.35200500    1.39999998    2.73000002
   19.98833275  130.35200500    1.39999998    2.73000002
   19.99250031  138.97599792    1.41999996    2.73000002
   19.99583435  130.79899597    1.41999996    2.73000002
   19.99888992  134.25100708    1.41999996    2.73000002
   20.00083351  134.68400574    1.41999996    2.73000002
   20.00250053  130.23599243    1.39999998    2.73000002
   20.00583267  131.95399475    1.41999996    2.71000004
   20.00916672  119.95700073    1.41999996    2.73000002
   20.01222229  128.47500610    1.44000006    2.73000002
   20.01555634  127.86000061    1.44000006    2.75000000
   20.01888847  120.40799713    1.46000004    2.71000004
   20.02194405  128.80900574    1.46000004    2.71000004
   20.02527809  128.94599915    1.48000002    2.71000004
   20.03166580  128.94599915    1.48000002    2.71000004
   20.03583336  128.02000427    1.51999998    2.73000002
   20.03916550  142.35400391    1.53999996    2.71000004
   20.04277802  137.97099304    1.53999996    2.71000004
   20.04611015  126.80000305    1.53999996    2.71000004
   20.04916573  134.87500000    1.51999998    2.73000002
   20.05249977  126.55899811    1.51999998    2.73000002
   20.05555534  130.81100464    1.53999996    2.71000004
   20.05888748  118.91899872    1.55999994    2.73000002
   20.06222153  119.82099915    1.58000004    2.71000004
   20.06527710  128.75100708    1.58000004    2.71000004
   20.06750107  128.93400574    1.55999994    2.71000004
   20.06888962  125.94300079    1.55999994    2.71000004
   20.07416725  125.94300079    1.55999994    2.71000004
   20.07805634  126.42099762    1.53999996    2.71000004
   20.08139038  128.08200073    1.53999996    2.71000004
   20.10083389  128.62500000    1.50000000    2.71000004
   20.10166740  126.51000214    1.50000000    2.73000002
   20.10472298  125.75199890    1.50000000    2.73000002
   20.10805511  123.25399780    1.50000000    2.71000004
   20.11138916  129.61900330    1.50000000    2.73000002
   20.11694527  129.61900330    1.50000000    2.73000002
   20.12111092  119.85299683    1.50000000    2.73000002
   20.12416649  121.48200226    1.51999998    2.71000004
   20.12750053  111.63500214    1.51999998    2.71000004
   20.13083267  112.49800110    1.53999996    2.71000004
   20.13388824  123.29499817    1.53999996    2.69000006
   20.13444519  121.47699738    1.53999996    2.69000006
   20.13777733  116.01000214    1.53999996    2.71000004
   20.14083290  122.81300354    1.53999996    2.71000004
   20.14416695  116.61299896    1.55999994    2.71000004
   20.14749908  122.43699646    1.58000004    2.71000004
   20.15055466  119.64600372    1.58000004    2.71000004
   20.15388870  121.76699829    1.58000004    2.71000004
   20.15972137  121.76699829    1.58000004    2.71000004
   20.16388893  125.82599640    1.58000004    2.71000004
   20.16722107  112.87300110    1.58000004    2.71000004
   20.16777802  124.97200012    1.58000004    2.71000004
   20.17083359  117.32900238    1.60000002    2.71000004
   20.17388916  116.38200378    1.60000002    2.69000006
   20.17749977  123.00399780    1.60000002    2.71000004
   20.18055534  116.06900024    1.60000002    2.71000004
   20.18388748  123.51000214    1.60000002    2.71000004
   20.18722153  124.88800049    1.60000002    2.71000004
   20.19027710  131.22599792    1.60000002    2.69000006
   20.19361115  126.70099640    1.60000002    2.69000006
   20.19694328  127.40200043    1.60000002    2.69000006
   20.20250130  127.40200043    1.60000002    2.71000004
   20.20722389  124.31900024    1.60000002    2.71000004
   20.21027946  118.26000214    1.60000002    2.71000004
   20.21361160  120.96499634    1.60000002    2.71000004
   20.21694565  123.96099854    1.60000002    2.71000004
   20.22000122  114.73999786    1.60000002    2.71000004
   20.22333336  123.00399780    1.61000001    2.71000004
   20.22666740  129.24400330    1.61000001    2.71000004
   20.22972298  125.37699890    1.60000002    2.71000004
   20.23305511  126.17900085    1.60000002    2.69000006
   20.23444557  125.47299957    1.60000002    2.69000006
   20.23666763  126.67700195    1.60000002    2.69000006
   20.23972321  127.91500092    1.60000002    2.71000004
   20.24555588  127.91500092    1.58000004    2.69000006
   20.24944496  128.04100037    1.60000002    2.69000006
   20.25277710  116.06800079    1.60000002    2.71000004
   20.25611115  122.08799744    1.63000000    2.69000006
   20.25916672  119.85700226    1.63000000    2.69000006
   20.26250076  125.19799805    1.63000000    2.69000006
   20.26583290  126.91500092    1.63000000    2.69000006
   20.26777840  119.53800201    1.61000001    2.69000006
   20.26944351  124.02799988    1.61000001    2.69000006
   20.27305603  134.76100159    1.60000002    2.69000006
   20.27638817  134.47000122    1.60000002    2.71000004
   20.27972221  127.81800079    1.60000002    2.71000004
   20.28277779  128.93200684    1.60000002    2.71000004
   20.28833199  128.93200684    1.61000001    2.69000006
   20.29249954  124.36299896    1.61000001    2.69000006
   20.29555511  127.51100159    1.60000002    2.69000006
   20.29888916  130.84399414    1.61000001    2.69000006
   20.30111122  113.94999695    1.61000001    2.69000006
   20.30249977  138.68499756    1.63000000    2.67000008
   20.30555534  140.33399963    1.63000000    2.69000006
   20.30888748  134.22900391    1.63000000    2.69000006
   20.31222153  135.76400757    1.64999998    2.69000006
   20.31583214  135.40100098    1.64999998    2.67000008
   20.31916809  137.96299744    1.64999998    2.69000006
   20.32250023  135.03900146    1.66999996    2.69000006
   20.32555580  143.19000244    1.69000006    2.69000006
   20.33111191  143.19000244    1.66999996    2.69000006
   20.33527756  150.83099365    1.69000006    2.69000006
   20.33916664  142.33599854    1.71000004    2.67000008
   20.34222221  133.01400757    1.71000004    2.67000008
   20.34555626  143.60899353    1.73000002    2.69000006
   20.34861183  143.70199585    1.75000000    2.69000006
   20.35194397  144.01899719    1.75000000    2.67000008
   20.36388969  144.02099609    0.00000000    0.00000000
   20.36694527  136.73300171    1.78999996    2.67000008
   20.36777878  140.27499390    1.78999996    2.67000008
   20.37388992  140.27499390    1.78999996    2.67000008
   20.37805557  131.72599792    1.78999996    2.67000008
   20.38138962  145.72599792    1.78999996    2.67000008
   20.38444519  143.00000000    1.78999996    2.67000008
   20.38777733  146.29600525    1.78999996    2.67000008
   20.39749908  142.77299500    0.00000000    0.00000000
   20.40083313  134.96899414    1.76999998    2.69000006
   20.40111160  139.48699951    1.76999998    2.69000006
   20.40416718  143.36300659    1.76999998    2.67000008
   20.40749931  149.93800354    1.76999998    2.67000008
   20.41055489  143.74400330    1.76999998    2.67000008
   20.41694450  143.74400330    1.76999998    2.67000008
   20.42083359  149.15699768    1.76999998    2.67000008
   20.42499924  134.40499878    1.76999998    2.67000008
   20.42833328  142.47200012    1.75000000    2.67000008
   20.43166542  151.31100464    2.00000000    2.67000008
   20.43472099  144.65600586    2.36999989    2.67000008
   20.43555450  149.91200256    2.26999998    2.66000009
   20.43888855  140.11599731    2.11999989    2.66000009
   20.44194412  137.22900391    2.13000011    2.67000008
   20.44583321  139.30799866    1.83000004    2.67000008
   20.44916534  122.41600037    1.85000002    2.67000008
   20.45250130  146.25300598    1.83000004    2.66000009
   20.45555687  141.35899353    1.83000004    2.66000009
   20.45972252  141.35899353    1.78999996    2.66000009
   20.46389008  141.80000305    1.80999994    2.67000008
   20.46722221  139.80200195    1.78999996    2.67000008
   20.46777916  141.00300598    1.78999996    2.67000008
   20.47055626  150.40100098    1.80999994    2.67000008
   20.47389030  144.03300476    1.83000004    2.67000008
   20.47694588  140.58700562    1.83000004    2.66000009
   20.48027802  144.53399658    1.85000002    2.66000009
   20.48361206  149.66200256    1.85000002    2.66000009
   20.48666763  151.60099792    1.85000002    2.66000009
   20.49916649  150.32499695    0.00000000    0.00000000
   20.50138855  140.16900635    1.89999998    2.66000009
   20.50277710  150.54400635    1.89999998    2.66000009
   20.50861168  150.54400635    1.88000000    2.66000009
   20.51277733  137.59100342    1.89999998    2.66000009
   20.51611137  137.77200317    1.91999996    2.67000008
   20.51916695  142.54200745    1.94000006    2.66000009
   20.52249908  145.44799805    1.96000004    2.66000009
   20.52583313  151.83500671    1.94000006    2.66000009
   20.52916718  158.27900696    1.94000006    2.66000009
   20.53222275  152.78100586    1.94000006    2.66000009
   20.53472137  138.34700012    1.94000006    2.66000009
   20.53583336  147.48800659    1.94000006    2.66000009
   20.53916550  143.51899719    1.94000006    2.66000009
   20.54222107  152.62699890    1.94000006    2.66000009
   20.54611015  145.72599792    1.96000004    2.66000009
   20.55138779  145.72599792    1.98000002    2.64000010
   20.55555534  140.55900574    1.98000002    2.66000009
   20.55888748  145.05200195    1.98000002    2.64000010
   20.56194305  138.36399841    1.98000002    2.64000010
   20.56527710  149.43099976    1.98000002    2.66000009
   20.56805611  135.50000000    1.98000002    2.66000009
   20.56916809  148.89599609    1.98000002    2.66000009
   20.57222366  154.12100220    1.96000004    2.64000010
   20.57555580  150.13900757    1.98000002    2.64000010
   20.57861137  137.70399475    1.96000004    2.64000010
   20.58194542  141.25500488    1.98000002    2.64000010
   20.58527756  144.35899353    2.01999998    2.64000010
   20.58833313  139.33999634    2.03999996    2.64000010
   20.59444427  139.33999634    2.00000000    2.64000010
   20.59833336  131.44299316    2.00000000    2.64000010
   20.60138893  157.42199707    1.96000004    2.64000010
   20.60222244  145.49800110    1.98000002    2.64000010
   20.60527802  140.54200745    1.98000002    2.64000010
   20.60861206  135.36099243    1.98000002    2.64000010
   20.61194420  133.05700684    1.96000004    2.64000010
   20.61499977  143.47500610    1.96000004    2.66000009
   20.61833382  134.29800415    1.96000004    2.64000010
   20.62166595  150.99099731    1.96000004    2.66000009
   20.62472153  142.49200439    1.96000004    2.64000010
   20.62805557  148.17700195    1.96000004    2.64000010
   20.63111115  140.48199463    1.98000002    2.64000010
   20.63722229  140.48199463    1.98000002    2.64000010
   20.64138794  144.46600342    1.98000002    2.64000010
   20.64583397  133.94799805    1.96000004    2.64000010
   20.64916611  139.79600525    1.94000006    2.64000010
   20.65222168  132.99899292    1.94000006    2.64000010
   20.65555573  154.02099609    1.91999996    2.64000010
   20.65861130  142.81100464    1.94000006    2.64000010
   20.66194344  155.40100098    1.94000006    2.64000010
   20.66527748  143.82699585    1.94000006    2.64000010
   20.66805458  144.33700562    1.94000006    2.64000010
   20.66888809  145.72900391    1.94000006    2.64000010
   20.67194366  151.52499390    1.96000004    2.64000010
   20.67527771  145.47900391    1.96000004    2.64000010
   20.68000031  145.47900391    1.96000004    2.64000010
   20.68416595  141.89199829    1.96000004    2.64000010
   20.68750000  137.09800720    2.00000000    2.64000010
   20.69055557  144.95300293    2.00000000    2.64000010
   20.69388771  148.10699463    2.00000000    2.64000010
   20.69722176  137.16700745    1.98000002    2.64000010
   20.70027924  145.05799866    1.98000002    2.64000010
   20.70138931  137.24200439    1.98000002    2.61999989
   20.70416832  143.48500061    1.98000002    2.61999989
   20.70722389  148.48399353    1.98000002    2.64000010
   20.71055603  136.83799744    1.98000002    2.64000010
   20.71389008  141.68099976    1.96000004    2.61999989
   20.71694565  130.67399597    1.96000004    2.61999989
   20.72277832  130.67399597    1.96000004    2.61999989
   20.72694588  138.95599365    1.96000004    2.61999989
   20.73027802  132.89100647    1.98000002    2.61999989
   20.73333359  158.28799438    1.98000002    2.61999989
   20.73500061  141.89799500    2.00000000    2.61999989
   20.73694420  129.72500610    2.00000000    2.61999989
   20.74027824  131.55400085    2.00000000    2.61999989
   20.74361229  133.37100220    2.00000000    2.61999989
   20.74666786  137.93600464    2.00000000    2.61999989
   20.75000000  145.41999817    2.00000000    2.61999989
   20.75333405  145.29600525    2.01999998    2.61999989
   20.75638962  143.19599915    2.01999998    2.61999989
   20.75972176  133.10499573    2.03999996    2.64000010
   20.76583290  133.10499573    2.05999994    2.59999990
   20.76972198  135.15299988    2.05999994    2.59999990
   20.77305603  136.85299683    2.07999992    2.59999990
   20.77638817  133.28399658    2.07999992    2.59999990
   20.77944374  148.36500549    2.09999990    2.61999989
   20.78277779  146.42999268    2.09999990    2.59999990
   20.78610992  143.27900696    2.11999989    2.59999990
   20.78916550  128.33900452    2.11999989    2.59999990
   20.79249954  135.65899658    2.13000011    2.59999990
   20.79555511  134.04100037    2.13000011    2.61999989
   20.79888916  133.47799683    2.17000008    2.59999990
   20.80166626  144.55499268    2.17000008    2.59999990
   20.80249977  136.18600464    2.17000008    2.59999990
   20.80861092  136.18600464    2.15000010    2.59999990
   20.81277657  141.92700195    2.15000010    2.59999990
   20.81583214  140.55200195    2.17000008    2.59999990
   20.81916809  129.65299988    2.19000006    2.59999990
   20.82250023  144.53999329    2.17000008    2.57999992
   20.82555580  143.10899353    2.17000008    2.59999990
   20.82888985  137.46299744    2.19000006    2.59999990
   20.83194542  126.01999664    2.19000006    2.59999990
   20.83500099  132.02900696    2.21000004    2.59999990
   20.83555603  131.93299866    2.21000004    2.59999990
   20.83889008  135.87800598    2.25000000    2.59999990
   20.84222221  133.94200134    2.23000002    2.59999990
   20.84527779  140.72999573    2.21000004    2.57999992
   20.85138893  140.72999573    2.23000002    2.57999992
   20.85555649  134.48399353    2.23000002    2.57999992
   20.85888863  132.01100159    2.23000002    2.57999992
   20.86194420  133.54400635    2.21000004    2.57999992
   20.86527824  135.69299316    2.23000002    2.59999990
   20.86833382  125.92700195    2.23000002    2.57999992
   20.86888885  117.95899963    2.23000002    2.57999992
   20.87194443  131.42799377    2.25000000    2.57999992
   20.87527847  126.73400116    2.25000000    2.59999990
   20.87833405  121.78700256    2.26999998    2.57999992
   20.88166618  115.55500031    2.26999998    2.57999992
   20.88500023  127.49199677    2.26999998    2.57999992
   20.88805580  124.22399902    2.28999996    2.57999992
   20.89416695  124.22399902    2.30999994    2.57999992
   20.89833260  142.36999512    2.32999992    2.57999992
   20.90166664  131.33299255    2.28999996    2.57999992
   20.90222168  136.65100098    2.28999996    2.55999994
   20.90527725  136.75599670    2.32999992    2.55999994
   20.90861130  140.10000610    2.34999990    2.55999994
   20.91166687  132.86999512    2.39000010    2.57999992
   20.91499901  131.02499390    2.36999989    2.57999992
   20.91833305  130.02799988    2.36999989    2.55999994
   20.92138863  134.00300598    2.34999990    2.55999994
   20.92472076  128.43499756    2.34999990    2.55999994
   20.92805481  126.98100281    2.34999990    2.55999994
   20.93111038  132.54499817    2.36999989    2.55999994
   20.93694305  132.54499817    2.46000004    2.57999992
   20.94111061  135.95799255    2.50000000    2.55999994
   20.94444275  131.31399536    2.51999998    2.55999994
   20.94777679  128.95399475    2.51999998    2.55999994
   20.95083427  141.34899902    2.51999998    2.55999994
   20.95416832  142.39300537    2.50000000    2.55999994
   20.95750046  137.36799622    2.50000000    2.55999994
   20.96055603  137.13299561    2.55999994    2.55999994
   20.96389008  137.02299500    2.64000010    2.55999994
   20.96694565  129.05599976    2.61999989    2.55999994
   20.96833420  131.33299255    2.59999990    2.55999994
   20.97083473  121.81400299    2.59999990    2.55999994
   20.97389030  112.76499939    2.55999994    2.55999994
   20.98000145  112.76499939    2.51999998    2.55999994
   20.98416710  127.06800079    2.51999998    2.55999994
   20.98722267  127.52700043    2.51999998    2.55999994
   20.99055672  128.77099609    2.51999998    2.55999994
   20.99361229  120.21199799    2.53999996    2.53999996
   20.99694443  138.54100037    2.53999996    2.53999996
   21.00027847  126.01100159    2.55999994    2.53999996
   21.00166702  129.53900146    2.55999994    2.53999996
   21.00388908  120.53099823    2.55999994    2.53999996
   21.00694466  119.58000183    2.55999994    2.53999996
   21.01027870  134.23500061    2.55999994    2.53999996
   21.01333427  132.14399719    2.55999994    2.53999996
   21.01666641  125.54199982    2.55999994    2.53999996
   21.02277756  125.54199982    2.57999992    2.55999994
   21.02694511  122.61900330    2.61999989    2.53999996
   21.03000069  125.23999786    2.64000010    2.53999996
   21.03333282  125.00700378    2.66000009    2.53999996
   21.03527641  125.64199829    2.67000008    2.53999996
   21.03694344  129.35200500    2.69000006    2.53999996
   21.04027748  114.63099670    2.67000008    2.53999996
   21.04361153  122.05799866    2.67000008    2.53999996
   21.04666710  123.04000092    2.67000008    2.51999998
   21.04999924  127.85500336    2.69000006    2.53999996
   21.05305481  117.43399811    2.69000006    2.53999996
   21.05638885  116.25399780    2.71000004    2.51999998
   21.05972099  124.54399872    2.71000004    2.53999996
   21.06555557  124.54399872    2.71000004    2.53999996
   21.06972313  130.97399902    2.73000002    2.53999996
   21.07305717  125.20400238    2.71000004    2.53999996
   21.07611275  118.37599945    2.73000002    2.53999996
   21.07944489  126.09200287    2.73000002    2.53999996
   21.08277893  124.81400299    2.75000000    2.53999996
   21.08583450  130.72200012    2.78999996    2.53999996
   21.08916664  125.45400238    3.05999994    2.53999996
   21.09222221  138.90499878    3.76999998    2.53999996
   21.09555626  127.36599731    4.69999981    2.53999996
   21.09889030  127.17600250    4.90999985    2.53999996
   21.11750031  116.83499908    4.90999985    2.55999994
   21.12166595  116.83499908    4.90999985    2.55999994
   21.12583351  122.83100128    4.90999985    2.57999992
   21.12916756  130.25599670    4.90999985    2.55999994
   21.13249969  135.22300720    4.90999985    2.55999994
   21.13555527  117.65699768    4.90999985    2.55999994
   21.13888931  126.57099915    4.90999985    2.55999994
   21.14194489  119.79000092    4.90999985    2.55999994
   21.14527702  124.00399780    4.90999985    2.53999996
   21.14861107  119.61699677    4.90999985    2.55999994
   21.15083313  127.90799713    4.90999985    2.53999996
   21.15222168  122.17099762    4.90999985    2.53999996
   21.15527725  126.23300171    4.90999985    2.51999998
   21.15861130  114.95899963    4.90999985    2.53999996
   21.16472244  114.95899963    4.90999985    2.53999996
   21.16888809  136.46400452    4.90999985    2.53999996
   21.17194366  133.86700439    4.90999985    2.55999994
   21.17527771  131.48800659    4.90999985    2.53999996
   21.17833328  130.61099243    4.90999985    2.53999996
   21.18166542  124.31800079    4.90999985    2.53999996
   21.18416595  119.88300323    4.90999985    2.53999996
   21.18527603  116.41999817    4.90999985    2.53999996
   21.18833160  123.59899902    4.19999981    2.51999998
   21.19166565  126.80699921    3.84999990    2.51999998
   21.19499969  112.02400208    3.82999992    2.51999998
   21.19805527  114.54699707    3.76999998    2.51999998
   21.20138931  126.32399750    3.61999989    2.50000000
   21.20750046  126.32399750    3.26999998    2.51999998
   21.21166801  131.36599731    3.14000010    2.51999998
   21.21472359  120.40399933    3.03999996    2.51999998
   21.21750069  122.85900116    2.98000002    2.50000000
   21.21861076  123.00099945    2.98000002    2.50000000
   21.22194481  123.32800293    2.98000002    2.50000000
   21.22500038  115.81099701    3.53999996    2.50000000
   21.22833443  116.24900055    4.90999985    2.50000000
   21.23166656  144.15100098    4.90999985    2.50000000
   21.23472214  152.89100647    4.90999985    2.42000008
   21.23805618  125.94300079    4.90999985    2.32999992
   21.24111176  101.66899872    4.90999985    2.15000010
   21.24444389  103.90699768    4.90999985    1.58000004
   21.25027847  103.90699768    4.90999985    0.79000002
   21.25444412   -1.00000000    4.90999985    0.36000001
   21.25777817   -1.00000000    4.90999985    0.11000000
   21.26083374   -1.00000000    4.90999985    0.01000000
   21.26416588   -1.00000000    4.90999985    0.01000000
   21.26749992   -1.00000000    4.90999985    0.01000000
   21.27055550   -1.00000000    4.90999985    0.01000000
   21.27388954   -1.00000000    4.90999985    0.01000000
   21.27694511   -1.00000000    4.90999985    0.01000000
   21.28027725   -1.00000000    4.90999985    0.01000000
   21.28361130   -1.00000000    4.90999985    0.01000000
   21.28722191   -1.00000000    4.90999985    0.01000000
   21.29722214   -1.00000000    4.90999985    0.01000000
   21.30055428   -1.00000000    4.90999985    0.01000000
