    HOUR (UT)   FLARE FACTOR    SKY TESTER    SUN TESTER
   11.19166660   -1.00000000   -1.00000000   -1.00000000
   11.21833324  158.68400574    4.90999985    1.55999994
   11.22416592  169.68299866    4.90999985    1.58000004
   11.22722149  160.48500061    4.90999985    1.58000004
   11.23055553  163.36500549    4.90999985    1.60000002
   11.23388958  142.35400391    4.90999985    1.60000002
   11.23694515  142.39300537    4.90999985    1.60000002
   11.24027824  165.52400208    4.90999985    1.60000002
   11.24444485  165.52400208    4.90999985    1.61000001
   11.24861145  141.03599548    4.90999985    1.61000001
   11.25166702  175.05599976    4.90999985    1.61000001
   11.25500011  154.27600098    4.90999985    1.63000000
   11.25749969  146.29100037    4.90999985    1.63000000
   11.25861073  151.90299988    4.90999985    1.63000000
   11.26194477  141.66400146    4.90999985    1.63000000
   11.26527786  146.52699280    4.90999985    1.64999998
   11.26833344  172.46400452    4.90999985    1.64999998
   11.27166653  141.98599243    4.90999985    1.64999998
   11.27472210  140.02600098    4.90999985    1.64999998
   11.27805519  143.94599915    4.90999985    1.66999996
   11.28138828  145.69000244    4.90999985    1.66999996
   11.28722286  145.69000244    4.90999985    1.66999996
   11.29138947  164.87800598    4.90999985    1.69000006
   11.29444504  147.32499695    4.90999985    1.69000006
   11.29777813  154.38800049    4.90999985    1.69000006
   11.30111122  150.46600342    4.90999985    1.71000004
   11.30416679  144.18400574    4.90999985    1.71000004
   11.30749989  137.39100647    4.90999985    1.71000004
   11.31083393  146.44999695    4.90999985    1.71000004
   11.31388950  136.26800537    4.90999985    1.73000002
   11.31722260  138.16600037    4.90999985    1.73000002
   11.32027817  138.24200439    4.90999985    1.73000002
   11.32361126  146.77699280    4.90999985    1.73000002
   11.32416630  136.76100159    4.90999985    1.73000002
   11.32999992  136.76100159    4.90999985    1.75000000
   11.33416653  137.07800293    4.90999985    1.76999998
   11.33749962  141.05799866    4.90999985    1.76999998
   11.34055519  147.33900452    4.90999985    1.76999998
   11.34388828  150.65400696    4.90999985    1.76999998
   11.34722233  140.44599915    4.90999985    1.76999998
   11.35027790  149.35200500    4.90999985    1.78999996
   11.35361195  141.39399719    4.90999985    1.78999996
   11.35694504  133.87300110    4.90999985    1.78999996
   11.35750008  150.47799683    4.90999985    1.78999996
   11.36055565  150.65800476    4.90999985    1.78999996
   11.36361122  152.44900513    4.90999985    1.78999996
   11.36694431  159.03100586    4.90999985    1.76999998
   11.37305546  159.03100586    4.90999985    1.78999996
   11.37694454  163.78599548    4.90999985    1.80999994
   11.38027763  137.75300598    4.90999985    1.80999994
   11.38361073  137.73199463    4.90999985    1.83000004
   11.38666630  143.45899963    4.90999985    1.85000002
   11.39000034  137.23800659    4.90999985    1.83000004
   11.39083290  145.58000183    4.90999985    1.85000002
   11.39361095  171.63699341    4.90999985    1.85000002
   11.39666653  152.05599976    4.90999985    1.85000002
   11.39999962  169.84800720    4.90999985    1.85000002
   11.40333271  150.10099792    4.90999985    1.85000002
   11.40638828  161.44900513    4.90999985    1.86000001
   11.40972137  154.71800232    4.90999985    1.85000002
   11.41583252  154.71800232    4.90999985    1.86000001
   11.42000008  142.51300049    4.90999985    1.86000001
   11.42305565  127.97000122    4.90999985    1.86000001
   11.42416668  135.41299438    4.90999985    1.88000000
   11.42694473  142.42999268    4.90999985    1.88000000
   11.43000031  139.65600586    4.90999985    1.88000000
   11.43333340  150.26300049    4.90999985    1.88000000
   11.43666649  134.95300293    4.90999985    1.89999998
   11.43972206  156.01300049    4.90999985    1.89999998
   11.44305515  145.92100525    4.90999985    1.89999998
   11.44611073  136.63999939    4.90999985    1.91999996
   11.44944477  140.23199463    4.90999985    1.91999996
   11.45277786  148.98100281    4.90999985    1.91999996
   11.45861053  148.98100281    4.90999985    1.91999996
   11.46277714  148.89300537    4.90999985    1.94000006
   11.46611118  170.35400391    4.90999985    1.96000004
   11.46916580  155.27299500    4.90999985    1.94000006
   11.47249985  249.99400330    4.90999985    1.88000000
   11.47583294  245.79800415    4.90999985    1.76999998
   11.47888851  417.43301392    4.90999985    1.61000001
   11.48111057  157.37300110    4.90999985    1.48000002
   11.48111057  249.99400330    4.90999985    1.88000000
   11.48111057  245.79800415    4.90999985    1.76999998
   11.48138809  417.43301392    4.90999985    1.61000001
   11.48138809  136.63999939    4.90999985    1.91999996
   11.48138809  140.23199463    4.90999985    1.91999996
   11.48166656  148.98100281    4.90999985    1.91999996
   11.48166656  148.89300537    4.90999985    1.94000006
   11.48166656  170.35400391    4.90999985    1.96000004
   11.48194408  155.27299500    4.90999985    1.94000006
   11.48388958   -1.00000000    4.90999985    1.34000003
   11.48722267   23.57019997    4.90999985    1.28999996
   11.49027824   82.74729919    4.90999985    1.30999994
   11.49361134   88.43409729    4.90999985    1.33000004
   11.49666691   88.06610107    4.90999985    1.28999996
   11.50194454   88.06610107    4.90999985    1.39999998
   11.50583363  115.33799744    4.90999985    1.66999996
   11.50916672  156.38600159    4.90999985    1.86000001
   11.51249981  112.56800079    4.90999985    1.96000004
   11.51500034  128.14599609    4.90999985    1.98000002
   11.51611137  125.34200287    4.90999985    1.98000002
   11.51944447  169.71699524    4.90999985    2.00000000
   11.52250004  147.89599609    4.90999985    2.00000000
   11.52583313  153.47000122    4.90999985    1.96000004
   11.52916622  190.31399536    4.90999985    1.91999996
   11.53222179  179.47700500    4.90999985    1.86000001
   11.53555584  174.67799377    4.90999985    1.85000002
   11.53888893  164.74899292    4.90999985    1.83000004
   11.54472256  164.74899292    4.90999985    1.69000006
   11.54888916  146.25100708    4.90999985    1.66999996
   11.55194473  122.85299683    4.90999985    1.75000000
   11.55527782  157.05499268    4.90999985    1.85000002
   11.55833340  130.52499390    4.90999985    1.91999996
   11.56166649  137.16900635    4.90999985    1.96000004
   11.56500053  132.28500366    4.90999985    2.00000000
   11.56805515  161.81199646    4.90999985    2.01999998
   11.57138920  201.47799683    4.90999985    2.00000000
   11.57472229  223.36500549    4.90999985    1.89999998
   11.57777786  141.62800598    4.90999985    1.85000002
   11.58111095  162.55799866    4.90999985    1.80999994
   11.58166695  200.90899658    4.90999985    1.78999996
   11.58749962  200.90899658    4.90999985    1.83000004
   11.59166622  125.12400055    4.90999985    1.86000001
   11.59472179  163.82299805    4.90999985    1.88000000
   11.59805489  127.32399750    4.90999985    1.94000006
   11.60138893  213.51699829    4.90999985    1.88000000
   11.60444450  279.61898804    4.90999985    1.75000000
   11.60777855  133.50300598    4.90999985    1.66999996
   11.61111164  219.84700012    4.90999985    1.71000004
   11.61416721  211.54100037    4.90999985    1.64999998
   11.61500072  246.97099304    4.90999985    1.60000002
   11.61777782  121.98100281    4.90999985    1.51999998
   11.62111092  121.33999634    4.90999985    1.69000006
   11.62444496  130.44500732    4.90999985    1.96000004
   11.63027763  130.44500732    4.90999985    2.05999994
   11.63444424  158.66799927    4.90999985    2.05999994
   11.63777733  148.94999695    4.90999985    2.03999996
   11.64083290  157.72200012    4.90999985    2.01999998
   11.64416695  245.66099548    4.90999985    1.89999998
   11.64750004  135.85899353    4.90999985    1.75000000
   11.64833355  123.87300110    4.90999985    1.75000000
   11.65083313  136.69500732    4.90999985    1.76999998
   11.65416622  142.28999329    4.90999985    1.86000001
   11.65749931  126.99800110    4.90999985    1.91999996
   11.66055489  153.27200317    4.90999985    1.96000004
   11.66388893  237.41099548    4.90999985    1.88000000
   11.66722298  357.71499634    4.90999985    1.73000002
   11.67305565  357.71499634    4.90999985    1.85000002
   11.67722225  308.22198486    4.90999985    1.85000002
   11.68055630  111.64299774    4.90999985    1.69000006
   11.68166733  108.96499634    4.90999985    1.71000004
   11.68416691  125.31400299    4.90999985    1.85000002
   11.68750000  142.24499512    4.90999985    2.03999996
   11.69083309  129.98300171    4.90999985    2.07999992
   11.69388866  136.41700745    4.90999985    2.07999992
   11.69722271  142.47099304    4.90999985    2.09999990
   11.70055580  162.78300476    4.90999985    2.11999989
   11.70361137  135.81900024    4.90999985    2.11999989
   11.70694447  137.93899536    4.90999985    2.09999990
   11.71000004  149.31199646    4.90999985    2.11999989
   11.71611118  149.31199646    4.90999985    2.07999992
   11.71999931  170.96499634    4.90999985    2.07999992
   11.72333336  136.32400513    4.90999985    2.07999992
   11.72666645  200.00999451    4.90999985    2.07999992
   11.72972202  190.25000000    4.90999985    2.00000000
   11.73305511  161.93699646    4.90999985    1.98000002
   11.73638916  193.11900330    4.90999985    1.98000002
   11.73944473  199.66200256    4.90999985    1.94000006
   11.74277782  247.16999817    4.90999985    1.88000000
   11.74583340  186.50399780    4.90999985    1.80999994
   11.74833393  261.99600220    4.90999985    1.78999996
   11.74972248  290.16101074    4.90999985    1.76999998
   11.75277805  374.15499878    4.90999985    1.71000004
   11.75888920  374.15499878    4.90999985    1.50000000
   11.76305580  284.48098755    4.90999985    1.53999996
   11.76611137  393.98999023    4.90999985    1.60000002
   11.76944447  110.81800079    4.90999985    1.53999996
   11.77277756   86.37709808    4.90999985    1.44000006
   11.77583313   46.93679810    4.90999985    1.41999996
   11.77916622  114.00099945    4.90999985    1.46000004
   11.78166676   81.22350311    4.90999985    1.46000004
   11.78277779   34.70650101    4.90999985    1.44000006
   11.78583336   -1.00000000    4.90999985    1.26999998
   11.78916740   -1.00000000    4.90999985    1.11000001
   11.79222298   -1.00000000    4.90999985    1.01999998
   11.79555607   -1.00000000    4.90999985    1.09000003
   11.80166721   -1.00000000    4.90999985    1.26999998
   11.80583382   -1.00000000    4.90999985    1.26999998
   11.80916691   -1.00000000    4.90999985    1.33000004
   11.81222248   -1.00000000    4.90999985    1.34000003
   11.81500053   -1.00000000   -1.00000000   -1.00000000
   11.81583309   23.57019997    4.90999985    1.38000000
   11.81916618   47.65200043    4.90999985    1.39999998
   11.82250023   91.88069916    4.90999985    1.44000006
   11.82555580  314.89001465    4.90999985    1.53999996
   11.82888889  104.60199738    4.90999985    1.55999994
   11.83222198  309.95700073    4.90999985    1.50000000
   11.83527756  186.47999573    4.90999985    1.53999996
   11.83861065  657.51702881    4.90999985    1.58000004
   11.84055519  388.86300659    4.90999985    1.60000002
   11.84194374  435.66000366    4.90999985    1.61000001
   11.84333324  506.48800659    4.90999985    1.63000000
   11.84472179  342.85900879    4.90999985    1.64999998
   11.84472179  309.95700073    4.90999985    1.50000000
   11.84499931  186.47999573    4.90999985    1.53999996
   11.84499931  657.51702881    4.90999985    1.58000004
   11.84499931   -1.00000000    4.90999985    1.34000003
   11.84527779   23.57019997    4.90999985    1.38000000
   11.84527779   47.65200043    4.90999985    1.39999998
   11.84527779   91.88069916    4.90999985    1.44000006
   11.84555531  314.89001465    4.90999985    1.53999996
   11.84555531  104.60199738    4.90999985    1.55999994
   11.84611034  369.84201050    4.90999985    1.66999996
   11.84944439  283.81298828    4.90999985    1.69000006
   11.85277843  229.44500732    4.90999985    1.75000000
   11.85583401  295.18600464    4.90999985    1.78999996
   11.85916710  315.94198608    4.90999985    1.76999998
   11.86555576  315.94198608    4.90999985    1.78999996
   11.86972237  344.47000122    4.90999985    1.75000000
   11.87277794  333.97399902    4.90999985    1.75000000
   11.87611103  429.02200317    4.90999985    1.78999996
   11.87805557  452.65301514    4.90999985    1.75000000
   11.87944412  420.57400513    4.90999985    1.73000002
   11.88083363  370.08700562    4.90999985    1.75000000
   11.88222218  358.29699707    4.90999985    1.73000002
   11.88361073  401.85598755    4.90999985    1.75000000
   11.88500023  356.98400879    4.90999985    1.75000000
   11.88638878  338.49700928    4.90999985    1.76999998
   11.88638878  369.84201050    4.90999985    1.66999996
   11.88666630  283.81298828    4.90999985    1.69000006
   11.88666630  229.44500732    4.90999985    1.75000000
   11.88666630  295.18600464    4.90999985    1.78999996
   11.88694477  315.94198608    4.90999985    1.76999998
   11.88694477  344.47000122    4.90999985    1.75000000
   11.88722229  333.97399902    4.90999985    1.75000000
   11.88722229  429.02200317    4.90999985    1.78999996
   11.88777733  399.82901001    4.90999985    1.76999998
   11.89111137  347.24099731    4.90999985    1.76999998
   11.89416695  362.26501465    4.90999985    1.73000002
   11.89750004  346.59600830    4.90999985    1.75000000
   11.90083313  270.50698853    4.90999985    1.78999996
   11.90722179  270.50698853    4.90999985    1.85000002
   11.91138840  266.98098755    4.90999985    1.86000001
   11.91472149  290.51000977    4.90999985    1.86000001
   11.91777802  317.11801147    4.90999985    1.86000001
   11.92027855  382.80899048    4.90999985    1.85000002
   11.92166710  367.32598877    4.90999985    1.85000002
   11.92472267  448.55300903    4.90999985    1.78999996
   11.92694473  485.20001221    4.90999985    1.75000000
   11.92805576  633.83697510    4.90999985    1.71000004
   11.92944431  537.43798828    4.90999985    1.66999996
   11.93083382  448.56500244    4.90999985    1.64999998
   11.93222237  384.83999634    4.90999985    1.61000001
   11.93361092  180.66700745    4.90999985    1.61000001
   11.93388939  448.55300903    4.90999985    1.78999996
   11.93388939  347.24099731    4.90999985    1.76999998
   11.93388939  362.26501465    4.90999985    1.73000002
   11.93416691  346.59600830    4.90999985    1.75000000
   11.93416691  270.50698853    4.90999985    1.78999996
   11.93444443  266.98098755    4.90999985    1.86000001
   11.93444443  290.51000977    4.90999985    1.86000001
   11.93444443  317.11801147    4.90999985    1.86000001
   11.93472195  367.32598877    4.90999985    1.85000002
   11.93527794  110.26399994    4.90999985    1.58000004
   11.93833351  108.31999969    4.90999985    1.51999998
   11.94166660  105.65899658    4.90999985    1.51999998
   11.94499969  104.73699951    4.90999985    1.51999998
   11.94805527  109.98400116    4.90999985    1.51999998
   11.95444393  109.98400116    4.90999985    1.51999998
   11.95861053   88.83090210    4.90999985    1.48000002
   11.96194458  106.94400024    4.90999985    1.48000002
   11.96500015   81.20140076    4.90999985    1.50000000
   11.96749973  101.29100037    4.90999985    1.50000000
   11.96888828   94.13749695    4.90999985    1.50000000
   11.97222137  245.33599854    4.90999985    1.48000002
   11.97527695  160.19700623    4.90999985    1.53999996
   11.97861099  243.27600098    4.90999985    1.58000004
   11.98166656  522.59997559    4.90999985    1.61000001
   11.98388958  513.86700439    4.90999985    1.63000000
   11.98500061  493.72900391    4.90999985    1.64999998
   11.98638916  525.41400146    4.90999985    1.64999998
   11.98777771  516.94799805    4.90999985    1.66999996
   11.98916721  509.43399048    4.90999985    1.64999998
   11.99055576  431.35900879    4.90999985    1.64999998
   11.99194431  464.05499268    4.90999985    1.66999996
   11.99333382  433.05300903    4.90999985    1.69000006
   11.99472237  412.40798950    4.90999985    1.69000006
   11.99611092  341.32101440    4.90999985    1.71000004
   11.99638939  245.33599854    4.90999985    1.48000002
   11.99638939  160.19700623    4.90999985    1.53999996
   11.99666691  243.27600098    4.90999985    1.58000004
   11.99666691  522.59997559    4.90999985    1.61000001
   11.99666691  109.98400116    4.90999985    1.51999998
   11.99694443   88.83090210    4.90999985    1.48000002
   11.99694443  106.94400024    4.90999985    1.48000002
   11.99694443   81.20140076    4.90999985    1.50000000
   11.99722290   94.13749695    4.90999985    1.50000000
   11.99777794  425.42498779    4.90999985    1.73000002
   11.99972248  342.73599243    4.90999985    1.75000000
   12.00166702  344.79598999    4.90999985    1.76999998
   12.00500011  235.80099487    4.90999985    1.80999994
   12.00833321  206.79100037    4.90999985    1.85000002
   12.01138878  237.50700378    4.90999985    1.86000001
   12.01472187  230.04600525    4.90999985    1.86000001
   12.02055550  230.04600525    4.90999985    1.80999994
   12.02472210  260.70700073    4.90999985    1.85000002
   12.02805519  212.83799744    4.90999985    1.85000002
   12.03111076  239.21299744    4.90999985    1.88000000
   12.03361130  254.25900269    4.90999985    1.88000000
   12.03500080  308.64801025    4.90999985    1.88000000
   12.03805637  283.80499268    4.90999985    1.85000002
   12.04138947  257.61999512    4.90999985    1.85000002
   12.04472256  256.72000122    4.90999985    1.86000001
   12.04777813  274.72500610    4.90999985    1.88000000
   12.05111122  276.68600464    4.90999985    1.86000001
   12.05444431  257.88900757    4.90999985    1.86000001
   12.05749989  240.18200684    4.90999985    1.86000001
   12.06333351  240.18200684    4.90999985    1.91999996
   12.06750011  285.21899414    4.90999985    1.89999998
   12.07083321  221.46899414    4.90999985    1.85000002
   12.07416630  352.49301147    4.90999985    1.83000004
   12.07722187  245.62600708    4.90999985    1.71000004
   12.08055592  397.32598877    4.90999985    1.78999996
   12.08388901  142.17900085    4.90999985    1.69000006
   12.08694458  216.18200684    4.90999985    1.85000002
   12.09027767  170.30299377    4.90999985    1.89999998
   12.09333324  212.77400208    4.90999985    1.98000002
   12.09666634  221.33799744    4.90999985    2.09999990
   12.10000038  204.05599976    4.90999985    2.07999992
   12.10055637  189.33200073    4.90999985    2.07999992
   12.10638905  189.33200073    4.90999985    2.05999994
   12.11055565  249.12600708    4.90999985    1.94000006
   12.11361122  311.98098755    4.90999985    1.88000000
   12.11694431  390.18499756    4.90999985    1.75000000
   12.11999989  338.36199951    4.90999985    1.69000006
   12.12333393  479.50698853    4.90999985    1.71000004
   12.12527752  517.34802246    4.90999985    1.71000004
   12.12666702  412.04000854    4.90999985    1.69000006
   12.12805557  360.01699829    4.90999985    1.66999996
   12.12944412  428.50399780    4.90999985    1.64999998
   12.13083363  380.13299561    4.90999985    1.63000000
   12.13222218  321.00000000    4.90999985    1.64999998
   12.13222218  249.12600708    4.90999985    1.94000006
   12.13249969  311.98098755    4.90999985    1.88000000
   12.13249969  390.18499756    4.90999985    1.75000000
   12.13277817  338.36199951    4.90999985    1.69000006
   12.13277817  479.50698853    4.90999985    1.71000004
   12.13277817  170.30299377    4.90999985    1.89999998
   12.13305569  212.77400208    4.90999985    1.98000002
   12.13305569  221.33799744    4.90999985    2.09999990
   12.13305569  204.05599976    4.90999985    2.07999992
   12.13361073  106.29399872    4.90999985    1.64999998
   12.13694477  114.64700317    4.90999985    1.51999998
   12.14027786   80.03769684    4.90999985    1.55999994
   12.14333344   66.13739777    4.90999985    1.48000002
   12.14666653   -1.00000000    4.90999985    1.46000004
   12.15305519   -1.00000000    4.90999985    1.41999996
   12.15722179   -1.00000000    4.90999985    1.41999996
   12.16055489   -1.00000000    4.90999985    1.38000000
   12.16361046   38.88890076    4.90999985    1.41999996
   12.16722298   -1.00000000    4.90999985    1.38000000
   12.17055607   -1.00000000    4.90999985    1.38000000
   12.17388916   -1.00000000    4.90999985    1.36000001
   12.17694473   -1.00000000    4.90999985    1.38000000
   12.18027782   -1.00000000   -1.00000000   -1.00000000
   12.18333340   23.57019997    4.90999985    1.41999996
   12.18666649   -1.00000000    4.90999985    1.38000000
   12.19000053   -1.00000000    4.90999985    1.38000000
   12.19583321   -1.00000000    4.90999985    1.36000001
   12.19999981   23.57019997    4.90999985    1.39999998
   12.20333290   -1.00000000    4.90999985    1.39999998
   12.20638847   -1.00000000    4.90999985    1.33000004
   12.20972157   -1.00000000    4.90999985    1.33000004
   12.21305561   -1.00000000    4.90999985    1.34000003
   12.21611118   -1.00000000    4.90999985    1.36000001
   12.21944427   -1.00000000   -1.00000000   -1.00000000
   12.22249985   -1.00000000    4.90999985    1.39999998
   12.24194431   82.32790375    4.90999985    1.55999994
   12.24611092   82.32790375    4.90999985    1.55999994
   12.25027752   79.12930298    4.90999985    1.53999996
   12.25361156   -1.00000000   -1.00000000   -1.00000000
   12.25666714   45.57249832    4.90999985    1.48000002
   12.26000023   59.46929932    4.90999985    1.51999998
   12.26333332   56.22529984    4.90999985    1.50000000
   12.26638889   -1.00000000    4.90999985    1.46000004
   12.26972198   -1.00000000    4.90999985    1.38000000
   12.27277756   -1.00000000    4.90999985    1.36000001
   12.27638817   -1.00000000    4.90999985    1.39999998
   12.27972221   -1.00000000    4.90999985    1.39999998
   12.29138947   -1.00000000    0.00000000    0.00000000
   12.29555607   -1.00000000    4.90999985    1.34000003
   12.29972267   -1.00000000    4.90999985    1.30999994
   12.30277824   -1.00000000    4.90999985    1.26999998
   12.30611134   -1.00000000    4.90999985    1.30999994
   12.30972195   -1.00000000    4.90999985    1.26999998
   12.31277752   -1.00000000    4.90999985    1.41999996
   12.31611156   -1.00000000    4.90999985    1.33000004
   12.31944466   -1.00000000    4.90999985    1.38000000
   12.32250023   -1.00000000    4.90999985    1.41999996
   12.32583332   -1.00000000    4.90999985    1.48000002
   12.32888889   52.96469879    4.90999985    1.50000000
   12.33222198   81.95749664    4.90999985    1.51999998
   12.33833313   81.95749664    4.90999985    1.51999998
   12.34249973   66.84649658    4.90999985    1.51999998
   12.34555531   50.35950089    4.90999985    1.51999998
   12.34888840   70.43160248    4.90999985    1.48000002
   12.35222244  112.47499847    4.90999985    1.51999998
   12.35527802   89.15370178    4.90999985    1.60000002
   12.35861111   75.08879852    4.90999985    1.58000004
   12.36166668   23.57019997    4.90999985    1.50000000
   12.36500072   44.83319855    4.90999985    1.50000000
   12.36833382   -1.00000000    4.90999985    1.48000002
   12.37138939   64.67880249    4.90999985    1.51999998
   12.37472248   -1.00000000   -1.00000000   -1.00000000
   12.38111115   -1.00000000    4.90999985    1.46000004
   12.38527775   88.41790009    4.90999985    1.60000002
   12.38861084   56.61180115    4.90999985    1.48000002
   12.39166641  152.32400513    4.90999985    1.53999996
   12.39499950  149.07299805    4.90999985    1.60000002
   12.39833355   78.86499786    4.90999985    1.58000004
   12.40138817  444.42498779    4.90999985    1.46000004
   12.40333271  443.14898682    4.90999985    1.69000006
   12.40472221  376.33999634    4.90999985    1.71000004
   12.40611076  429.98001099    4.90999985    1.69000006
   12.40749931  413.38000488    4.90999985    1.71000004
   12.40888882  361.69400024    4.90999985    1.75000000
   12.41027737  386.50900269    4.90999985    1.76999998
   12.41166592  431.64599609    4.90999985    1.78999996
   12.41305542  559.42700195    4.90999985    1.78999996
   12.41444397  351.65798950    4.90999985    1.75000000
   12.41583252  226.55499268    4.90999985    1.75000000
   12.41611099   -1.00000000    4.90999985    1.48000002
   12.41611099   64.67880249    4.90999985    1.51999998
   12.41611099   -1.00000000   -1.00000000   -1.00000000
   12.41638851   88.41790009    4.90999985    1.60000002
   12.41638851   56.61180115    4.90999985    1.48000002
   12.41638851  152.32400513    4.90999985    1.53999996
   12.41666698  149.07299805    4.90999985    1.60000002
   12.41666698   78.86499786    4.90999985    1.58000004
   12.41666698  444.42498779    4.90999985    1.46000004
   12.41750050  342.93798828    4.90999985    1.76999998
   12.42055607  236.46400452    4.90999985    1.83000004
   12.42388916  408.75299072    4.90999985    1.80999994
   12.42583370  335.50900269    4.90999985    1.76999998
   12.42611122  342.93798828    4.90999985    1.76999998
   12.42611122  236.46400452    4.90999985    1.83000004
   12.42611122  408.75299072    4.90999985    1.80999994
   12.42777824  386.49099731    4.90999985    1.73000002
   12.43111134  444.93798828    4.90999985    1.71000004
   12.43305588  453.41198730    4.90999985    1.66999996
   12.43444443  377.08999634    4.90999985    1.66999996
   12.43583298  375.77899170    4.90999985    1.69000006
   12.43722248  118.42700195    4.90999985    1.71000004
   12.43722248  386.49099731    4.90999985    1.73000002
   12.43750000  444.93798828    4.90999985    1.71000004
   12.43805599   62.07889938    4.90999985    1.71000004
   12.44111156   -1.00000000    4.90999985    1.41999996
   12.44444466   -1.00000000    4.90999985    1.36000001
   12.44777775   -1.00000000    4.90999985    1.30999994
   12.45083332  287.56698608    4.90999985    1.50000000
   12.45416641  399.22698975    4.90999985    1.69000006
   12.45833302  399.22698975    4.90999985    1.64999998
   12.46249962  212.95500183    4.90999985    1.64999998
   12.46555519   66.39459991    4.90999985    1.64999998
   12.46888828  201.70199585    4.90999985    1.60000002
   12.47111034  248.06599426    4.90999985    1.63000000
   12.47277737  168.71200562    4.90999985    1.64999998
   12.47583294   95.15570068    4.90999985    1.61000001
   12.47916603   82.18540192    4.90999985    1.60000002
   12.48222160   -1.00000000    4.90999985    1.48000002
   12.48555565   -1.00000000    4.90999985    1.30999994
   12.48888874   -1.00000000    4.90999985    1.21000004
   12.49194431   -1.00000000    4.90999985    1.16999996
   12.49527836   -1.00000000    4.90999985    0.56999999
   12.50111103   -1.00000000    4.90999985    1.28999996
   12.50527763   -1.00000000    4.90999985    1.25000000
   12.50861073   -1.00000000    4.90999985    1.05999994
   12.51166630   -1.00000000    4.90999985    1.34000003
   12.51500034   -1.00000000    4.90999985    1.44000006
   12.51833344   23.57019997    4.90999985    1.51999998
   12.52138901   -1.00000000    4.90999985    1.50000000
   12.52472210   -1.00000000    4.90999985    1.11000001
   12.52777767   -1.00000000    4.90999985    0.94000000
   12.53111076   -1.00000000    4.90999985    1.05999994
   12.53444481   -1.00000000    4.90999985    0.89999998
   12.53750038   -1.00000000    4.90999985    0.98000002
   12.54805565   -1.00000000    4.90999985    0.23000000
   12.55138874   -1.00000000    4.90999985    0.47999999
   12.55444431   -1.00000000    4.90999985    0.81999999
   12.55777836  264.63299561    4.90999985    1.36000001
   12.56083393  107.03399658    4.90999985    1.63000000
   12.56416702   36.70669937    4.90999985    1.53999996
   12.56750011   28.14800072    4.90999985    1.46000004
   12.57055569   48.64390182    4.90999985    1.53999996
   12.57138920   70.83499908    4.90999985    1.50000000
   12.57444477   -1.00000000    4.90999985    1.41999996
   12.57777786  132.57800293    4.90999985    1.64999998
   12.58083344   71.52290344    4.90999985    1.63000000
   12.58694458   71.52290344    4.90999985    1.53999996
   12.59111118   -1.00000000    4.90999985    1.48000002
   12.59416676   -1.00000000    4.90999985    1.39999998
   12.59749985   -1.00000000    4.90999985    1.38000000
   12.60083389   -1.00000000    4.90999985    1.41999996
   12.60388947   -1.00000000    4.90999985    1.28999996
   12.60750008   -1.00000000    4.90999985    1.33000004
   12.61055565   -1.00000000    4.90999985    1.41999996
   12.61388969   -1.00000000    4.90999985    1.53999996
   12.61694431   -1.00000000    4.90999985    1.48000002
   12.62027836   -1.00000000    4.90999985    1.34000003
   12.62361145   23.57019997    4.90999985    1.51999998
   12.62972260   23.57019997    4.90999985    1.63000000
   12.63388920  282.57299805    4.90999985    1.69000006
   12.63694477  353.20001221    4.90999985    1.73000002
   12.63805580  208.26300049    4.90999985    1.75000000
   12.64083290   93.64279938    4.90999985    1.63000000
   12.64416695   48.05310059    4.90999985    1.61000001
   12.64722252   -1.00000000    4.90999985    1.51999998
   12.65055561   -1.00000000    4.90999985    1.50000000
   12.65361118   -1.00000000    4.90999985    1.48000002
   12.65694427   23.57019997    4.90999985    1.51999998
   12.66027737   80.02320099    4.90999985    1.60000002
   12.66333294  118.03800201    4.90999985    1.60000002
   12.66666698   26.04759979    4.90999985    1.60000002
   12.67250061   26.04759979    4.90999985    1.55999994
   12.67666721   75.36299896    4.90999985    1.55999994
   12.68000031  281.20498657    4.90999985    1.66999996
   12.68305588  320.07699585    4.90999985    1.66999996
   12.68638897  356.84100342    4.90999985    1.69000006
   12.68972206  281.84698486    4.90999985    1.73000002
   12.69277763  278.90301514    4.90999985    1.71000004
   12.69611073  298.32901001    4.90999985    1.69000006
   12.69916630  360.96499634    4.90999985    1.71000004
   12.70249939  441.34698486    4.90999985    1.71000004
   12.70444393  312.20700073    4.90999985    1.73000002
   12.70472240  320.07699585    4.90999985    1.66999996
   12.70472240  356.84100342    4.90999985    1.69000006
   12.70499992  281.84698486    4.90999985    1.73000002
   12.70499992  278.90301514    4.90999985    1.71000004
   12.70499992  298.32901001    4.90999985    1.69000006
   12.70527744  360.96499634    4.90999985    1.71000004
   12.70527744  441.34698486    4.90999985    1.71000004
   12.70527744   75.36299896    4.90999985    1.55999994
   12.70555496  281.20498657    4.90999985    1.66999996
   12.70722198  331.58599854    4.90999985    1.75000000
   12.71027756  386.15701294    4.90999985    1.73000002
   12.71361065  252.23100281    4.90999985    1.71000004
   12.71694374  216.42300415    4.90999985    1.83000004
   12.71999931  192.46400452    4.90999985    1.91999996
   12.72527695  192.46400452    4.90999985    1.85000002
   12.72944355  323.14099121    4.90999985    1.80999994
   12.73277760  417.30499268    4.90999985    1.80999994
   12.73472214  419.20700073    4.90999985    1.78999996
   12.73611164  457.87200928    4.90999985    1.76999998
   12.73750019  432.63299561    4.90999985    1.71000004
   12.73888874  412.59799194    4.90999985    1.71000004
   12.74027824  304.48999023    4.90999985    1.69000006
   12.74027824  331.58599854    4.90999985    1.75000000
   12.74055576  386.15701294    4.90999985    1.73000002
   12.74055576  252.23100281    4.90999985    1.71000004
   12.74055576  216.42300415    4.90999985    1.83000004
   12.74083328  192.46400452    4.90999985    1.91999996
   12.74083328  323.14099121    4.90999985    1.80999994
   12.74083328  417.30499268    4.90999985    1.80999994
   12.74138927  340.39999390    4.90999985    1.69000006
   12.74472237  406.71398926    4.90999985    1.66999996
   12.74666691  688.96600342    4.90999985    1.69000006
   12.74805546  915.94000244    4.90999985    1.66999996
   12.74944496  965.81799316    4.90999985    1.69000006
   12.75083351  774.02001953    4.90999985    1.75000000
   12.75222206  485.40798950    4.90999985    1.73000002
   12.75361156  677.11199951    4.90999985    1.69000006
   12.75500011  592.77697754    4.90999985    1.69000006
   12.75638866  524.93298340    4.90999985    1.69000006
   12.75777817  315.73699951    4.90999985    1.69000006
   12.75805569  340.39999390    4.90999985    1.69000006
   12.75805569  406.71398926    4.90999985    1.66999996
   12.75861073  228.53500366    4.90999985    1.69000006
   12.76194477  352.17001343    4.90999985    1.64999998
   12.76500034  632.45898438    4.90999985    1.66999996
   12.76722240  633.90997314    4.90999985    1.69000006
   12.76833344  501.75299072    4.90999985    1.69000006
   12.76972198  297.23800659    4.90999985    1.66999996
   12.76999950  228.53500366    4.90999985    1.69000006
   12.76999950  352.17001343    4.90999985    1.64999998
   12.76999950  632.45898438    4.90999985    1.66999996
   12.77055550  370.98498535    4.90999985    1.66999996
   12.77388859  413.36499023    4.90999985    1.64999998
   12.77583313  390.32000732    4.90999985    1.66999996
   12.77722168  528.94897461    4.90999985    1.66999996
   12.77861118  650.67498779    4.90999985    1.66999996
   12.77999973  530.61700439    4.90999985    1.69000006
   12.78138828  413.23999023    4.90999985    1.69000006
   12.78277779  265.18600464    4.90999985    1.69000006
   12.78277779  370.98498535    4.90999985    1.66999996
   12.78305531  413.36499023    4.90999985    1.64999998
   12.78361130  388.09399414    4.90999985    1.66999996
   12.78666687  300.16000366    4.90999985    1.64999998
   12.79000092  422.33300781    4.90999985    1.66999996
   12.79194450  231.79499817    4.90999985    1.66999996
   12.79222298  388.09399414    4.90999985    1.66999996
   12.79222298  300.16000366    4.90999985    1.64999998
   12.79250050  422.33300781    4.90999985    1.66999996
   12.79444504  153.01199341    4.90999985    1.64999998
   12.79750061  135.35800171    4.90999985    1.61000001
   12.80083370  192.65499878    4.90999985    1.58000004
   12.80416679   95.98560333    4.90999985    1.63000000
   12.80722237  229.41700745    4.90999985    1.61000001
   12.81277752  229.41700745    4.90999985    1.63000000
   12.81694412  547.57202148    4.90999985    1.63000000
   12.81916618  632.83398438    4.90999985    1.69000006
   12.82027817  596.60302734    4.90999985    1.64999998
   12.82166672  661.80700684    4.90999985    1.71000004
   12.82305527  753.61700439    4.90999985    1.75000000
   12.82444477  698.42999268    4.90999985    1.73000002
   12.82583332  413.22000122    4.90999985    1.75000000
   12.82722187  119.64399719    4.90999985    1.73000002
   12.82750034  153.01199341    4.90999985    1.64999998
   12.82750034  135.35800171    4.90999985    1.61000001
   12.82777786  192.65499878    4.90999985    1.58000004
   12.82777786   95.98560333    4.90999985    1.63000000
   12.82777786  229.41700745    4.90999985    1.61000001
   12.82805538  547.57202148    4.90999985    1.63000000
   12.82861137  189.13499451    4.90999985    1.64999998
   12.83166695  585.53900146    4.90999985    1.73000002
   12.83388901  634.92297363    4.90999985    1.73000002
   12.83500004  525.40502930    4.90999985    1.71000004
   12.83638859  188.23599243    4.90999985    1.73000002
   12.83666611  189.13499451    4.90999985    1.64999998
   12.83666611  585.53900146    4.90999985    1.73000002
   12.83722210  209.96899414    4.90999985    1.73000002
   12.84055519  536.08599854    4.90999985    1.66999996
   12.84249973  555.23297119    4.90999985    1.69000006
   12.84388828  468.96200562    4.90999985    1.71000004
   12.84527779  185.74099731    4.90999985    1.71000004
   12.84527779  209.96899414    4.90999985    1.73000002
   12.84555531  536.08599854    4.90999985    1.66999996
   12.84611034  399.77700806    4.90999985    1.71000004
   12.84916592  162.07600403    4.90999985    1.71000004
   12.85249996  174.80999756    4.90999985    1.64999998
   12.85583401  387.25000000    4.90999985    1.66999996
   12.85888958  269.21099854    4.90999985    1.66999996
   12.86222267  480.54699707    4.90999985    1.69000006
   12.86416721  433.03900146    4.90999985    1.73000002
   12.86555576  460.69699097    4.90999985    1.73000002
   12.86694431  458.30398560    4.90999985    1.75000000
   12.86833382  334.84500122    4.90999985    1.73000002
   12.86833382  399.77700806    4.90999985    1.71000004
   12.86861134  162.07600403    4.90999985    1.71000004
   12.86861134  174.80999756    4.90999985    1.64999998
   12.86861134  387.25000000    4.90999985    1.66999996
   12.86888885  269.21099854    4.90999985    1.66999996
   12.86888885  480.54699707    4.90999985    1.69000006
   12.86944485  224.25000000    4.90999985    1.73000002
   12.87277794  141.02900696    4.90999985    1.69000006
   12.87583351   74.22989655    4.90999985    1.69000006
   12.87916660   23.57019997    4.90999985    1.63000000
   12.88222218   -1.00000000    4.90999985    1.51999998
   12.88916683   -1.00000000    4.90999985    1.51999998
   12.89333344   -1.00000000    4.90999985    1.58000004
   12.89638901   -1.00000000    4.90999985    1.38000000
   12.89972210   -1.00000000    4.90999985    1.53999996
   12.90333271   -1.00000000    4.90999985    1.58000004
   12.90666676   -1.00000000    4.90999985    1.46000004
   12.90972137   -1.00000000    4.90999985    1.46000004
   12.91305542   -1.00000000    4.90999985    1.69000006
   12.91888905   54.98920059    4.90999985    1.75000000
   12.92222214   98.88320160    4.90999985    1.76999998
   12.92527771  177.47200012    4.90999985    1.85000002
   12.93194485  177.47200012    4.90999985    1.89999998
   12.93611145  105.88500214    4.90999985    1.94000006
   12.93944454  111.01899719    4.90999985    1.91999996
   12.94250011   97.22029877    4.90999985    1.88000000
   12.94583321  175.77200317    4.90999985    1.94000006
   12.94916630  163.13299561    4.90999985    1.98000002
   12.95222187  147.00799561    4.90999985    2.00000000
   12.95555496  226.80400085    4.90999985    2.00000000
   12.95888901  218.32800293    4.90999985    2.07999992
   12.96194458  209.73800659    4.90999985    2.09999990
   12.96527767  203.11199951    4.90999985    2.07999992
   12.96833324  100.15399933    4.90999985    2.11999989
   12.96888828  124.02799988    4.90999985    2.11999989
   12.97472191  124.02799988    4.90999985    2.05999994
   12.97888851  106.65200043    4.90999985    2.15000010
   12.98222160   92.50370026    4.90999985    2.15000010
   12.98527813   57.10609818    4.90999985    2.15000010
   12.98861122   54.42839813    4.90999985    2.13000011
   12.99194431   78.60160065    4.90999985    2.11999989
   12.99499989   -1.00000000   -1.00000000   -1.00000000
   12.99833393   -1.00000000    4.90999985    2.11999989
   13.00166702   -1.00000000   -1.00000000   -1.00000000
   13.00527763   -1.00000000    4.90999985    2.09999990
   13.00833321   -1.00000000    4.90999985    2.13000011
   13.01166630   -1.00000000    4.90999985    2.15000010
   13.01749992   -1.00000000    4.90999985    2.13000011
   13.02166653   -1.00000000    4.90999985    2.15000010
   13.02499962   -1.00000000    4.90999985    2.15000010
   13.02833271   -1.00000000    4.90999985    2.19000006
   13.03138828   -1.00000000    4.90999985    2.13000011
   13.03472233   -1.00000000    4.90999985    2.11999989
   13.03833389   -1.00000000    4.90999985    2.15000010
   13.04138947   -1.00000000    4.90999985    2.11999989
   13.04472256   -1.00000000    4.90999985    2.13000011
   13.04777813   -1.00000000    4.90999985    2.11999989
   13.05111122   -1.00000000    4.90999985    2.11999989
   13.05444431   -1.00000000    4.90999985    2.05999994
   13.06444454   -1.00000000    4.90999985    2.07999992
   13.06777763   -1.00000000    4.90999985    2.03999996
   13.07138920   -1.00000000    4.90999985    2.00000000
   13.07444477   -1.00000000    4.90999985    2.00000000
   13.07777786   -1.00000000    4.90999985    2.00000000
   13.08111095   -1.00000000    4.90999985    1.94000006
   13.08416653   -1.00000000    4.90999985    1.89999998
   13.08749962   -1.00000000    4.90999985    1.89999998
   13.09055519   -1.00000000    4.90999985    1.86000001
   13.09388828   -1.00000000    4.90999985    1.85000002
   13.09722233   -1.00000000    4.90999985    1.80999994
   13.10722256   -1.00000000    4.90999985    1.83000004
   13.11055565   -1.00000000    4.90999985    1.86000001
   13.11388969   -1.00000000    4.90999985    1.85000002
   13.11777782   -1.00000000    4.90999985    1.85000002
   13.12083340   -1.00000000    4.90999985    1.89999998
   13.12416649   -1.00000000    4.90999985    1.89999998
   13.12750053   -1.00000000    4.90999985    1.85000002
   13.13055611   -1.00000000    4.90999985    1.86000001
   13.13388920   -1.00000000    4.90999985    1.89999998
   13.13749981   -1.00000000    4.90999985    1.89999998
   13.14055538   -1.00000000    4.90999985    1.96000004
   13.15999985  157.58399963    4.90999985    1.91999996
   13.16333294  176.23599243    4.90999985    1.98000002
   13.16666698  158.29299927    4.90999985    2.01999998
   13.16888905  160.60000610    4.90999985    1.98000002
   13.17000008  152.31900024    4.90999985    2.01999998
   13.17333412  158.05700684    4.90999985    1.98000002
   13.17750072  158.05700684    4.90999985    2.00000000
   13.18166733  147.27999878    4.90999985    1.98000002
   13.18472195  155.51199341    4.90999985    2.01999998
   13.18805599  137.56199646    4.90999985    2.05999994
   13.19138908  147.27499390    4.90999985    2.07999992
   13.19444466  140.94599915    4.90999985    2.03999996
   13.19777775  134.20300293    4.90999985    2.09999990
   13.20111084  151.92599487    4.90999985    2.09999990
   13.20222187  139.01699829    4.90999985    2.07999992
   13.20444393  127.63899994    4.90999985    2.05999994
   13.20777798  127.92700195    4.90999985    2.11999989
   13.21111107  129.30299377    4.90999985    2.17000008
   13.21416664  118.35199738    4.90999985    2.17000008
   13.22027779  118.35199738    4.90999985    2.28999996
   13.22444439  126.32900238    4.90999985    2.25000000
   13.22777748  114.57099915    4.90999985    2.23000002
   13.23083305  133.66499329    4.90999985    2.21000004
   13.23416710  127.21700287    4.90999985    2.19000006
   13.23555565  123.83599854    4.90999985    2.21000004
   13.23777771  128.67700195    4.90999985    2.21000004
   13.24111176  125.42099762    4.90999985    2.21000004
   13.24444485  122.33699799    4.90999985    2.17000008
   13.24750042  131.84899902    4.90999985    2.21000004
   13.25083351  128.39399719    4.90999985    2.23000002
   13.25388908  120.60700226    4.90999985    2.28999996
   13.25722218  127.45400238    4.90999985    2.34999990
   13.26305580  127.45400238    4.90999985    2.30999994
   13.26722240  119.53399658    4.90999985    2.34999990
   13.26888847  123.61499786    4.90999985    2.32999992
   13.27083302  124.06999969    4.90999985    2.34999990
   13.27416611  125.41300201    4.90999985    2.36999989
   13.27750015  118.05999756    4.90999985    2.30999994
   13.28055573  129.91400146    4.90999985    2.39000010
   13.28388977  116.81300354    4.90999985    2.39000010
   13.28694534  117.52100372    4.90999985    2.40000010
   13.29027843  114.09100342    4.90999985    2.34999990
   13.29361153  113.72299957    4.90999985    2.46000004
   13.29666710  118.47299957    4.90999985    2.50000000
   13.30000019  119.12200165    4.90999985    2.50000000
   13.30222225  119.11299896    4.90999985    2.42000008
   13.30638885  119.11299896    4.90999985    2.09999990
   13.31055546  122.26300049    4.90999985    2.23000002
   13.31361103  141.46000671    4.90999985    2.15000010
   13.31722260  112.59799957    4.90999985    2.00000000
   13.32055569  134.53500366    4.90999985    2.30999994
   13.32361126  126.63999939    4.90999985    2.09999990
   13.32694435  151.32000732    4.90999985    1.94000006
   13.33027744  113.08699799    4.90999985    2.26999998
   13.33333302  144.75300598    4.90999985    2.50000000
   13.33555508  123.69400024    4.90999985    2.13000011
   13.33722210  148.46000671    4.90999985    2.23000002
   13.34027767  110.63600159    4.90999985    1.94000006
   13.34361076  105.90399933    4.90999985    2.40000010
   13.34916592  105.90399933    4.90999985    2.59999990
   13.35333347  109.76899719    4.90999985    2.64000010
   13.35666752  108.41600037    4.90999985    2.64000010
   13.35972214  115.80100250    4.90999985    2.48000002
   13.36305618  110.03500366    4.90999985    2.55999994
   13.36611176  111.19300079    4.90999985    2.66000009
   13.36888885  114.68099976    4.90999985    2.67000008
   13.36972237  116.27300262    4.90999985    2.66000009
   13.37305546   95.13150024    4.90999985    2.64000010
   13.37638855  111.52500153    4.90999985    2.66000009
   13.37972260  109.59700012    4.90999985    2.66000009
   13.38277817  107.53500366    4.90999985    2.66000009
   13.38611126  114.84799957    4.90999985    2.66000009
   13.39194393  114.84799957    4.90999985    2.61999989
   13.39611053  102.54199982    4.90999985    2.67000008
   13.39944458  104.68000031    4.90999985    2.66000009
   13.40222168  101.15599823    4.90999985    2.66000009
   13.40333271  106.30000305    4.90999985    2.66000009
   13.40638828  108.65899658    4.90999985    2.66000009
   13.40972137  111.48600006    4.90999985    2.66000009
   13.41305542  114.40100098    4.90999985    2.66000009
   13.41611099  107.00399780    4.90999985    2.67000008
   13.41944504  122.04299927    4.90999985    2.69000006
   13.42250061  104.26899719    4.90999985    2.61999989
   13.42583370  110.17199707    4.90999985    2.67000008
   13.42916679  105.41300201    4.90999985    2.67000008
   13.43500042  105.41300201    4.90999985    2.66000009
   13.43916702  105.69499969    4.90999985    2.67000008
   13.44222260   97.50990295    4.90999985    2.67000008
   13.44555569  112.08599854    4.90999985    2.69000006
   13.44861126  104.69100189    4.90999985    2.69000006
   13.45194435  107.76399994    4.90999985    2.67000008
   13.45527744  102.59400177    4.90999985    2.67000008
   13.45833302  118.57299805    4.90999985    2.67000008
   13.46166611  111.59300232    4.90999985    2.64000010
   13.46500015  128.06700134    4.90999985    2.32999992
   13.46805477  139.84700012    4.90999985    2.30999994
   13.46999931  152.03199768    4.90999985    2.23000002
   13.47194386  154.74400330    4.90999985    2.13000011
   13.47777748  154.74400330    4.90999985    2.09999990
   13.48194408  140.75999451    4.90999985    2.28999996
   13.48500061  177.83999634    4.90999985    2.30999994
   13.48833370  115.58399963    4.90999985    1.58000004
   13.49166679  114.49700165    4.90999985    2.44000006
   13.49472237  119.22499847    4.90999985    2.53999996
   13.49805546   99.75460052    4.90999985    2.46000004
   13.50138855  112.72599792    4.90999985    2.57999992
   13.50333309  115.05999756    4.90999985    2.57999992
   13.50500011  113.59899902    4.90999985    2.59999990
   13.50805569  113.86499786    4.90999985    2.61999989
   13.51138878  107.70999908    4.90999985    2.61999989
   13.51444435  125.37200165    4.90999985    2.34999990
   13.52055550  125.37200165    4.90999985    2.46000004
   13.52472210  153.52200317    4.90999985    2.32999992
   13.52805519  198.76899719    4.90999985    2.15000010
   13.53111076  121.08200073    4.90999985    2.07999992
   13.53444481  258.93301392    4.90999985    2.42000008
   13.53805637   -1.00000000    4.90999985    1.71000004
   13.54138947  114.98100281    4.90999985    1.34000003
   13.54444504  127.89299774    4.90999985    2.46000004
   13.54777813  131.26800537    4.90999985    2.32999992
   13.55111122  124.66600037    4.90999985    2.23000002
   13.55416679  245.38900757    4.90999985    2.48000002
   13.55749989   -1.00000000    4.90999985    1.61000001
   13.56361103   -1.00000000    4.90999985    1.48000002
   13.56750011  133.19599915    4.90999985    2.15000010
   13.57027817  186.18400574    4.90999985    2.13000011
   13.57111073  136.31399536    4.90999985    2.07999992
   13.57444477  208.02499390    4.90999985    1.89999998
   13.57777786  148.02400208    4.90999985    2.13000011
   13.58083344  139.82299805    4.90999985    2.23000002
   13.58416653  153.57000732    4.90999985    2.07999992
   13.58749962  320.22299194    4.90999985    2.05999994
   13.59055519   -1.00000000    4.90999985    1.71000004
   13.59388828  187.66299438    4.90999985    1.19000006
   13.59694386  320.64199829    4.90999985    1.94000006
   13.60027790   -1.00000000   -1.00000000   -1.00000000
   13.60638905   -1.00000000   -1.00000000   -1.00000000
   13.61055565  125.57099915    4.90999985    2.01999998
   13.61361122  252.59700012    4.90999985    1.91999996
   13.61694431  212.76499939    4.90999985    1.78999996
   13.62027836  259.77499390    4.90999985    1.80999994
   13.62333393  153.44000244    4.90999985    2.23000002
   13.62666702  155.01400757    4.90999985    2.17000008
   13.62972260  147.79600525    4.90999985    2.48000002
   13.63305569  161.41799927    4.90999985    2.15000010
   13.63611126  120.86799622    4.90999985    1.44000006
   13.63972187  187.70300293    4.90999985    1.61000001
   13.64305496   -1.00000000    4.90999985    1.89999998
   13.65305519  222.49800110    4.90999985    1.63000000
   13.65638828   23.57019997    4.90999985    1.41999996
   13.65972137   -1.00000000    4.90999985    1.69000006
   13.66277695   -1.00000000    4.90999985    1.38000000
   13.66611099   -1.00000000    4.90999985    0.86000001
   13.66916656   -1.00000000    4.90999985    0.81999999
   13.67277813   -1.00000000    4.90999985    0.70999998
   13.67611122   -1.00000000    4.90999985    1.03999996
   13.67916679   -1.00000000    4.90999985    1.58000004
   13.68249989   -1.00000000    4.90999985    1.38000000
   13.68583298   -1.00000000    4.90999985    0.89999998
   13.69611073   -1.00000000    4.90999985    1.28999996
   13.69916630   -1.00000000    4.90999985    1.38000000
   13.70249939   -1.00000000    4.90999985    1.41999996
   13.70611095   -1.00000000    4.90999985    1.13000000
   13.70916653   -1.00000000    4.90999985    1.34000003
   13.71249962  208.22300720    4.90999985    1.76999998
   13.71583271  110.25099945    4.90999985    2.66000009
   13.71888828  114.26399994    4.90999985    2.73000002
   13.72222137  110.45300293    4.90999985    2.75000000
   13.72527695   98.07669830    4.90999985    2.34999990
   13.72861099  134.85099792    4.90999985    2.23000002
   13.73472214  134.85099792    4.90999985    2.07999992
   13.73888874  154.66900635    4.90999985    2.55999994
   13.74222279   89.07450104    4.90999985    2.09999990
   13.74527836  110.16699982    4.90999985    1.75000000
   13.74861145  116.61599731    4.90999985    2.53999996
   13.75166702  130.33900452    4.90999985    2.76999998
   13.75500011  136.73500061    4.90999985    2.25000000
   13.75833321  113.44300079    4.90999985    2.69000006
   13.76138878  115.83599854    4.90999985    2.75000000
   13.76472187  126.93199921    4.90999985    2.42000008
   13.76805496  240.77699280    4.90999985    2.32999992
   13.77055550  253.36500549    4.90999985    2.07999992
   13.77166653  143.94599915    4.90999985    2.26999998
   13.77750015  143.94599915    4.90999985    2.48000002
   13.78166676  124.79799652    4.90999985    2.64000010
   13.78500080  117.34200287    4.90999985    2.55999994
   13.78805637  115.45200348    4.90999985    2.48000002
   13.79138947  110.51499939    4.90999985    2.64000010
   13.79472256  111.10199738    4.90999985    2.73000002
   13.79777813  111.17800140    4.90999985    2.69000006
   13.80111122  116.19699860    4.90999985    2.53999996
   13.80416679  123.28399658    4.90999985    2.71000004
   13.80472279  132.39599609    4.90999985    2.69000006
   13.80805588  118.24099731    4.90999985    2.69000006
   13.81111145  133.80499268    4.90999985    2.53999996
   13.81444454  161.09599304    4.90999985    2.19000006
   13.82055569  161.09599304    4.90999985    2.05999994
   13.82444477  220.13299561    4.90999985    2.23000002
   13.82777786  123.49099731    4.90999985    2.23000002
   13.83111095  137.13200378    4.90999985    2.64000010
   13.83416653  122.06600189    4.90999985    2.61999989
   13.83749962  150.60099792    4.90999985    2.57999992
   13.83805561   -1.00000000    4.90999985    2.19000006
   13.84138870   -1.00000000    4.90999985    1.76999998
   13.84444427  117.30400085    4.90999985    1.28999996
   13.84777737  131.09899902    4.90999985    2.28999996
   13.85111141  102.39499664    4.90999985    2.59999990
   13.85416698  156.31199646    4.90999985    2.48000002
   13.85750008  114.24600220    4.90999985    2.32999992
   13.86333370  114.24600220    4.90999985    2.69000006
   13.86750031  118.73300171    4.90999985    2.01999998
   13.87083340  102.85600281    4.90999985    2.64000010
   13.87111092  110.15599823    4.90999985    2.64000010
   13.87444496  112.21900177    4.90999985    2.69000006
   13.87750053  105.22200012    4.90999985    2.67000008
   13.88083363  116.15499878    4.90999985    2.66000009
   13.88416672  116.58599854    4.90999985    2.64000010
   13.88722229  119.41999817    4.90999985    2.61999989
   13.89055538  115.35900116    4.90999985    2.55999994
   13.89361095  114.02600098    4.90999985    2.69000006
   13.89694405  108.14099884    4.90999985    2.73000002
   13.90027714  116.30599976    4.90999985    2.71000004
   13.90611076  116.30599976    4.90999985    2.39000010
   13.91027737   23.57019997    4.90999985    1.66999996
   13.91361046  195.95899963    4.90999985    1.91999996
   13.91666698   -1.00000000    4.90999985    1.26999998
   13.92000008   95.32170105    4.90999985    1.11000001
   13.92305565  155.17700195    4.90999985    2.69000006
   13.92638874  110.19100189    4.90999985    2.40000010
   13.92972279  111.35700226    4.90999985    2.75000000
   13.93277836  113.12000275    4.90999985    2.66000009
   13.93611145  106.63999939    4.90999985    2.61999989
   13.93750000  107.24199677    4.90999985    2.53999996
   13.93972206  117.68199921    4.90999985    2.73000002
   13.94305515  113.26599884    4.90999985    2.69000006
   13.94888878  113.26599884    4.90999985    2.71000004
   13.95305538  112.16200256    4.90999985    2.73000002
   13.95638847  112.34899902    4.90999985    2.69000006
   13.95944405  119.76799774    4.90999985    2.69000006
   13.96277714  117.53199768    4.90999985    2.69000006
   13.96611118  117.10199738    4.90999985    2.67000008
   13.96916580  117.03900146    4.90999985    2.57999992
   13.97083282  134.76400757    4.90999985    2.42000008
   13.97277737  109.59100342    4.90999985    2.55999994
   13.97611046  121.75900269    4.90999985    2.55999994
   13.97916603  117.28700256    4.90999985    2.51999998
   13.98249912  120.50800323    4.90999985    2.50000000
   13.98583317  127.14800262    4.90999985    2.50000000
   13.99194431  127.14800262    4.90999985    2.55999994
   13.99583340  119.22499847    4.90999985    2.55999994
   13.99916649  147.24899292    4.90999985    2.36999989
   14.00249958  117.22399902    4.90999985    2.13000011
   14.00416660  111.37100220    4.90999985    2.30999994
   14.00611115  112.80999756    4.90999985    2.39000010
   14.00944424  111.55799866    4.90999985    2.55999994
   14.01249981  122.82700348    4.90999985    2.59999990
   14.01583290  127.72299957    4.90999985    2.36999989
   14.01888847  109.59200287    4.90999985    2.46000004
   14.02222157  120.12100220    4.90999985    2.50000000
   14.02555561  115.59200287    4.90999985    2.44000006
   14.02861118  131.27299500    4.90999985    2.44000006
   14.03472233  131.27299500    4.90999985    2.17000008
   14.03888893  111.44599915    4.90999985    2.46000004
   14.04194450  115.62200165    4.90999985    2.42000008
   14.04527855  115.05699921    4.90999985    2.66000009
   14.04861164  121.51999664    4.90999985    2.66000009
   14.05166721  120.33000183    4.90999985    2.53999996
   14.05500031  114.61199951    4.90999985    2.53999996
   14.05805588  117.30000305    4.90999985    2.71000004
   14.06138897  110.53700256    4.90999985    2.69000006
   14.06472206  113.74700165    4.90999985    2.67000008
   14.06777763  113.13899994    4.90999985    2.67000008
   14.07083321  105.64600372    4.90999985    2.75000000
   14.07166672  111.36799622    4.90999985    2.75000000
   14.07750034  111.36799622    4.90999985    2.75000000
   14.08166695  107.92099762    4.90999985    2.75000000
   14.08500004  106.82700348    4.90999985    2.75000000
   14.08805561  112.92299652    4.90999985    2.75000000
   14.09138870  110.71299744    4.90999985    2.75000000
   14.09444427  110.77100372    4.90999985    2.75000000
   14.09777737  110.77700043    4.90999985    2.75000000
   14.10111141  101.67099762    4.90999985    2.76999998
   14.10416698  107.08300018    4.90999985    2.76999998
   14.10472298  114.56199646    4.90999985    2.75000000
   14.10805607  106.80500031    4.90999985    2.75000000
   14.11111164  110.73200226    4.90999985    2.75000000
   14.11444473  108.36900330    4.90999985    2.75000000
   14.12027836  108.36900330    4.90999985    2.75000000
   14.12444496  110.87300110    4.90999985    2.75000000
   14.12777805  107.66899872    4.90999985    2.76999998
   14.13083363  115.98400116    4.90999985    2.75000000
   14.13416672  106.32900238    4.90999985    2.76999998
   14.13749981  106.36000061    4.90999985    2.75000000
   14.13805580  108.52799988    4.90999985    2.75000000
   14.14111137  118.21600342    4.90999985    2.75000000
   14.14444447  107.32900238    4.90999985    2.76999998
   14.14777756  112.09600067    4.90999985    2.76999998
   14.15083313  111.83399963    4.90999985    2.75000000
   14.15416622  112.16000366    4.90999985    2.76999998
   14.15722179  115.48300171    4.90999985    2.75000000
   14.17805576  115.48300171    4.90999985    2.75000000
   14.18222237  109.47200012    4.90999985    2.75000000
   14.18527794  109.14099884    4.90999985    2.75000000
   14.18861103  110.73300171    4.90999985    2.75000000
   14.19194412  112.43499756    4.90999985    2.75000000
   14.19499969  104.44999695    4.90999985    2.75000000
   14.19833374  117.45999908    4.90999985    2.75000000
   14.20166683  108.05000305    4.90999985    2.75000000
   14.20472240  104.67500305    4.90999985    2.76999998
   14.20805550  119.08399963    4.90999985    2.76999998
   14.20888901  113.18699646    4.90999985    2.76999998
   14.21166611  113.09500122    4.90999985    2.75000000
   14.21472168  112.19999695    4.90999985    2.76999998
   14.22083282  112.19999695    4.90999985    2.76999998
   14.22499943  112.50199890    4.90999985    2.76999998
   14.22805500  108.06600189    4.90999985    2.76999998
   14.23138809  113.36399841    4.90999985    2.76999998
   14.23472214  110.62300110    4.90999985    2.76999998
   14.23777771  113.14900208    4.90999985    2.76999998
   14.24111176  110.56800079    4.90999985    2.76999998
   14.24222279  108.63999939    4.90999985    2.76999998
   14.24499989  110.00800323    4.90999985    2.76999998
   14.24805546  113.77100372    4.90999985    2.75000000
   14.25138855  113.00299835    4.90999985    2.76999998
   14.25444412  111.37200165    4.90999985    2.76999998
   14.25777817  114.74900055    4.90999985    2.76999998
   14.26361084  114.74900055    4.90999985    2.76999998
   14.26777744  108.96700287    4.90999985    2.76999998
   14.27111053  117.94300079    4.90999985    2.76999998
   14.27416611  106.90100098    4.90999985    2.76999998
   14.27583313  114.84300232    4.90999985    2.76999998
   14.27777767  108.17299652    4.90999985    2.76999998
   14.28111076  110.99099731    4.90999985    2.76999998
   14.28444481  112.10299683    4.90999985    2.76999998
   14.28750038  116.12899780    4.90999985    2.76999998
   14.29083347  112.32199860    4.90999985    2.76999998
   14.29388905  106.89900208    4.90999985    2.76999998
   14.29722309  108.64800262    4.90999985    2.76999998
   14.30055618  110.16500092    4.90999985    2.75000000
   14.30638885  110.16500092    4.90999985    2.76999998
   14.31055546  113.27999878    4.90999985    2.76999998
   14.31388950  115.16699982    4.90999985    2.76999998
   14.31694412  114.08200073    4.90999985    2.76999998
   14.32027817  110.87799835    4.90999985    2.76999998
   14.32361126  111.28299713    4.90999985    2.76999998
   14.32666683  116.79399872    4.90999985    2.76999998
   14.32999992  109.60800171    4.90999985    2.76999998
   14.33333302  114.45300293    4.90999985    2.76999998
   14.33638859  115.52300262    4.90999985    2.76999998
   14.33972168  112.44200134    4.90999985    2.75000000
   14.34249973  117.19300079    4.90999985    2.76999998
   14.34333324  111.18000031    4.90999985    2.76999998
   14.34944439  111.18000031    4.90999985    2.76999998
   14.35333347  117.33399963    4.90999985    2.76999998
   14.35666752  114.13999939    4.90999985    2.76999998
   14.36000061  118.02300262    4.90999985    2.76999998
   14.36305618  110.44699860    4.90999985    2.76999998
   14.36638927  115.18299866    4.90999985    2.76999998
   14.36972237  113.18299866    4.90999985    2.76999998
   14.37277794  111.53700256    4.90999985    2.76999998
   14.37583351  116.09200287    4.90999985    2.76999998
   14.37638855  112.95099640    4.90999985    2.76999998
   14.37972260  112.92400360    4.90999985    2.78999996
   14.38305569  115.01300049    4.90999985    2.76999998
   14.38611126  110.31400299    4.90999985    2.76999998
   14.39222240  110.31400299    4.90999985    2.76999998
   14.39638901  117.81400299    4.90999985    2.78999996
   14.39944458  110.15499878    4.90999985    2.76999998
   14.40277767  114.15699768    4.90999985    2.76999998
   14.40611076  107.12699890    4.90999985    2.76999998
   14.40916634  110.84100342    4.90999985    2.76999998
   14.40944386  113.91100311    4.90999985    2.76999998
   14.41277695  113.78299713    4.90999985    2.76999998
   14.41611099  111.16500092    4.90999985    2.76999998
   14.41916656  105.95400238    4.90999985    2.78999996
   14.42250061  116.20300293    4.90999985    2.78999996
   14.42583370  113.85600281    4.90999985    2.76999998
   14.42888927  117.16500092    4.90999985    2.78999996
   14.43500042  117.16500092    4.90999985    2.76999998
   14.43916702  116.69499969    4.90999985    2.78999996
   14.44250011  113.95500183    4.90999985    2.78999996
   14.44277763  117.36399841    4.90999985    2.78999996
   14.44611073  111.68099976    4.90999985    2.76999998
   14.44944477  110.11399841    4.90999985    2.76999998
   14.45249939  113.21800232    4.90999985    2.76999998
   14.45583344  116.89099884    4.90999985    2.76999998
   14.45888901  109.62400055    4.90999985    2.78999996
   14.46222210  110.72799683    4.90999985    2.76999998
   14.46555519  110.82099915    4.90999985    2.78999996
   14.46861076  113.63200378    4.90999985    2.78999996
   14.47194386  116.79599762    4.90999985    2.76999998
   14.47777748  116.79599762    4.90999985    2.78999996
   14.48194408  115.53900146    4.90999985    2.78999996
   14.48527813  118.03399658    4.90999985    2.76999998
   14.48833370  113.97799683    4.90999985    2.78999996
   14.49166679  110.54399872    4.90999985    2.78999996
   14.49499989  116.71199799    4.90999985    2.78999996
   14.49805546  114.06199646    4.90999985    2.78999996
   14.50138855  100.03700256    4.90999985    2.76999998
   14.50472260  110.24099731    4.90999985    2.78999996
   14.50777817  104.83899689    4.90999985    2.76999998
   14.50916672  111.49600220    4.90999985    2.76999998
   14.51138878  113.03399658    4.90999985    2.78999996
   14.51472187  109.14299774    4.90999985    2.78999996
   14.52083302  109.14299774    4.90999985    2.78999996
   14.52472210  114.08999634    4.90999985    2.76999998
   14.52805519  119.42900085    4.90999985    2.78999996
   14.53138828  109.57399750    4.90999985    2.78999996
   14.53444481  111.45400238    4.90999985    2.78999996
   14.53777790  112.08000183    4.90999985    2.78999996
   14.54111195  113.63500214    4.90999985    2.78999996
   14.54250050  129.70100403    4.90999985    2.76999998
   14.54444504  116.50299835    4.90999985    2.76999998
   14.54777813  111.43699646    4.90999985    2.78999996
   14.55111122  114.98300171    4.90999985    2.78999996
   14.55416679  115.39499664    4.90999985    2.76999998
   14.55749989  120.09200287    4.90999985    2.78999996
   14.56361103  120.09200287    4.90999985    2.78999996
   14.56777763  118.79799652    4.90999985    2.78999996
   14.57083321  115.65899658    4.90999985    2.78999996
   14.57416630  118.50199890    4.90999985    2.78999996
   14.57583332  110.62500000    4.90999985    2.78999996
   14.57777786  116.54799652    4.90999985    2.76999998
   14.58111095  117.27200317    4.90999985    2.78999996
   14.58416653  112.25900269    4.90999985    2.78999996
   14.58749962  112.23000336    4.90999985    2.76999998
   14.59083271  113.71399689    4.90999985    2.78999996
   14.59388828  109.88800049    4.90999985    2.78999996
   14.59722233  115.37400055    4.90999985    2.78999996
   14.60055637  111.14900208    4.90999985    2.78999996
   14.60638905  111.14900208    4.90999985    2.78999996
   14.61055565  117.21399689    4.90999985    2.78999996
   14.61388969  113.73899841    4.90999985    2.78999996
   14.61694431  112.56800079    4.90999985    2.76999998
   14.62027836  108.35099792    4.90999985    2.78999996
   14.62333393  113.52400208    4.90999985    2.78999996
   14.62666702  123.18800354    4.90999985    2.78999996
   14.63000011  121.77300262    4.90999985    2.78999996
   14.63305569  118.81600189    4.90999985    2.78999996
   14.63638878  120.26200104    4.90999985    2.78999996
   14.63972187  115.18099976    4.90999985    2.78999996
   14.64277744  119.10500336    4.90999985    2.78999996
   14.64333344  120.90100098    4.90999985    2.78999996
   14.64916611  120.90100098    4.90999985    2.78999996
   14.65333271  118.67199707    4.90999985    2.78999996
   14.65666676  122.83599854    4.90999985    2.78999996
   14.65972137  115.94499969    4.90999985    2.78999996
   14.66305542  120.82599640    4.90999985    2.78999996
   14.66638851  131.69099426    4.90999985    2.78999996
   14.66944504  132.36300659    4.90999985    2.78999996
   14.67277813  119.72499847    4.90999985    2.78999996
   14.67611122  135.40299988    4.90999985    2.78999996
   14.67638874  132.70700073    4.90999985    2.78999996
   14.67972279  141.98599243    4.90999985    2.78999996
   14.68277836  155.07400513    4.90999985    2.78999996
   14.68611145  142.25900269    4.90999985    2.78999996
   14.69222260  142.25900269    4.90999985    2.78999996
   14.69611073  138.10699463    4.90999985    2.78999996
   14.69944477  158.83799744    4.90999985    2.78999996
   14.70277786  160.45599365    4.90999985    2.78999996
   14.70583344  159.27600098    4.90999985    2.78999996
   14.70916653  135.11999512    4.90999985    2.78999996
   14.70972157  137.96400452    4.90999985    2.78999996
   14.71305561  151.61199951    4.90999985    2.78999996
   14.71611118  175.05299377    4.90999985    2.78999996
   14.71944427  163.61199951    4.90999985    2.78999996
   14.72249985  153.60099792    4.90999985    2.80999994
   14.72583294  132.14100647    4.90999985    2.78999996
   14.72916603  155.38900757    4.90999985    2.80999994
   14.73500061  155.38900757    4.90999985    2.78999996
   14.73916721  171.67399597    4.90999985    2.80999994
   14.74222279  168.20399475    4.90999985    2.78999996
   14.74305534  154.18899536    4.90999985    2.78999996
   14.74611092  160.17199707    4.90999985    2.78999996
   14.74916649  159.83799744    4.90999985    2.78999996
   14.75249958  149.49400330    4.90999985    2.78999996
   14.75555515  155.76400757    4.90999985    2.78999996
   14.75888920  178.87100220    4.90999985    2.78999996
   14.76222229  171.37600708    4.90999985    2.80999994
   14.76527786  157.29800415    4.90999985    2.78999996
   14.76861095  158.29200745    4.90999985    2.78999996
   14.77194405  153.96200562    4.90999985    2.78999996
   14.77777767  153.96200562    4.90999985    2.78999996
   14.78194427  170.81399536    4.90999985    2.78999996
   14.78527832  174.58399963    4.90999985    2.78999996
   14.78833389  183.62399292    4.90999985    2.78999996
   14.79166698  159.21299744    4.90999985    2.78999996
   14.79472256  151.22599792    4.90999985    2.78999996
   14.79805565  158.98500061    4.90999985    2.78999996
   14.80138874  156.60299683    4.90999985    2.78999996
   14.80444431  168.87899780    4.90999985    2.78999996
   14.80777836  192.67999268    4.90999985    2.78999996
   14.80972195  180.59800720    4.90999985    2.80999994
   14.81138897  190.37800598    4.90999985    2.78999996
   14.81444454  169.11500549    4.90999985    2.80999994
   14.82055569  169.11500549    4.90999985    2.78999996
   14.82472229  180.55700684    4.90999985    2.80999994
   14.82805538  180.15800476    4.90999985    2.78999996
   14.83111095  191.51800537    4.90999985    2.78999996
   14.83444405  190.72700500    4.90999985    2.78999996
   14.83777714  187.12199402    4.90999985    2.80999994
   14.84083271  178.65299988    4.90999985    2.78999996
   14.84305477  185.61500549    4.90999985    2.80999994
   14.84472179  169.49099731    4.90999985    2.78999996
   14.84777737  194.95700073    4.90999985    2.80999994
   14.85111141  172.13200378    4.90999985    2.78999996
   14.85444450  176.91400146    4.90999985    2.78999996
   14.85750008  178.87600708    4.90999985    2.78999996
   14.86333370  178.87600708    4.90999985    2.80999994
   14.86750031  166.64399719    4.90999985    2.80999994
   14.87083340  178.90499878    4.90999985    2.78999996
   14.87416649  175.54499817    4.90999985    2.78999996
   14.87638855  188.47200012    4.90999985    2.80999994
   14.87777805  185.58000183    4.90999985    2.80999994
   14.88083363  187.35200500    4.90999985    2.78999996
   14.88416672  168.61900330    4.90999985    2.78999996
   14.88749981  196.58799744    4.90999985    2.80999994
   14.89055538  206.63900757    4.90999985    2.80999994
   14.89388847  191.41099548    4.90999985    2.80999994
   14.89694405  143.98199463    4.90999985    2.78999996
   14.90027714  167.03799438    4.90999985    2.78999996
   14.90638828  167.03799438    4.90999985    2.80999994
   14.91055489  168.25399780    4.90999985    2.80999994
   14.91361046  171.37199402    4.90999985    2.78999996
   14.91694450  170.90299988    4.90999985    2.80999994
   14.92027855  199.40899658    4.90999985    2.80999994
   14.92333412  208.50799561    4.90999985    2.78999996
   14.92666721  223.19500732    4.90999985    2.78999996
   14.93000031  193.11700439    4.90999985    2.80999994
   14.93305588  196.04899597    4.90999985    2.80999994
   14.93638897  203.98899841    4.90999985    2.80999994
   14.93972206  184.45199585    4.90999985    2.80999994
   14.94277763  206.58200073    4.90999985    2.80999994
   14.94333363  184.58599854    4.90999985    2.80999994
   14.94916630  184.58599854    4.90999985    2.80999994
   14.95333290  197.90400696    4.90999985    2.80999994
   14.95666695  188.51100159    4.90999985    2.80999994
   14.95972157  196.38000488    4.90999985    2.80999994
   14.96305561  196.79600525    4.90999985    2.80999994
   14.96638870  197.64100647    4.90999985    2.82999992
   14.96944427  215.51899719    4.90999985    2.80999994
   14.97277737  195.69799805    4.90999985    2.80999994
   14.97611046  213.05900574    4.90999985    2.80999994
   14.97666645  177.75300598    4.90999985    2.80999994
   14.97972202  190.00799561    4.90999985    2.80999994
   14.98305511  207.97000122    4.90999985    2.80999994
   14.98611164  210.52600098    4.90999985    2.80999994
   14.99222279  210.52600098    4.90999985    2.80999994
   14.99611092  201.82200623    4.90999985    2.80999994
   14.99944496  198.94299316    4.90999985    2.80999994
   15.00277805  224.84800720    4.90999985    2.80999994
   15.00583363  206.32400513    4.90999985    2.80999994
   15.00916672  199.66700745    4.90999985    2.80999994
   15.01000023  182.69400024    4.90999985    2.80999994
   15.01277733  207.57099915    4.90999985    2.80999994
   15.01611137  195.91600037    4.90999985    2.80999994
   15.01861095  215.10200500    4.90999985    2.80999994
   15.11472225   -1.00000000   -1.00000000   -1.00000000
   15.22666645   -1.00000000   -1.00000000   -1.00000000
   15.34111118   -1.00000000   -1.00000000   -1.00000000
   15.36694431  123.98000336    4.90999985    2.55999994
   15.36999989  286.49600220    4.90999985    2.64000010
   15.37333393  233.86900330    4.90999985    2.34999990
   15.37666702  233.60899353    4.90999985    2.50000000
   15.37972260  223.58900452    4.90999985    2.66000009
   15.38305569  211.63299561    4.90999985    2.73000002
   15.38722229  211.63299561    4.90999985    2.73000002
   15.39138889  243.46800232    4.90999985    2.30999994
   15.39444447  230.28799438    4.90999985    2.57999992
   15.39777756  227.03700256    4.90999985    2.26999998
   15.40027714  219.19099426    4.90999985    2.30999994
   15.40138817  182.24499512    4.90999985    2.55999994
   15.40472221  221.99499512    4.90999985    2.69000006
   15.40805531  198.93200684    4.90999985    2.71000004
   15.41111088  217.24699402    4.90999985    2.69000006
   15.41444397  195.10000610    4.90999985    2.69000006
   15.41777802  202.81700134    4.90999985    2.71000004
   15.42083359  212.24400330    4.90999985    2.69000006
   15.42416668  199.89199829    4.90999985    2.69000006
   15.43000031  199.89199829    4.90999985    2.73000002
   15.43416691  188.86000061    4.90999985    2.73000002
   15.43750000  203.21299744    4.90999985    2.76999998
   15.44055557  178.60400391    4.90999985    2.75000000
   15.44388866  200.28399658    4.90999985    2.80999994
   15.44694424  202.48199463    4.90999985    2.67000008
   15.45027733  208.76400757    4.90999985    2.82999992
   15.45361137  218.42799377    4.90999985    2.80999994
   15.45666695  189.49699402    4.90999985    2.78999996
   15.46000004  185.04600525    4.90999985    2.69000006
   15.46333313  206.40800476    4.90999985    2.71000004
   15.46638870  194.09800720    4.90999985    2.69000006
   15.46694374  223.57000732    4.90999985    2.61999989
   15.47277737  223.57000732    4.90999985    2.66000009
   15.47694397  195.50199890    4.90999985    2.57999992
   15.48027706  220.09100342    4.90999985    2.53999996
   15.48361111  203.13499451    4.90999985    2.53999996
   15.48666668  203.68699646    4.90999985    2.39000010
   15.49000072  204.32200623    4.90999985    2.48000002
   15.49305534  195.53399658    4.90999985    2.64000010
   15.49638939  195.03900146    4.90999985    2.66000009
   15.49972248  197.11099243    4.90999985    2.80999994
   15.50027752  208.28799438    4.90999985    2.80999994
   15.50333309  187.35499573    4.90999985    2.82999992
   15.50666714  196.53300476    4.90999985    2.82999992
   15.50972176  195.75500488    4.90999985    2.82999992
   15.51583290  195.75500488    4.90999985    2.78999996
   15.51972198  169.72300720    4.90999985    2.80999994
   15.52305508  152.94400024    4.90999985    2.78999996
   15.52638817  178.16900635    4.90999985    2.78999996
   15.52944374  171.27400208    4.90999985    2.73000002
   15.53277779  173.04600525    4.90999985    2.67000008
   15.53361130  198.30900574    4.90999985    2.64000010
   15.53638935  194.11599731    4.90999985    2.61999989
   15.53944492  196.28399658    4.90999985    2.66000009
   15.54277802  184.78999329    4.90999985    2.78999996
   15.54611111  175.85400391    4.90999985    2.82999992
   15.54916668  193.55700684    4.90999985    2.82999992
   15.55249977  185.14900208    4.90999985    2.82999992
   15.55861092  185.14900208    4.90999985    2.82999992
   15.56277752  184.08700562    4.90999985    2.82999992
   15.56583309  181.42900085    4.90999985    2.80999994
   15.56694412  192.34500122    4.90999985    2.82999992
   15.56972218  181.62300110    4.90999985    2.82999992
   15.57277775  182.08200073    4.90999985    2.82999992
   15.57611084  193.42700195    4.90999985    2.82999992
   15.57944393  185.57499695    4.90999985    2.80999994
   15.58249950  187.91600037    4.90999985    2.82999992
   15.58583260  185.93099976    4.90999985    2.80999994
   15.58916664  193.59300232    4.90999985    2.80999994
   15.59222221  174.22900391    4.90999985    2.80999994
   15.59555531  173.76300049    4.90999985    2.82999992
   15.60138893  173.76300049    4.90999985    2.80999994
   15.60555553  178.53999329    4.90999985    2.80999994
   15.60888958  179.67300415    4.90999985    2.80999994
   15.61194515  184.69700623    4.90999985    2.82999992
   15.61527824  178.51800537    4.90999985    2.82999992
   15.61833382  166.95599365    4.90999985    2.82999992
   15.62166691  187.00700378    4.90999985    2.82999992
   15.62500000  175.85099792    4.90999985    2.80999994
   15.62805557  165.85099792    4.90999985    2.80999994
   15.63138866  186.62199402    4.90999985    2.82999992
   15.63361073  180.22099304    4.90999985    2.82999992
   15.63500023  188.34399414    4.90999985    2.82999992
   15.63833332  182.76199341    4.90999985    2.80999994
   15.64416695  182.76199341    4.90999985    2.80999994
   15.64833355  188.99200439    4.90999985    2.82999992
   15.65166664  180.45100403    4.90999985    2.82999992
   15.65499973  174.10800171    4.90999985    2.80999994
   15.65805531  173.81799316    4.90999985    2.82999992
   15.66138840  170.02799988    4.90999985    2.82999992
   15.66444397  170.26899719    4.90999985    2.80999994
   15.66694450  169.64999390    4.90999985    2.80999994
   15.66833401  165.57000732    4.90999985    2.80999994
   15.67166710  191.63299561    4.90999985    2.80999994
   15.67472267  194.58799744    4.90999985    2.80999994
   15.67805576  193.90400696    4.90999985    2.82999992
   15.68138885  181.35299683    4.90999985    2.82999992
   15.68722248  181.35299683    4.90999985    2.82999992
   15.69138908  159.36599731    4.90999985    2.80999994
   15.69444466  173.63099670    4.90999985    2.82999992
   15.69777775  173.57000732    4.90999985    2.80999994
   15.70027733  183.03700256    4.90999985    2.82999992
   15.70138836  176.30599976    4.90999985    2.82999992
   15.70472240  192.72599792    4.90999985    2.80999994
   15.70777798  177.19599915    4.90999985    2.82999992
   15.71111107  167.95799255    4.90999985    2.82999992
   15.71416664  163.69000244    4.90999985    2.82999992
   15.71749973  178.09500122    4.90999985    2.82999992
   15.72083282  179.60600281    4.90999985    2.82999992
   15.72388840  186.75300598    4.90999985    2.82999992
   15.72999954  186.75300598    4.90999985    2.82999992
   15.73416710  165.03199768    4.90999985    2.82999992
   15.73722267  151.15100098    4.90999985    2.82999992
   15.74055576  182.33599854    4.90999985    2.80999994
   15.74388885  185.25799561    4.90999985    2.82999992
   15.74694443  168.32400513    4.90999985    2.80999994
   15.75027752  180.90600586    4.90999985    2.82999992
   15.75333309  188.34700012    4.90999985    2.82999992
   15.75666714  180.27600098    4.90999985    2.82999992
   15.76000023  171.85499573    4.90999985    2.82999992
   15.76305580  169.96099854    4.90999985    2.82999992
   15.76638889  163.79499817    4.90999985    2.80999994
   15.76694393  168.24800110    4.90999985    2.82999992
   15.77277756  168.24800110    4.90999985    2.80999994
   15.77694416  184.86300659    4.90999985    2.82999992
   15.78027725  180.49000549    4.90999985    2.80999994
   15.78333378  176.68699646    4.90999985    2.80999994
   15.78666687  163.65100098    4.90999985    2.82999992
   15.78972244  172.32899475    4.90999985    2.82999992
   15.79305553  171.76899719    4.90999985    2.82999992
   15.79638958  173.38400269    4.90999985    2.82999992
   15.79944515  175.29100037    4.90999985    2.82999992
   15.80027771  179.20799255    4.90999985    2.82999992
   15.80305576  172.34800720    4.90999985    2.80999994
   15.80638885  161.64900208    4.90999985    2.80999994
   15.80944443  169.06199646    4.90999985    2.80999994
   15.81555557  169.06199646    4.90999985    2.80999994
   15.81972218  172.85200500    4.90999985    2.82999992
   15.82305527  163.64599609    4.90999985    2.80999994
   15.82638836  159.86900330    4.90999985    2.82999992
   15.82944393  174.94900513    4.90999985    2.80999994
   15.83277798  177.84800720    4.90999985    2.82999992
   15.83361053  178.83000183    4.90999985    2.80999994
   15.83638859  151.01400757    4.90999985    2.82999992
   15.83972168  168.81900024    4.90999985    2.80999994
   15.84277725  167.31700134    4.90999985    2.80999994
   15.84611034  172.54800415    4.90999985    2.82999992
   15.84916592  175.55900574    4.90999985    2.82999992
   15.85249996  171.85000610    4.90999985    2.80999994
   15.85861111  171.85000610    4.90999985    2.82999992
   15.86250019  145.88600159    4.90999985    2.82999992
   15.86583328  176.88900757    4.90999985    2.82999992
   15.86694431  169.97300720    4.90999985    2.82999992
   15.86944485  153.41600037    4.90999985    2.82999992
   15.87277794  149.07299805    4.90999985    2.82999992
   15.87583351  157.58900452    4.90999985    2.82999992
   15.87916660  141.85600281    4.90999985    2.80999994
   15.88249969  163.87300110    4.90999985    2.82999992
   15.88555527  166.92999268    4.90999985    2.80999994
   15.88888836  165.25700378    4.90999985    2.80999994
   15.89222240  161.32699585    4.90999985    2.82999992
   15.89527798  146.36999512    4.90999985    2.82999992
   15.90138817  146.36999512    4.90999985    2.82999992
   15.90555477  160.66700745    4.90999985    2.82999992
   15.90888882  157.70799255    4.90999985    2.82999992
   15.91194439  155.49299622    4.90999985    2.82999992
   15.91527748  125.56099701    4.90999985    2.82999992
   15.91833401  143.87899780    4.90999985    2.82999992
   15.92166710  162.47599792    4.90999985    2.84999990
   15.92500019  167.96699524    4.90999985    2.82999992
   15.92805576  152.33999634    4.90999985    2.82999992
   15.93138885  164.05799866    4.90999985    2.82999992
   15.93388939  185.59300232    4.90999985    2.82999992
   15.93500042  174.79899597    4.90999985    2.82999992
   15.93833351  160.36500549    4.90999985    2.82999992
   15.94416714  160.36500549    4.90999985    2.82999992
   15.94833374  159.57499695    4.90999985    2.82999992
   15.95166683  163.09399414    4.90999985    2.82999992
   15.95472240  152.54899597    4.90999985    2.82999992
   15.95805550  154.68899536    4.90999985    2.82999992
   15.96138859  192.02200317    4.90999985    2.82999992
   15.96444416  154.57800293    4.90999985    2.82999992
   15.96722221  148.54400635    4.90999985    2.82999992
   15.96805477  161.62300110    4.90999985    2.82999992
   15.97138882  165.66000366    4.90999985    2.82999992
   15.97472191  153.56500244    4.90999985    2.82999992
   15.97777748  164.62699890    4.90999985    2.84999990
   15.98111057  172.83099365    4.90999985    2.82999992
   15.98722267  172.83099365    4.90999985    2.82999992
   15.99111176  140.68899536    4.90999985    2.82999992
   15.99444485  151.20399475    4.90999985    2.82999992
   15.99777794  161.70199585    4.90999985    2.80999994
   16.00055504  158.50999451    4.90999985    2.82999992
   16.00138855  143.97300720    4.90999985    2.82999992
   16.00472260  149.49499512    4.90999985    2.82999992
   16.00805473  147.80700684    4.90999985    2.82999992
   16.01111031  161.14799500    4.90999985    2.82999992
   16.01444435  164.98800659    4.90999985    2.82999992
   16.01749992  163.84800720    4.90999985    2.82999992
   16.02083397  152.68400574    4.90999985    2.82999992
   16.02416611  152.20199585    4.90999985    2.82999992
   16.03000069  152.20199585    4.90999985    2.82999992
   16.03416634  165.83700562    4.90999985    2.82999992
   16.03722191  163.50399780    4.90999985    2.82999992
   16.04055595  152.77699280    4.90999985    2.82999992
   16.04388809  152.73800659    4.90999985    2.82999992
   16.04694366  167.20899963    4.90999985    2.82999992
   16.05027771  157.78399658    4.90999985    2.82999992
   16.05333328  165.39700317    4.90999985    2.80999994
   16.05666542  156.13499451    4.90999985    2.80999994
   16.05999947  151.49000549    4.90999985    2.80999994
   16.06305504  157.36599731    4.90999985    2.82999992
   16.06638718  151.19500732    4.90999985    2.82999992
   16.06722260  167.28100586    4.90999985    2.82999992
   16.07277870  167.28100586    4.90999985    2.82999992
   16.07694626  163.00300598    4.90999985    2.82999992
   16.08027840  147.96200562    4.90999985    2.82999992
   16.08333397  152.67700195    4.90999985    2.82999992
   16.08666801  157.07699585    4.90999985    2.82999992
   16.08972359  150.85800171    4.90999985    2.82999992
   16.09305573  156.64900208    4.90999985    2.82999992
   16.09638977  147.86900330    4.90999985    2.82999992
   16.09944534  152.71299744    4.90999985    2.80999994
   16.10055542  163.86199951    4.90999985    2.80999994
   16.10305595  145.28799438    4.90999985    2.80999994
   16.10639000  135.86700439    4.90999985    2.82999992
   16.10972214  147.91600037    4.90999985    2.78999996
   16.11555672  147.91600037    4.90999985    2.78999996
   16.11972237  152.90400696    4.90999985    2.82999992
   16.12305641  156.02200317    4.90999985    2.80999994
   16.12611198  155.72799683    4.90999985    2.80999994
   16.12944412  167.54699707    4.90999985    2.82999992
   16.13277817  152.52999878    4.90999985    2.80999994
   16.13388824  142.01800537    4.90999985    2.82999992
   16.13638878  157.23599243    4.90999985    2.80999994
   16.13944435  159.46499634    4.90999985    2.78999996
   16.14277840  169.26499939    4.90999985    2.76999998
   16.14583397  156.33200073    4.90999985    2.76999998
   16.14916611  154.46000671    4.90999985    2.80999994
   16.15250015  159.39999390    4.90999985    2.82999992
   16.15861130  159.39999390    4.90999985    2.82999992
   16.16250038  152.42599487    4.90999985    2.80999994
   16.16583252  155.60600281    4.90999985    2.76999998
   16.16722107  160.04600525    4.90999985    2.73000002
   16.16944313  160.37500000    4.90999985    2.75000000
   16.17277718  161.34500122    4.90999985    2.76999998
   16.17611122  152.56300354    4.90999985    2.75000000
   16.17916679  162.97599792    4.90999985    2.73000002
   16.18249893  167.61799622    4.90999985    2.75000000
   16.18583298  166.57499695    4.90999985    2.75000000
   16.18888855  159.65100098    4.90999985    2.71000004
   16.19222069  163.66999817    4.90999985    2.69000006
   16.19527626  165.66900635    4.90999985    2.61999989
   16.20138931  165.66900635    4.90999985    2.66000009
   16.20555687  166.33599854    4.90999985    2.61999989
   16.20861244  162.50799561    4.90999985    2.61999989
   16.21194458  157.41099548    4.90999985    2.64000010
   16.21527863  169.27600098    4.90999985    2.59999990
   16.21833420  168.92300415    4.90999985    2.55999994
   16.22166634  197.15600586    4.90999985    2.48000002
   16.22500038  211.97200012    4.90999985    2.30999994
   16.22805595  193.05599976    4.90999985    2.32999992
   16.23139000  182.35699463    4.90999985    2.55999994
   16.23388863  228.87899780    4.90999985    2.39000010
   16.23500061  223.37500000    4.90999985    2.23000002
   16.23833275  246.01699829    4.90999985    2.21000004
   16.24416733  246.01699829    4.90999985    2.30999994
   16.24833298  208.64799500    4.90999985    2.30999994
   16.25166702  196.71899414    4.90999985    2.34999990
   16.25472260  228.02400208    4.90999985    2.34999990
   16.25805473  166.42500305    4.90999985    2.34999990
   16.26111031  171.43400574    4.90999985    2.51999998
   16.26444435  186.55400085    4.90999985    2.40000010
   16.26722145  179.01300049    4.90999985    2.42000008
   16.26805496  185.29600525    4.90999985    2.44000006
   16.27138901  160.98800659    4.90999985    2.50000000
   16.27472115  172.58099365    4.90999985    2.48000002
   16.27777672  186.41099548    4.90999985    2.57999992
   16.28111076  170.70199585    4.90999985    2.57999992
   16.28694344  170.70199585    4.90999985    2.61999989
   16.29111099  178.19000244    4.90999985    2.66000009
   16.29444313  170.59199524    4.90999985    2.64000010
   16.29749870  181.77200317    4.90999985    2.59999990
   16.30055428  171.94900513    4.90999985    2.53999996
   16.30111122  165.28700256    4.90999985    2.57999992
   16.30444336  181.85699463    4.90999985    2.53999996
   16.30777740  179.98399353    4.90999985    2.46000004
   16.31083298  204.69200134    4.90999985    2.40000010
   16.31416512  189.07099915    4.90999985    2.34999990
   16.31750107  199.69700623    4.90999985    2.25000000
   16.32055664  233.41400146    4.90999985    2.13000011
   16.32389069  162.09700012    4.90999985    2.34999990
   16.33000183  162.09700012    4.90999985    2.75000000
   16.33388901  144.02999878    4.90999985    2.80999994
   16.33722305  154.15100098    4.90999985    2.82999992
   16.34055710  151.48500061    4.90999985    2.82999992
   16.34361267  143.67500305    4.90999985    2.78999996
   16.34694481  147.93800354    4.90999985    2.75000000
   16.35027885  157.75000000    4.90999985    2.69000006
   16.35333443  142.28999329    4.90999985    2.67000008
   16.35666656  150.76600647    4.90999985    2.75000000
   16.35972214  151.32099915    4.90999985    2.76999998
   16.36305618  161.68699646    4.90999985    2.76999998
   16.36638832  150.71499634    4.90999985    2.73000002
   16.36722183  151.99000549    4.90999985    2.73000002
   16.38777733  151.99000549    4.90999985    2.75000000
   16.39194489  158.37399292    4.90999985    2.66000009
   16.39527702  145.58599854    4.90999985    2.67000008
   16.39833260  136.62100220    4.90999985    2.76999998
   16.40055466  139.24600220    4.90999985    2.82999992
   16.40222168  148.04299927    4.90999985    2.82999992
   16.40527725  133.81399536    4.90999985    2.82999992
   16.40861130  137.42799377    4.90999985    2.82999992
   16.41194344  140.24800110    4.90999985    2.82999992
   16.41499901  134.37399292    4.90999985    2.80999994
   16.41833305  142.49899292    4.90999985    2.80999994
   16.42138863  138.82499695    4.90999985    2.80999994
   16.42472076  140.80099487    4.90999985    2.80999994
   16.43055534  140.80099487    4.90999985    2.82999992
   16.43472099  147.22700500    4.90999985    2.82999992
   16.43805504  137.01899719    4.90999985    2.80999994
   16.44111061  140.22900391    4.90999985    2.80999994
   16.44444275  149.69000244    4.90999985    2.82999992
   16.44749832  134.54600525    4.90999985    2.82999992
   16.45083427  129.37300110    4.90999985    2.82999992
   16.45416832  142.37699890    4.90999985    2.82999992
   16.45722389  140.81500244    4.90999985    2.80999994
   16.46055603  139.01499939    4.90999985    2.82999992
   16.46361160  135.92999268    4.90999985    2.80999994
   16.46694565  144.13800049    4.90999985    2.80999994
   16.46750069  135.76199341    4.90999985    2.80999994
   16.47333336  135.76199341    4.90999985    2.82999992
   16.47750092  147.02299500    4.90999985    2.80999994
   16.48083305  146.72300720    4.90999985    2.82999992
   16.48388863  139.02200317    4.90999985    2.80999994
   16.48722267  142.78100586    4.90999985    2.80999994
   16.49055672  143.60400391    4.90999985    2.80999994
   16.49361229  141.55599976    4.90999985    2.80999994
   16.49694443  144.95700073    4.90999985    2.82999992
   16.50000000  148.41099548    4.90999985    2.82999992
   16.50083351  143.63600159    4.90999985    2.82999992
   16.50388908  140.22300720    4.90999985    2.80999994
   16.50694466  139.58099365    4.90999985    2.80999994
   16.51027870  134.32899475    4.90999985    2.76999998
   16.51611137  134.32899475    4.90999985    2.78999996
   16.52027702  132.59800720    4.90999985    2.80999994
   16.52361107  142.21099854    4.90999985    2.80999994
   16.52694511  151.40400696    4.90999985    2.76999998
   16.53000069  145.10099792    4.90999985    2.75000000
   16.53333282  154.76199341    4.90999985    2.69000006
   16.53416634  140.63400269    4.90999985    2.69000006
   16.53694344  134.07499695    4.90999985    2.78999996
   16.53999901  136.08099365    4.90999985    2.82999992
   16.54333305  144.36199951    4.90999985    2.82999992
   16.54666710  134.87800598    4.90999985    2.80999994
   16.54972076  137.58700562    4.90999985    2.82999992
   16.55305481  128.09399414    4.90999985    2.82999992
   16.55916595  128.09399414    4.90999985    2.82999992
   16.56333351  137.63800049    4.90999985    2.82999992
   16.56638718  136.36000061    4.90999985    2.78999996
   16.56750107  138.54499817    4.90999985    2.80999994
   16.57000160  145.75900269    4.90999985    2.82999992
   16.57305717  141.02000427    4.90999985    2.82999992
   16.57638931  132.13499451    4.90999985    2.84999990
   16.57972336  151.16099548    4.90999985    2.82999992
   16.58277893  134.69200134    4.90999985    2.82999992
   16.58611107  138.91900635    4.90999985    2.82999992
   16.58944511  133.46899414    4.90999985    2.82999992
   16.59250069  137.78300476    4.90999985    2.82999992
   16.59583473  140.65400696    4.90999985    2.82999992
   16.60194397  140.65400696    4.90999985    2.82999992
   16.60611153  134.69099426    4.90999985    2.82999992
   16.60944557  133.70899963    4.90999985    2.82999992
   16.61250114  127.74500275    4.90999985    2.80999994
   16.61583328  138.60499573    4.90999985    2.80999994
   16.61888885  133.28500366    4.90999985    2.82999992
   16.62222290  135.78199768    4.90999985    2.82999992
   16.62555504  139.88000488    4.90999985    2.82999992
   16.62861061  122.84300232    4.90999985    2.82999992
   16.63194466  124.05599976    4.90999985    2.82999992
   16.63416672  135.07299805    4.90999985    2.82999992
   16.63555527  142.77900696    4.90999985    2.82999992
   16.63888931  128.55200195    4.90999985    2.82999992
   16.64472198  128.55200195    4.90999985    2.84999990
   16.64888954  126.86499786    4.90999985    2.82999992
   16.65222168  132.70899963    4.90999985    2.82999992
   16.65527725  136.43499756    4.90999985    2.84999990
   16.65861130  125.97000122    4.90999985    2.82999992
   16.66194344  121.88500214    4.90999985    2.82999992
   16.66499901  110.87100220    4.90999985    2.82999992
   16.66749954  125.60500336    4.90999985    2.82999992
   16.66860962  122.37000275    4.90999985    2.82999992
   16.67194366  128.56300354    4.90999985    2.82999992
   16.67499924  125.76200104    4.90999985    2.82999992
   16.67833328  128.48100281    4.90999985    2.82999992
   16.68138885  121.09400177    4.90999985    2.82999992
   16.68750000  121.09400177    4.90999985    2.82999992
   16.69166565  113.09799957    4.90999985    2.82999992
   16.69499969  128.69900513    4.90999985    2.82999992
   16.69833183  134.53999329    4.90999985    2.84999990
   16.70083427  122.90399933    4.90999985    2.82999992
   16.70194435  132.38600159    4.90999985    2.84999990
   16.70527840  131.48199463    4.90999985    2.82999992
   16.70833397  126.88700104    4.90999985    2.80999994
   16.71166801  124.49600220    4.90999985    2.82999992
   16.71472359  125.33899689    4.90999985    2.82999992
   16.71805573  123.64800262    4.90999985    2.84999990
   16.72138977  123.50099945    4.90999985    2.84999990
   16.72444534  133.30900574    4.90999985    2.82999992
   16.73055649  133.30900574    4.90999985    2.84999990
   16.73472214  123.72599792    4.90999985    2.84999990
   16.73777771  131.86399841    4.90999985    2.82999992
   16.74111176  129.36099243    4.90999985    2.82999992
   16.74416733  123.69999695    4.90999985    2.82999992
   16.74749947  130.39100647    4.90999985    2.82999992
   16.75083351  121.37400055    4.90999985    2.84999990
   16.75388908  128.05499268    4.90999985    2.84999990
   16.75722313  123.83699799    4.90999985    2.82999992
   16.76055527  126.59999847    4.90999985    2.82999992
   16.76361084  129.32000732    4.90999985    2.82999992
   16.76694489  126.35099792    4.90999985    2.84999990
   16.76749992  135.99000549    4.90999985    2.84999990
   16.77333260  135.99000549    4.90999985    2.84999990
   16.77750015  124.16100311    4.90999985    2.84999990
   16.78055573  125.34500122    4.90999985    2.82999992
   16.78388786  136.22799683    4.90999985    2.82999992
   16.78722191  127.68800354    4.90999985    2.82999992
   16.79027748  130.32000732    4.90999985    2.84999990
   16.79361153  132.22099304    4.90999985    2.84999990
   16.79694366  130.40499878    4.90999985    2.82999992
   16.79999924  133.66099548    4.90999985    2.84999990
   16.80083275  124.87500000    4.90999985    2.82999992
   16.80360985  134.44799805    4.90999985    2.84999990
   16.80694389  129.51100159    4.90999985    2.84999990
   16.80999947  119.48300171    4.90999985    2.84999990
   16.81611061  119.48300171    4.90999985    2.82999992
   16.82027817  129.61399841    4.90999985    2.84999990
   16.82361221  127.32700348    4.90999985    2.84999990
   16.82666779  125.73600006    4.90999985    2.82999992
   16.83000183  125.94499969    4.90999985    2.84999990
   16.83333397  119.63700104    4.90999985    2.82999992
   16.83416748  128.70300293    4.90999985    2.82999992
   16.83694458  121.65299988    4.90999985    2.84999990
   16.84027863  123.13500214    4.90999985    2.84999990
   16.84333420  127.81900024    4.90999985    2.82999992
   16.84666824  116.72399902    4.90999985    2.84999990
   16.84972191  126.50599670    4.90999985    2.84999990
   16.85305595  118.02400208    4.90999985    2.84999990
   16.85888863  118.02400208    4.90999985    2.80999994
   16.86305618  126.54900360    4.90999985    2.82999992
   16.86638832  134.54299927    4.90999985    2.84999990
   16.86750031  122.24700165    4.90999985    2.84999990
   16.87000084  127.79299927    4.90999985    2.82999992
   16.87333298  135.72399902    4.90999985    2.82999992
   16.87638855  132.39799500    4.90999985    2.82999992
   16.87972260  130.43899536    4.90999985    2.82999992
   16.88277817  123.77400208    4.90999985    2.84999990
   16.88611031  124.18199921    4.90999985    2.84999990
   16.88944435  120.09400177    4.90999985    2.82999992
   16.89249992  128.81900024    4.90999985    2.82999992
   16.89583397  121.43699646    4.90999985    2.82999992
   16.90194321  121.43699646    4.90999985    2.82999992
   16.90611076  122.12100220    4.90999985    2.82999992
   16.90916634  119.39099884    4.90999985    2.84999990
   16.91250038  110.65599823    4.90999985    2.82999992
   16.91555595  122.70600128    4.90999985    2.82999992
   16.91888809  124.26100159    4.90999985    2.84999990
   16.92222214  128.11799622    4.90999985    2.82999992
   16.92527771  120.52899933    4.90999985    2.82999992
   16.92860985  126.88800049    4.90999985    2.82999992
   16.93194389  133.43600464    4.90999985    2.82999992
   16.93416595  117.85700226    4.90999985    2.82999992
   16.93555450  130.51199341    4.90999985    2.82999992
   16.93888855  125.53399658    4.90999985    2.82999992
   16.94472122  125.53399658    4.90999985    2.84999990
   16.94888878  124.54599762    4.90999985    2.82999992
   16.95194435  125.15899658    4.90999985    2.82999992
   16.95527840  118.68900299    4.90999985    2.82999992
   16.95861244  118.07599640    4.90999985    2.82999992
   16.96166801  120.01899719    4.90999985    2.82999992
   16.96500015  118.20300293    4.90999985    2.82999992
   16.96750069  120.91300201    4.90999985    2.82999992
   16.96861076  124.92900085    4.90999985    2.82999992
   16.97194481  129.88900757    4.90999985    2.82999992
   16.97500038  123.51699829    4.90999985    2.82999992
   16.97833443  125.06500244    4.90999985    2.82999992
   16.98139000  119.61199951    4.90999985    2.82999992
   16.98750114  119.61199951    4.90999985    2.82999992
   16.99166679  123.15599823    4.90999985    2.82999992
   16.99500084  125.05999756    4.90999985    2.82999992
   16.99805641  120.55699921    4.90999985    2.82999992
   17.00083351  127.67900085    4.90999985    2.82999992
   17.00166702  120.07399750    4.90999985    2.82999992
   17.00499916  119.05899811    4.90999985    2.80999994
   17.00805473  122.47399902    4.90999985    2.82999992
   17.01138878  119.89700317    4.90999985    2.82999992
   17.01472282  120.95099640    4.90999985    2.82999992
   17.01777840  118.29599762    4.90999985    2.82999992
   17.02111053  116.97100067    4.90999985    2.82999992
   17.02416611  124.94799805    4.90999985    2.82999992
   17.03027725  124.94799805    4.90999985    2.82999992
   17.03444481  122.20300293    4.90999985    2.82999992
   17.03777695  125.28800201    4.90999985    2.82999992
   17.04083252  122.51599884    4.90999985    2.82999992
   17.04416656  125.14199829    4.90999985    2.82999992
   17.04749870  129.08500671    4.90999985    2.82999992
   17.05055428  119.11900330    4.90999985    2.82999992
   17.05388832  120.33399963    4.90999985    2.82999992
   17.05722237  116.72599792    4.90999985    2.82999992
   17.06027794  129.86399841    4.90999985    2.82999992
   17.06361008  123.33699799    4.90999985    2.82999992
   17.06694603  122.57099915    4.90999985    2.82999992
   17.06750107  124.72000122    4.90999985    2.82999992
   17.07333374  124.72000122    4.90999985    2.80999994
   17.07750130  109.80899811    4.90999985    2.82999992
   17.08055687  125.29100037    4.90999985    2.82999992
   17.08388901  125.55400085    4.90999985    2.82999992
   17.08694458  116.87500000    4.90999985    2.82999992
   17.09027863  120.20800018    4.90999985    2.82999992
   17.09361267  123.85800171    4.90999985    2.82999992
   17.09694481  112.57399750    4.90999985    2.82999992
   17.10000038  119.90000153    4.90999985    2.82999992
   17.10083389  114.14299774    4.90999985    2.82999992
   17.10361099  117.31999969    4.90999985    2.82999992
   17.10694504  117.40399933    4.90999985    2.80999994
   17.11000061  128.39100647    4.90999985    2.80999994
   17.11611176  128.39100647    4.90999985    2.82999992
   17.12027740  121.06800079    4.90999985    2.82999992
   17.12333298  113.57299805    4.90999985    2.82999992
   17.12666702  125.93499756    4.90999985    2.82999992
   17.13000107  122.43099976    4.90999985    2.80999994
   17.13305473  119.53299713    4.90999985    2.80999994
   17.13416672  120.15399933    4.90999985    2.82999992
   17.13666725  120.72599792    4.90999985    2.82999992
   17.13999939  120.42800140    4.90999985    2.82999992
   17.14305496  119.63800049    4.90999985    2.80999994
   17.14638901  127.49900055    4.90999985    2.82999992
   17.14972115  126.41600037    4.90999985    2.80999994
   17.15277672  120.24299622    4.90999985    2.80999994
   17.15888786  120.24299622    4.90999985    2.82999992
   17.16305542  123.42299652    4.90999985    2.82999992
   17.16638756  123.28099823    4.90999985    2.82999992
   17.16749954  115.15499878    4.90999985    2.82999992
   17.17000008  125.13200378    4.90999985    2.82999992
   17.17333221  125.81099701    4.90999985    2.82999992
   17.17638779  125.07800293    4.90999985    2.82999992
   17.17972183  122.80799866    4.90999985    2.82999992
   17.18305397  127.30100250    4.90999985    2.82999992
   17.18610954  126.87699890    4.90999985    2.82999992
   17.18944359  118.82199860    4.90999985    2.80999994
   17.19277763  114.84899902    4.90999985    2.82999992
   17.19583321  127.21299744    4.90999985    2.80999994
   17.20166779  127.21299744    4.90999985    2.82999992
   17.20583344  122.77200317    4.90999985    2.82999992
   17.20916748  118.98600006    4.90999985    2.82999992
   17.21250153  121.41799927    4.90999985    2.80999994
   17.21555710  124.45999908    4.90999985    2.80999994
   17.21888924  125.47299957    4.90999985    2.80999994
   17.22194481  120.87400055    4.90999985    2.82999992
   17.22527885  124.47399902    4.90999985    2.80999994
   17.22861099  115.73999786    4.90999985    2.80999994
   17.23166656  114.97100067    4.90999985    2.80999994
   17.23416710  117.80599976    4.90999985    2.80999994
   17.23527718  119.94000244    4.90999985    2.82999992
   17.23861122  122.14600372    4.90999985    2.80999994
   17.24472237  122.14600372    4.90999985    2.80999994
   17.24888992  116.47399902    4.90999985    2.80999994
   17.25194359  120.51000214    4.90999985    2.80999994
   17.25527763  113.49199677    4.90999985    2.80999994
   17.25833321  122.45999908    4.90999985    2.80999994
   17.26166725  124.47499847    4.90999985    2.80999994
   17.26499939  120.11199951    4.90999985    2.80999994
   17.26777840  118.63400269    4.90999985    2.82999992
   17.26861000  123.05100250    4.90999985    2.80999994
   17.27194405  112.81400299    4.90999985    2.80999994
   17.27499962  114.87799835    4.90999985    2.82999992
   17.27833366  119.72299957    4.90999985    2.82999992
   17.28166580  121.45899963    4.90999985    2.80999994
   17.28750038  121.45899963    4.90999985    2.80999994
   17.29166603  112.47699738    4.90999985    2.80999994
   17.29472160  119.19000244    4.90999985    2.80999994
   17.29805565  114.72799683    4.90999985    2.80999994
   17.30083275  115.80699921    4.90999985    2.82999992
   17.30166626  117.53500366    4.90999985    2.80999994
   17.30472183  119.01000214    4.90999985    2.80999994
   17.30805397  114.58599854    4.90999985    2.82999992
   17.31138802  120.27600098    4.90999985    2.82999992
   17.31444359  118.42500305    4.90999985    2.80999994
   17.31777954  114.54499817    4.90999985    2.82999992
   17.32111168  110.61699677    4.90999985    2.80999994
   17.32416725  118.14499664    4.90999985    2.80999994
   17.33027840  118.14499664    4.90999985    2.80999994
   17.33444595  113.48200226    4.90999985    2.82999992
   17.33750153  112.72599792    4.90999985    2.80999994
   17.34083366  111.46099854    4.90999985    2.80999994
   17.34416771  111.91899872    4.90999985    2.82999992
   17.34722328  116.14800262    4.90999985    2.82999992
   17.35055542  114.37999725    4.90999985    2.82999992
   17.35361099  113.70400238    4.90999985    2.82999992
   17.35694504  118.86699677    4.90999985    2.82999992
   17.36027908  112.41400146    4.90999985    2.80999994
   17.36333466  111.06700134    4.90999985    2.82999992
   17.36666679  113.83999634    4.90999985    2.80999994
   17.36750031  120.10800171    4.90999985    2.80999994
   17.37305641  120.10800171    4.90999985    2.82999992
   17.37722206  119.95800018    4.90999985    2.82999992
   17.38055611  124.64600372    4.90999985    2.82999992
   17.38361168  122.70300293    4.90999985    2.82999992
   17.40111160  120.43699646    4.90999985    2.82999992
   17.40361023  121.23899841    4.90999985    2.82999992
   17.40694427  126.42900085    4.90999985    2.82999992
   17.40999985  119.04699707    4.90999985    2.82999992
   17.41611099  119.04699707    4.90999985    2.82999992
   17.42027664  122.98100281    4.90999985    2.82999992
   17.42333221  119.09300232    4.90999985    2.82999992
   17.42666626  123.21700287    4.90999985    2.82999992
   17.43000031  125.47799683    4.90999985    2.80999994
   17.43305397  118.61900330    4.90999985    2.82999992
   17.43444443  117.26899719    4.90999985    2.82999992
   17.43694305  114.20300293    4.90999985    2.80999994
   17.43999863  115.48300171    4.90999985    2.80999994
   17.44333267  114.08899689    4.90999985    2.80999994
   17.44666672  116.00900269    4.90999985    2.82999992
   17.44972038  117.33699799    4.90999985    2.80999994
   17.45305634  118.99299622    4.90999985    2.82999992
   17.45888901  118.99299622    4.90999985    2.82999992
   17.46305656  115.76999664    4.90999985    2.80999994
   17.46638870  115.53399658    4.90999985    2.80999994
   17.46777916  119.87300110    4.90999985    2.80999994
   17.47000122  115.65100098    4.90999985    2.80999994
   17.47305679  115.73899841    4.90999985    2.80999994
   17.47638893  115.70500183    4.90999985    2.82999992
   17.47972298  120.16400146    4.90999985    2.80999994
   17.48277855  119.12999725    4.90999985    2.80999994
   17.48611069  117.09500122    4.90999985    2.80999994
   17.48916626  122.63899994    4.90999985    2.82999992
   17.49250031  123.17500305    4.90999985    2.80999994
   17.49583435  116.36299896    4.90999985    2.82999992
   17.50166702  116.36299896    4.90999985    2.80999994
   17.50583267  116.32299805    4.90999985    2.80999994
   17.50916672  119.43800354    4.90999985    2.80999994
   17.51250076  125.64600372    4.90999985    2.80999994
   17.51555634  108.89600372    4.90999985    2.82999992
   17.51888847  108.71900177    4.90999985    2.80999994
   17.52222252  110.84999847    4.90999985    2.80999994
   17.52527809  112.72299957    4.90999985    2.80999994
   17.52861023  118.18099976    4.90999985    2.80999994
   17.53194427  113.23200226    4.90999985    2.80999994
   17.53444481  115.95099640    4.90999985    2.80999994
   17.53555489  121.92800140    4.90999985    2.80999994
   17.53861046  112.84700012    4.90999985    2.82999992
   17.54472160  112.84700012    4.90999985    2.80999994
   17.54888916  114.76399994    4.90999985    2.80999994
   17.55194283  112.88300323    4.90999985    2.80999994
   17.55527687  114.22100067    4.90999985    2.80999994
   17.55833244  118.59700012    4.90999985    2.80999994
   17.56166649  117.15399933    4.90999985    2.82999992
   17.56499863  118.30100250    4.90999985    2.82999992
   17.56777954  122.64900208    4.90999985    2.80999994
   17.56861115  118.14199829    4.90999985    2.82999992
   17.57166672  115.66600037    4.90999985    2.82999992
   17.57500076  121.82299805    4.90999985    2.80999994
   17.57833481  118.66200256    4.90999985    2.80999994
   17.58139038  111.98699951    4.90999985    2.80999994
   17.58750153  111.98699951    4.90999985    2.82999992
   17.59166718  116.35099792    4.90999985    2.82999992
   17.59472275  121.40799713    4.90999985    2.80999994
   17.59805679  112.94899750    4.90999985    2.80999994
   17.60111237  118.82800293    4.90999985    2.82999992
   17.60194397  120.15200043    4.90999985    2.82999992
   17.60499954  116.95200348    4.90999985    2.82999992
   17.60833359  119.27500153    4.90999985    2.82999992
   17.61166763  117.49600220    4.90999985    2.82999992
   17.61472321  116.90799713    4.90999985    2.80999994
   17.61805534  113.76000214    4.90999985    2.80999994
   17.62111092  114.76200104    4.90999985    2.80999994
   17.62444496  114.41999817    4.90999985    2.80999994
   17.63027763  114.41999817    4.90999985    2.82999992
   17.63444519  119.08200073    4.90999985    2.82999992
   17.63777733  114.59200287    4.90999985    2.82999992
   17.64083290  119.00199890    4.90999985    2.82999992
   17.64416695  115.82599640    4.90999985    2.80999994
   17.64749908  114.71600342    4.90999985    2.80999994
   17.65055466  118.47200012    4.90999985    2.80999994
   17.65388870  114.46800232    4.90999985    2.82999992
   17.65694427  110.63800049    4.90999985    2.80999994
   17.66027832  114.57299805    4.90999985    2.80999994
   17.66361046  120.29299927    4.90999985    2.80999994
   17.66666603  124.68099976    4.90999985    2.80999994
   17.66777802  121.18800354    4.90999985    2.82999992
   17.67305565  121.18800354    4.90999985    2.82999992
   17.67722130  118.56600189    4.90999985    2.82999992
   17.68055534  115.45500183    4.90999985    2.80999994
   17.68361092  117.09200287    4.90999985    2.80999994
   17.68722153  110.58999634    4.90999985    2.80999994
   17.69055557  116.26100159    4.90999985    2.80999994
   17.69361115  113.83399963    4.90999985    2.80999994
   17.69694328  116.28399658    4.90999985    2.82999992
   17.70027924  110.17400360    4.90999985    2.80999994
   17.70111275  119.37999725    4.90999985    2.80999994
   17.70388985  112.95099640    4.90999985    2.80999994
   17.70694542  121.32399750    4.90999985    2.82999992
   17.71027946  117.21600342    4.90999985    2.80999994
   17.71611214  117.21600342    4.90999985    2.80999994
   17.72000122  115.58499908    4.90999985    2.80999994
   17.72333336  121.07299805    4.90999985    2.80999994
   17.72666740  119.63500214    4.90999985    2.80999994
   17.72972298  121.85399628    4.90999985    2.82999992
   17.73305511  115.83399963    4.90999985    2.80999994
   17.73444557  120.58100128    4.90999985    2.80999994
   17.73666763  128.24600220    4.90999985    2.80999994
   17.73972321  117.94799805    4.90999985    2.80999994
   17.74305534  119.96700287    4.90999985    2.80999994
   17.74638939  113.19100189    4.90999985    2.80999994
   17.74944496  113.09400177    4.90999985    2.80999994
   17.75277710  112.62699890    4.90999985    2.82999992
   17.76805496  112.62699890    4.90999985    2.80999994
   17.77222252  117.46900177    4.90999985    2.80999994
   17.77527809  114.93900299    4.90999985    2.80999994
   17.77861023  119.15000153    4.90999985    2.80999994
   17.78166580  119.82800293    4.90999985    2.80999994
   17.79361153  126.49600220    0.00000000    0.00000000
   17.79666710  117.17199707    4.90999985    2.80999994
   17.80305481  117.17199707    4.90999985    2.80999994
   17.80694389  128.10200500    4.90999985    2.80999994
   17.81805611  119.41600037    4.90999985    2.80999994
   17.81944466  119.53099823    4.90999985    2.82999992
   17.82277870  125.67600250    4.90999985    2.80999994
   17.82611275  118.49400330    4.90999985    2.82999992
   17.83777809  118.96700287    0.00000000    0.00000000
   17.84111214  115.72599792    4.90999985    2.82999992
   17.84250069  111.41300201    4.90999985    2.82999992
   17.84722328  111.41300201    4.90999985    2.80999994
   17.85138893  117.52899933    4.90999985    2.82999992
   17.85499954  120.06400299    4.90999985    2.82999992
   17.85833359  114.95300293    4.90999985    2.80999994
   17.86138916  123.96600342    4.90999985    2.80999994
   17.86472321  115.52899933    4.90999985    2.82999992
   17.86777878  120.62699890    4.90999985    2.82999992
   17.87111092  127.46700287    4.90999985    2.80999994
   17.87444496  117.24900055    4.90999985    2.80999994
   17.87722206  121.64700317    4.90999985    2.80999994
   17.87916756  119.03099823    4.90999985    2.82999992
   17.88249969  123.64199829    4.90999985    2.82999992
   17.88583374  120.43800354    4.90999985    2.80999994
   17.89027786  120.43800354    4.90999985    2.82999992
   17.89416695  114.27200317    4.90999985    2.82999992
   17.89749908  122.87400055    4.90999985    2.80999994
   17.90083313  115.17700195    4.90999985    2.80999994
   17.90388870  118.59300232    4.90999985    2.80999994
   17.90722275  113.72399902    4.90999985    2.82999992
   17.90916634  124.31099701    4.90999985    2.82999992
   17.91083336  120.92299652    4.90999985    2.80999994
   17.91388893  123.22200012    4.90999985    2.80999994
   17.91722107  119.87799835    4.90999985    2.80999994
   17.92083359  118.91899872    4.90999985    2.80999994
   17.92388916  114.91000366    4.90999985    2.80999994
   17.93583298  112.99500275    0.00000000    0.00000000
   17.93972206  112.99500275    4.90999985    2.82999992
   17.94416618  123.87500000    4.90999985    2.80999994
   17.94749832  114.52899933    4.90999985    2.82999992
   17.95055580  111.55599976    4.90999985    2.80999994
   17.96222305  119.15000153    0.00000000    0.00000000
   17.96555710  115.48799896    4.90999985    2.80999994
   17.96888924  115.21499634    4.90999985    2.78999996
   17.97222328  111.03800201    4.90999985    2.80999994
   17.97527885  113.57199860    4.90999985    2.80999994
   17.98694420  112.94100189    4.90999985    2.80999994
   17.98777771  110.62999725    4.90999985    2.80999994
   17.99111176  107.04399872    4.90999985    2.80999994
   17.99611092  107.04399872    4.90999985    2.82999992
   18.00027847  118.76399994    4.90999985    2.82999992
   18.00361061  114.64700317    4.90999985    2.82999992
   18.00694466  118.61499786    4.90999985    2.80999994
   18.01027870  111.93900299    4.90999985    2.80999994
   18.01138878  114.14700317    4.90999985    2.80999994
   18.01388931  119.37000275    4.90999985    2.80999994
   18.01694489  117.64700317    4.90999985    2.80999994
   18.02027702  113.36699677    4.90999985    2.80999994
   18.02333260  120.53900146    4.90999985    2.80999994
   18.02666664  117.32299805    4.90999985    2.78999996
   18.03000069  115.91200256    4.90999985    2.80999994
   18.04222107  117.32299805    0.00000000    0.00000000
   18.04638863  117.32299805    4.90999985    2.80999994
   18.05055428  113.05400085    4.90999985    2.80999994
   18.05388832  113.98799896    4.90999985    2.80999994
   18.05694389  112.93299866    4.90999985    2.80999994
   18.06027794  106.54599762    4.90999985    2.80999994
   18.06361008  110.18699646    4.90999985    2.78999996
   18.06666756  112.50399780    4.90999985    2.78999996
   18.07000160  110.18099976    4.90999985    2.80999994
   18.07333374  111.37999725    4.90999985    2.78999996
   18.07638931  122.16600037    4.90999985    2.80999994
   18.07805634  108.99400330    4.90999985    2.80999994
   18.08027840  111.37599945    4.90999985    2.80999994
   18.08333397  112.54199982    4.90999985    2.80999994
   18.08916664  112.54199982    4.90999985    2.80999994
   18.09388924  115.87100220    4.90999985    2.82999992
   18.09694481  117.09999847    4.90999985    2.84999990
   18.10027885  114.22000122    4.90999985    2.86999989
   18.10361099  119.01100159    4.90999985    2.86999989
   18.10666656  119.96900177    4.90999985    2.78999996
   18.11000061  119.60800171    4.90999985    2.78999996
   18.11138916  111.42400360    4.90999985    2.78999996
   18.11416626  110.98100281    4.90999985    2.78999996
   18.11722183  116.55000305    4.90999985    2.78999996
   18.12055588  113.57499695    4.90999985    2.78999996
   18.12361145  117.35099792    4.90999985    2.80999994
   18.12694550  122.10399628    4.90999985    2.78999996
   18.13222313  122.10399628    4.90999985    2.80999994
   18.13638878  112.49299622    4.90999985    2.80999994
   18.13972282  127.90200043    4.90999985    2.59999990
   18.14277840  115.26300049    4.90999985    2.84999990
   18.14472198  115.37899780    4.90999985    2.86999989
   18.14638901  114.26000214    4.90999985    2.82999992
   18.14972115  117.07299805    4.90999985    2.82999992
   18.15277672  120.29199982    4.90999985    2.80999994
   18.15611076  143.33000183    4.90999985    2.80999994
   18.15944481  108.47599792    4.90999985    1.46000004
   18.16250038  123.40399933    4.90999985    2.84999990
   18.16583252  120.58100128    4.90999985    2.82999992
   18.16888809  116.81600189    4.90999985    2.78999996
   18.17499924  116.81600189    4.90999985    2.76999998
   18.17916679  113.69699860    4.90999985    2.78999996
   18.18222237  113.75599670    4.90999985    2.78999996
   18.18555450  120.52700043    4.90999985    2.76999998
   18.18888855  113.47299957    4.90999985    2.76999998
   18.19194412  110.17600250    4.90999985    2.78999996
   18.19527626  113.42600250    4.90999985    2.78999996
   18.19861031  114.41300201    4.90999985    2.80999994
   18.20166779  118.36199951    4.90999985    2.80999994
   18.20499992  112.65699768    4.90999985    2.82999992
   18.20805550  109.77600098    4.90999985    2.80999994
   18.21138954  115.13300323    4.90999985    2.80999994
   18.21194458  114.42400360    4.90999985    2.80999994
   18.21777916  114.42400360    4.90999985    2.80999994
   18.22194481  112.87300110    4.90999985    2.82999992
   18.22527885  117.55300140    4.90999985    2.78999996
   18.22833443  120.84999847    4.90999985    2.59999990
   18.23166656  123.15399933    4.90999985    2.39000010
   18.23500061  117.78800201    4.90999985    2.40000010
   18.23916626  130.96899414    4.90999985    2.32999992
   18.24250031  171.08900452    4.90999985    2.48000002
   18.24472237  135.38999939    4.90999985    1.91999996
   18.24611092  237.86399841    4.90999985    1.61000001
   18.24944496  141.77699280    4.90999985    1.94000006
   18.25250053  156.30999756    4.90999985    2.09999990
   18.25583267  135.41200256    4.90999985    2.28999996
   18.26055527  135.41200256    4.90999985    2.13000011
   18.26472282  168.65899658    4.90999985    2.00000000
   18.26805496  143.38200378    4.90999985    2.01999998
   18.27138901  125.03600311    4.90999985    2.09999990
   18.27472115  134.31399536    4.90999985    2.57999992
   18.27777672  125.36599731    4.90999985    2.44000006
   18.27833366  117.10299683    4.90999985    2.44000006
   18.28166580  155.80000305    4.90999985    2.26999998
   18.28499985  218.71299744    4.90999985    1.89999998
   18.28805542  275.45800781    4.90999985    1.98000002
   18.29138756   -1.00000000    4.90999985    1.73000002
   18.29444313   -1.00000000    4.90999985    1.55999994
   18.29777718   -1.00000000    4.90999985    1.23000002
   18.30749893   -1.00000000    4.90999985    0.89999998
   18.31083298   -1.00000000    4.90999985    1.11000001
   18.31444359   -1.00000000    4.90999985    1.28999996
   18.31750107   -1.00000000    4.90999985    1.11000001
   18.32083511   -1.00000000    4.90999985    1.03999996
   18.32389069   -1.00000000    4.90999985    0.55000001
   18.32722282   -1.00000000    4.90999985    0.55000001
   18.33055687   -1.00000000    4.90999985    1.09000003
   18.33361244   -1.00000000    4.90999985    1.13000000
   18.33694458   -1.00000000    4.90999985    0.88000000
   18.34027863   -1.00000000    4.90999985    1.01999998
   18.35027885   -1.00000000    4.90999985    1.25000000
   18.35361099   -1.00000000    4.90999985    1.23000002
   18.35694504   83.58660126    4.90999985    1.38000000
   18.36000061  157.65199280    4.90999985    1.63000000
   18.36333466  140.94400024    4.90999985    1.89999998
   18.36666679  129.35600281    4.90999985    2.39000010
   18.36972237  120.82399750    4.90999985    2.46000004
   18.37305641  124.30999756    4.90999985    2.57999992
   18.37611198  120.37200165    4.90999985    2.61999989
   18.37833405  120.02799988    4.90999985    2.66000009
   18.38000107  121.63999939    4.90999985    2.67000008
   18.38333321  126.91899872    4.90999985    2.61999989
   18.38916588  126.91899872    4.90999985    2.30999994
   18.39333344  122.42700195    4.90999985    2.36999989
   18.39666748  126.00700378    4.90999985    2.42000008
   18.39972115  122.04100037    4.90999985    2.46000004
   18.40305519  119.20600128    4.90999985    2.64000010
   18.40611076   -1.00000000    4.90999985    0.30000001
   18.40944481   -1.00000000    2.57999992    0.05000000
   18.41305542   -1.00000000    4.90999985    0.05000000
   18.41611099  101.67900085    4.90999985    0.09000000
   18.41944313  134.98899841    4.90999985    2.07999992
   18.42277718  136.00799561    4.90999985    2.23000002
   18.42583275  127.32800293    4.90999985    2.28999996
   18.43194389  127.32800293    4.90999985    2.00000000
   18.43610954   -1.00000000    4.90999985    0.61000001
   18.43944359   -1.00000000    4.90999985    0.47999999
   18.45888901  229.78300476    4.90999985    1.94000006
   18.45916748  205.07200623    4.90999985    1.83000004
   18.46333504  218.42500305    4.90999985    2.05999994
   18.46638870   -1.00000000    4.90999985    0.98000002
   18.46972275   -1.00000000    4.90999985    1.39999998
   18.47916794   -1.00000000    4.90999985    0.55000001
   18.48250008   -1.00000000    4.90999985    0.80000001
   18.48555565   -1.00000000    4.90999985    0.79000002
   18.48888969   -1.00000000    4.90999985    0.86000001
   18.49250031   -1.00000000    4.90999985    1.19000006
   18.50250053   -1.00000000    0.00000000    0.00000000
   18.50583267   -1.00000000    4.90999985    0.11000000
   18.50916672   -1.00000000    4.90999985    0.01000000
   18.51222229   -1.00000000    4.90999985    0.01000000
   18.52194405   -1.00000000    4.90999985    0.01000000
   18.52527809   -1.00000000    4.90999985    0.01000000
   18.52888870   -1.00000000    4.90999985    0.01000000
   18.53222275   -1.00000000    4.90999985    0.01000000
   18.53527641   -1.00000000    4.90999985    0.01000000
   18.53861046   -1.00000000    4.90999985    0.01000000
   18.54194450   -1.00000000    4.90999985    0.01000000
   18.54500008   -1.00000000    4.90999985    0.01000000
   18.54833221   -1.00000000    4.90999985    0.01000000
   18.55138779   -1.00000000    4.90999985    0.01000000
   18.55472183   -1.00000000    4.90999985    0.01000000
   18.56472206   -1.00000000    4.90999985    0.01000000
   18.56805611   -1.00000000    4.90999985    0.01000000
   18.57139015   -1.00000000    4.90999985    0.01000000
   18.57444572   -1.00000000    4.90999985    0.01000000
   18.57777786   -1.00000000    4.90999985    0.01000000
   18.58111191   -1.00000000    4.90999985    0.01000000
   18.58416748   -1.00000000    4.90999985    0.01000000
   18.58750153   -1.00000000    4.90999985    0.01000000
   18.59055710   -1.00000000    4.90999985    0.01000000
   18.59416771   -1.00000000    4.90999985    0.01000000
   18.59805679   -1.00000000    4.90999985    0.01000000
   18.60777855   -1.00000000    4.90999985    0.01000000
   18.61111069   -1.00000000    4.90999985    0.01000000
   18.61444473   -1.00000000    4.90999985    0.01000000
   18.61750031   -1.00000000    4.90999985    0.01000000
   18.62083435   -1.00000000    4.90999985    0.01000000
   18.62416649   -1.00000000    4.90999985    0.01000000
   18.62750053   -1.00000000    4.90999985    0.01000000
   18.63083267   -1.00000000    4.90999985    0.01000000
   18.63388824   -1.00000000    4.90999985    0.01000000
   18.63722229   -1.00000000    4.90999985    0.01000000
   18.64055634   -1.00000000    4.90999985    0.01000000
