    HOUR (UT)   FLARE FACTOR    SKY TESTER    SUN TESTER
   11.96166611   -1.00000000   -1.00000000   -1.00000000
   11.98750019   -1.00000000   -1.00000000   -1.00000000
   11.99111176   -1.00000000   -1.00000000   -1.00000000
   13.27750015  152.71699524    4.90999985    2.50000000
   13.28083324  153.29600525    4.90999985    2.51999998
   13.28388977  136.78100586    4.90999985    2.50000000
   13.28722286  143.64300537    4.90999985    2.50000000
   13.29055595  139.63999939    4.90999985    2.48000002
   13.29361153  145.87500000    4.90999985    2.48000002
   13.29777813  145.87500000    4.90999985    2.36999989
   13.30194473  166.47000122    4.90999985    2.25000000
   13.30527782  161.26400757    4.90999985    2.17000008
   13.30833340  135.12100220    4.90999985    2.17000008
   13.31083393  144.77299500    4.90999985    2.40000010
   13.31222248  148.80799866    4.90999985    2.42000008
   13.31527805  156.78700256    4.90999985    2.42000008
   13.31861115  172.46600342    4.90999985    2.30999994
   13.32194424  152.14199829    4.90999985    2.26999998
   13.32499981  175.18499756    4.90999985    2.23000002
   13.32833290  192.23100281    4.90999985    2.17000008
   13.33138847  161.59100342    4.90999985    2.21000004
   13.33472157  166.62699890    4.90999985    2.21000004
   13.34055519  166.62699890    4.90999985    2.09999990
   13.34472179  197.26300049    4.90999985    2.05999994
   13.34805489  248.00799561    4.90999985    2.01999998
   13.35138893  300.65200806    4.90999985    1.98000002
   13.35444450  385.29501343    4.90999985    1.88000000
   13.35777855  401.98901367    4.90999985    1.89999998
   13.35972214  344.02099609    4.90999985    1.88000000
   13.35972214  300.65200806    4.90999985    1.98000002
   13.36000061  385.29501343    4.90999985    1.88000000
   13.36000061  401.98901367    4.90999985    1.89999998
   13.36027813  175.18499756    4.90999985    2.23000002
   13.36027813  192.23100281    4.90999985    2.17000008
   13.36027813  161.59100342    4.90999985    2.21000004
   13.36055565  166.62699890    4.90999985    2.21000004
   13.36055565  197.26300049    4.90999985    2.05999994
   13.36055565  248.00799561    4.90999985    2.01999998
   13.36250019  310.39999390    4.90999985    1.83000004
   13.36583328  207.89700317    4.90999985    1.89999998
   13.36916637  247.66400146    4.90999985    1.94000006
   13.37222195  331.52700806    4.90999985    2.00000000
   13.37555599  285.66101074    4.90999985    1.85000002
   13.38055611  285.66101074    4.90999985    1.75000000
   13.38472176  242.75199890    4.90999985    1.71000004
   13.38805580  177.99499512    4.90999985    1.91999996
   13.39111137  194.88400269    4.90999985    2.01999998
   13.39361095  148.33399963    4.90999985    2.05999994
   13.39499950  210.97000122    4.90999985    2.07999992
   13.39805508  154.57600403    4.90999985    2.05999994
   13.40138817  177.75300598    4.90999985    2.13000011
   13.40472221  177.76100159    4.90999985    2.07999992
   13.40777779  159.82200623    4.90999985    2.15000010
   13.41111088  142.62800598    4.90999985    2.17000008
   13.41416645  173.96099854    4.90999985    2.23000002
   13.41750050  196.01499939    4.90999985    2.21000004
   13.42333412  196.01499939    4.90999985    1.94000006
   13.42750072  339.82299805    4.90999985    1.73000002
   13.43083382  158.50500488    4.90999985    1.83000004
   13.43388939  186.11500549    4.90999985    1.98000002
   13.43722248  203.50100708    4.90999985    2.11999989
   13.44055557  142.89199829    4.90999985    2.13000011
   13.44361115  191.55900574    4.90999985    2.01999998
   13.44694424  195.81100464    4.90999985    2.03999996
   13.45027733  179.17900085    4.90999985    2.09999990
   13.45333290  147.17700195    4.90999985    2.17000008
   13.45666695  141.96600342    4.90999985    2.03999996
   13.45972157  155.00300598    4.90999985    2.15000010
   13.46027756  132.29400635    4.90999985    2.15000010
   13.46638870  132.29400635    4.90999985    2.15000010
   13.47027779  192.85400391    4.90999985    1.96000004
   13.47361088  339.01699829    4.90999985    1.88000000
   13.47694397  165.38699341    4.90999985    1.83000004
   13.47999954  296.48498535    4.90999985    1.85000002
   13.48333359  179.26800537    4.90999985    2.00000000
   13.48666668  209.52600098    4.90999985    2.00000000
   13.48972225  179.25000000    4.90999985    2.05999994
   13.49305534  227.64500427    4.90999985    2.03999996
   13.49361134  238.13900757    4.90999985    2.03999996
   13.49666691  196.58700562    4.90999985    2.00000000
   13.50000000  182.30200195    4.90999985    2.01999998
   13.50305557  185.16999817    4.90999985    2.03999996
   13.50916672  185.16999817    4.90999985    2.09999990
   13.51333332  195.16299438    4.90999985    2.07999992
   13.51638889  178.68099976    4.90999985    2.05999994
   13.51972198  203.16400146    4.90999985    2.09999990
   13.52305508  163.26400757    4.90999985    2.09999990
   13.52611065  194.28300476    4.90999985    2.03999996
   13.52694416  202.12899780    4.90999985    2.01999998
   13.52972221  189.20100403    4.90999985    2.09999990
   13.53305531  202.74000549    4.90999985    2.13000011
   13.53638935  205.06500244    4.90999985    2.09999990
   13.53944492  293.11099243    4.90999985    2.03999996
   13.54277802  284.32800293    4.90999985    1.91999996
   13.54583359  391.84298706    4.90999985    1.91999996
   13.55194473  391.84298706    4.90999985    1.91999996
   13.55611134  385.36700439    4.90999985    1.88000000
   13.55944443  442.67700195    4.90999985    1.85000002
   13.56138897  421.01300049    4.90999985    1.78999996
   13.56277752  179.82200623    4.90999985    1.78999996
   13.56277752  205.06500244    4.90999985    2.09999990
   13.56277752  293.11099243    4.90999985    2.03999996
   13.56305599  284.32800293    4.90999985    1.91999996
   13.56305599  391.84298706    4.90999985    1.91999996
   13.56305599  385.36700439    4.90999985    1.88000000
   13.56333351  442.67700195    4.90999985    1.85000002
   13.56333351  194.28300476    4.90999985    2.03999996
   13.56333351  189.20100403    4.90999985    2.09999990
   13.56361103  202.74000549    4.90999985    2.13000011
   13.56472206  328.59899902    4.90999985    1.75000000
   13.56777763  294.46099854    4.90999985    1.76999998
   13.57111073   23.57019997    4.90999985    1.71000004
   13.57444477   77.31330109    4.90999985    1.63000000
   13.57750034   93.12719727    4.90999985    1.69000006
   13.58333302   93.12719727    4.90999985    1.51999998
   13.58749962   -1.00000000    4.90999985    1.53999996
   13.59083271   -1.00000000    4.90999985    1.39999998
   13.59416676   -1.00000000    4.90999985    1.48000002
   13.59777737   -1.00000000    4.90999985    1.44000006
   13.60083389   -1.00000000    4.90999985    1.38000000
   13.60416698   -1.00000000    4.90999985    1.39999998
   13.60750008   -1.00000000    4.90999985    1.25000000
   13.61055565   -1.00000000    4.90999985    1.25000000
   13.61388969   -1.00000000    4.90999985    1.28999996
   13.61722279   -1.00000000    4.90999985    1.38000000
   13.62027836   -1.00000000    4.90999985    1.39999998
   13.63027763   -1.00000000    4.90999985    1.11000001
   13.63361073   -1.00000000    4.90999985    1.26999998
   13.63694477   -1.00000000    4.90999985    1.39999998
   13.64000034   -1.00000000    4.90999985    1.44000006
   13.64333344   -1.00000000    4.90999985    1.41999996
   13.64638901   -1.00000000    4.90999985    1.38000000
   13.64972210   -1.00000000    4.90999985    1.38000000
   13.65305519   -1.00000000    4.90999985    1.26999998
   13.65611076   -1.00000000    4.90999985    1.25000000
   13.65944386   -1.00000000    4.90999985    1.26999998
   13.66277695   -1.00000000    4.90999985    1.34000003
   13.66916656   -1.00000000    4.90999985    1.50000000
   13.67333412   73.81729889    4.90999985    1.55999994
   13.67638874   36.01770020    4.90999985    1.64999998
   13.67972279   -1.00000000    4.90999985    1.55999994
   13.68305588   -1.00000000    4.90999985    1.48000002
   13.68611145   -1.00000000    4.90999985    1.50000000
   13.68944454   -1.00000000    4.90999985    1.50000000
   13.69277763   -1.00000000    4.90999985    1.48000002
   13.69583321   -1.00000000    4.90999985    1.30999994
   13.69944477   -1.00000000    4.90999985    1.19000006
   13.70249939   -1.00000000    4.90999985    1.21000004
   13.70583344   -1.00000000    4.90999985    1.38000000
   13.71194458   -1.00000000    4.90999985    1.23000002
   13.71611118   -1.00000000    4.90999985    1.19000006
   13.71944427   -1.00000000    4.90999985    1.30999994
   13.72249985   -1.00000000    4.90999985    1.36000001
   13.72583294   -1.00000000    4.90999985    1.48000002
   13.72916603   -1.00000000    4.90999985    1.51999998
   13.73277760   -1.00000000    4.90999985    1.50000000
   13.73583317   -1.00000000    4.90999985    1.50000000
   13.73916721   -1.00000000    4.90999985    1.51999998
   13.74250031   -1.00000000    4.90999985    1.51999998
   13.74555588   -1.00000000    4.90999985    1.53999996
   13.74888897   -1.00000000    4.90999985    1.50000000
   13.75472260   -1.00000000    4.90999985    1.55999994
   13.75888920   23.57019997    4.90999985    1.55999994
   13.76222229  158.34199524    4.90999985    1.64999998
   13.76333332   88.04550171    4.90999985    1.66999996
   13.76583290   97.87590027    4.90999985    1.66999996
   13.76916599   55.26459885    4.90999985    1.61000001
   13.77222157   97.82730103    4.90999985    1.63000000
   13.77555561   52.58530045    4.90999985    1.64999998
   13.77888870   54.57860184    4.90999985    1.61000001
   13.78194427   38.47570038    4.90999985    1.60000002
   13.78527832   44.05179977    4.90999985    1.61000001
   13.78861141   37.24399948    4.90999985    1.61000001
   13.79166698   33.08160019    4.90999985    1.60000002
   13.79777813   33.08160019    4.90999985    1.61000001
   13.80194473   23.57019997    4.90999985    1.55999994
   13.80500031   -1.00000000    4.90999985    1.53999996
   13.80833340   -1.00000000    4.90999985    1.46000004
   13.81138897   -1.00000000    4.90999985    1.46000004
   13.81472206   -1.00000000    4.90999985    1.46000004
   13.81805515   -1.00000000    4.90999985    1.51999998
   13.82138920   -1.00000000    4.90999985    1.50000000
   13.82444477   -1.00000000    4.90999985    1.53999996
   13.82777786   -1.00000000    4.90999985    1.50000000
   13.83138847   -1.00000000    4.90999985    1.48000002
   13.83472157   -1.00000000    4.90999985    1.48000002
   13.84055519   -1.00000000    4.90999985    1.48000002
   13.84472179   -1.00000000    4.90999985    1.44000006
   13.84777737   -1.00000000    4.90999985    1.51999998
   13.85111141   -1.00000000    4.90999985    1.51999998
   13.85444450   -1.00000000    4.90999985    1.48000002
   13.85750008   -1.00000000    4.90999985    1.39999998
   13.86083412   -1.00000000    4.90999985    1.38000000
   13.86444473   -1.00000000    4.90999985    1.39999998
   13.86777782   -1.00000000    4.90999985    1.36000001
   13.87083340   -1.00000000    4.90999985    1.34000003
   13.87416649   -1.00000000    4.90999985    1.46000004
   13.87722206   -1.00000000    4.90999985    1.50000000
   13.88333321   -1.00000000    4.90999985    1.53999996
   13.88749981   -1.00000000   -1.00000000   -1.00000000
   13.89083290   -1.00000000    4.90999985    1.60000002
   13.89388847   -1.00000000    4.90999985    1.50000000
   13.89750004   -1.00000000    4.90999985    1.48000002
   13.90083313   -1.00000000    4.90999985    1.50000000
   13.90388870   -1.00000000    4.90999985    1.51999998
   13.90722179   -1.00000000    4.90999985    1.55999994
   13.91027737   -1.00000000    4.90999985    1.51999998
   13.91361046   -1.00000000    4.90999985    1.55999994
   13.91694450   -1.00000000    4.90999985    1.50000000
   13.92000008   -1.00000000    4.90999985    1.44000006
   13.92611122   -1.00000000    4.90999985    1.48000002
   13.93027782   -1.00000000    4.90999985    1.46000004
   13.93361092   -1.00000000    4.90999985    1.46000004
   13.93694496   -1.00000000    4.90999985    1.46000004
   13.94000053   -1.00000000    4.90999985    1.48000002
   13.94333363   -1.00000000    4.90999985    1.51999998
   13.94638920   -1.00000000    4.90999985    1.53999996
   13.94972229   -1.00000000    4.90999985    1.51999998
   13.95305538   -1.00000000    4.90999985    1.48000002
   13.95611095   -1.00000000    4.90999985    1.51999998
   13.95944405   -1.00000000    4.90999985    1.50000000
   13.96277714   -1.00000000    4.90999985    1.44000006
   13.96916580   -1.00000000    4.90999985    1.38000000
   13.97333336   -1.00000000    4.90999985    1.33000004
   13.97638798   -1.00000000    4.90999985    1.26999998
   13.97972202   -1.00000000    4.90999985    1.21000004
   13.98277760   -1.00000000    4.90999985    1.21000004
   13.98611164   -1.00000000    4.90999985    1.19000006
   13.98944473   -1.00000000    4.90999985    1.25000000
   13.99250031   -1.00000000    4.90999985    1.36000001
   13.99583340   -1.00000000    4.90999985    1.39999998
   13.99944496   -1.00000000    4.90999985    1.41999996
   14.00277805   -1.00000000    4.90999985    1.38000000
   14.00583363   -1.00000000    4.90999985    1.38000000
   14.01194477   -1.00000000    4.90999985    1.36000001
   14.01611137   -1.00000000    4.90999985    1.30999994
   14.01916599   -1.00000000    4.90999985    1.34000003
   14.02250004   -1.00000000    4.90999985    1.39999998
   14.02583313   -1.00000000    4.90999985    1.38000000
   14.02888870   -1.00000000    4.90999985    1.39999998
   14.03249931   -1.00000000    4.90999985    1.38000000
   14.03583336   -1.00000000    4.90999985    1.36000001
   14.03888893   -1.00000000    4.90999985    1.34000003
   14.04222298   -1.00000000    4.90999985    1.41999996
   14.04555607   -1.00000000    4.90999985    1.34000003
   14.04861164   -1.00000000    4.90999985    1.36000001
   14.05472279   -1.00000000    4.90999985    1.38000000
   14.05888939   -1.00000000    4.90999985    1.39999998
   14.06222248   -1.00000000    4.90999985    1.39999998
   14.06555557   -1.00000000    4.90999985    1.30999994
   14.06888866   -1.00000000    4.90999985    1.30999994
   14.07194424   -1.00000000    4.90999985    1.30999994
   14.07527733   -1.00000000    4.90999985    1.25000000
   14.07861137   -1.00000000    4.90999985    1.25000000
   14.08166695   -1.00000000    4.90999985    1.21000004
   14.08500004   -1.00000000    4.90999985    1.19000006
   14.08805561   -1.00000000    4.90999985    1.14999998
   14.09138870   -1.00000000    4.90999985    1.13000000
   14.10166740   -1.00000000    4.90999985    1.13000000
   14.10500050   -1.00000000    4.90999985    1.11000001
   14.10805607   -1.00000000    4.90999985    1.07000005
   14.11138916   -1.00000000    4.90999985    1.07000005
   14.11472225   -1.00000000    4.90999985    1.11000001
   14.11777782   -1.00000000   -1.00000000   -1.00000000
   14.12111092   37.65119934    4.90999985    1.13000000
   14.12416649   39.91260147    4.90999985    1.14999998
   14.12750053   46.14950180    4.90999985    1.19000006
   14.13000011   64.42359924    4.90999985    1.25000000
   14.13111115   62.12030029    4.90999985    1.21000004
   14.13444424   71.58080292    4.90999985    1.33000004
   14.14055538   71.58080292    4.90999985    1.39999998
   14.14472198   64.42819977    4.90999985    1.38000000
   14.14777756   77.75849915    4.90999985    1.36000001
   14.15111065   58.63420105    4.90999985    1.34000003
   14.15416622   52.89609909    4.90999985    1.34000003
   14.15749931   53.49840164    4.90999985    1.34000003
   14.16083336   47.95529938    4.90999985    1.34000003
   14.16333294   65.37329865    4.90999985    1.34000003
   14.16416645   92.10910034    4.90999985    1.34000003
   14.16750050   49.92440033    4.90999985    1.30999994
   14.17083359   43.52949905    4.90999985    1.28999996
   14.17388916   59.83119965    4.90999985    1.28999996
   14.17722225   42.80160141    4.90999985    1.26999998
   14.18333340   42.80160141    4.90999985    1.28999996
   14.18750000   23.57019997    4.90999985    1.25000000
   14.19083309   -1.00000000    4.90999985    1.21000004
   14.19388866   -1.00000000    4.90999985    1.19000006
   14.19750023   -1.00000000   -1.00000000   -1.00000000
   14.20083332   -1.00000000   -1.00000000   -1.00000000
   14.20388889   -1.00000000   -1.00000000   -1.00000000
   14.20722198   52.11920166    4.90999985    1.25000000
   14.21055508   50.24089813    4.90999985    1.34000003
   14.21361065   64.25129700    4.90999985    1.36000001
   14.21694374   -1.00000000    4.90999985    1.34000003
   14.21999931   59.25559998    4.90999985    1.28999996
   14.22611046   59.25559998    4.90999985    1.33000004
   14.23027706   23.57019997    4.90999985    1.23000002
   14.23361111   -1.00000000    4.90999985    1.23000002
   14.23666668   -1.00000000    4.90999985    1.16999996
   14.24000072   -1.00000000    4.90999985    1.14999998
   14.24333382   -1.00000000    4.90999985    1.13000000
   14.24638939   -1.00000000    4.90999985    1.07000005
   14.24972248   -1.00000000    4.90999985    1.07000005
   14.25305557   -1.00000000    4.90999985    1.09000003
   14.25611115   -1.00000000    4.90999985    1.01999998
   14.25944424   -1.00000000    4.90999985    1.03999996
   14.26249981   -1.00000000    4.90999985    1.01999998
   14.27305508   -1.00000000    4.90999985    0.89999998
   14.27638817   -1.00000000    4.90999985    0.67000002
   14.29611111   -1.00000000    4.90999985    1.07000005
   14.29972267   -1.00000000    4.90999985    1.00000000
   14.30277824   -1.00000000    4.90999985    1.05999994
   14.30611134   23.57019997    4.90999985    1.13000000
   14.31194496   23.57019997    4.90999985    1.16999996
   14.31611156   56.11439896    4.90999985    1.19000006
   14.31944466   64.18329620    4.90999985    1.23000002
   14.32277775   61.07450104    4.90999985    1.28999996
   14.32583332   70.29730225    4.90999985    1.28999996
   14.32916641   78.33509827    4.90999985    1.34000003
   14.32999992   59.88809967    4.90999985    1.33000004
   14.33277798   68.80760193    4.90999985    1.26999998
   14.33611107   80.37310028    4.90999985    1.34000003
   14.33916664   85.86519623    4.90999985    1.38000000
   14.34249973   95.11710358    4.90999985    1.39999998
   14.34583282   73.89360046    4.90999985    1.39999998
   14.34888840  108.23600006    4.90999985    1.38000000
   14.35500050  108.23600006    4.90999985    1.39999998
   14.35916710   79.40309906    4.90999985    1.44000006
   14.36222267   83.31189728    4.90999985    1.38000000
   14.36333370   60.61140060    4.90999985    1.38000000
   14.36583328   87.73049927    4.90999985    1.30999994
   14.36916637   66.73609924    4.90999985    1.26999998
   14.37222195   94.67340088    4.90999985    1.28999996
   14.37555599   58.50790024    4.90999985    1.34000003
   14.37888908   85.42600250    4.90999985    1.25000000
   14.38194466   59.73830032    4.90999985    1.21000004
   14.38527775   96.44300079    4.90999985    1.30999994
   14.38861084  124.82900238    4.90999985    1.38000000
   14.39166641   96.00559998    4.90999985    1.41999996
   14.39777756   96.00559998    4.90999985    1.46000004
   14.40194416  116.54100037    4.90999985    1.48000002
   14.40527725  126.80999756    4.90999985    1.50000000
   14.40833282  178.81199646    4.90999985    1.73000002
   14.41166592  146.91499329    4.90999985    1.69000006
   14.41499996  854.13598633    4.90999985    1.71000004
   14.41694450 1042.06994629    4.90999985    1.76999998
   14.41833401  733.29998779    4.90999985    1.76999998
   14.41972256  208.96600342    4.90999985    1.76999998
   14.41972256  124.82900238    4.90999985    1.38000000
   14.41972256   96.00559998    4.90999985    1.41999996
   14.42000008  116.54100037    4.90999985    1.48000002
   14.42000008  126.80999756    4.90999985    1.50000000
   14.42000008  178.81199646    4.90999985    1.73000002
   14.42027855  146.91499329    4.90999985    1.69000006
   14.42027855  854.13598633    4.90999985    1.71000004
   14.42027855   59.73830032    4.90999985    1.21000004
   14.42055607   96.44300079    4.90999985    1.30999994
   14.42111111  131.26400757    4.90999985    1.75000000
   14.42416668  122.25099945    4.90999985    1.64999998
   14.42750072  122.58200073    4.90999985    1.63000000
   14.43083382  122.44100189    4.90999985    1.63000000
   14.43388939  113.08899689    4.90999985    1.64999998
   14.44055557  113.08899689    4.90999985    1.66999996
   14.44444466  123.76899719    4.90999985    1.69000006
   14.44777775  118.78299713    4.90999985    1.64999998
   14.45111084  122.29799652    4.90999985    1.66999996
   14.45361137  110.36299896    4.90999985    1.63000000
   14.45472240  122.60500336    4.90999985    1.60000002
   14.45805550  135.03799438    4.90999985    1.63000000
   14.46138859  124.27200317    4.90999985    1.71000004
   14.46444416  130.69900513    4.90999985    1.66999996
   14.46777725  111.60299683    4.90999985    1.58000004
   14.47083282  113.93800354    4.90999985    1.66999996
   14.47416592  118.94100189    4.90999985    1.63000000
   14.47749996  336.31399536    4.90999985    1.73000002
   14.48333359  336.31399536    4.90999985    1.76999998
   14.48750019 1234.68005371    4.90999985    1.76999998
   14.48944473 1157.60998535    4.90999985    1.83000004
   14.49083328 1085.28002930    4.90999985    1.85000002
   14.49222279  280.10598755    4.90999985    1.83000004
   14.49222279  135.03799438    4.90999985    1.63000000
   14.49222279  124.27200317    4.90999985    1.71000004
   14.49250031  130.69900513    4.90999985    1.66999996
   14.49250031  111.60299683    4.90999985    1.58000004
   14.49250031  113.93800354    4.90999985    1.66999996
   14.49277782  118.94100189    4.90999985    1.63000000
   14.49277782  336.31399536    4.90999985    1.73000002
   14.49277782 1234.68005371    4.90999985    1.76999998
   14.49305534  122.60500336    4.90999985    1.60000002
   14.49361134  411.22900391    4.90999985    1.80999994
   14.49555588  129.17100525    4.90999985    1.78999996
   14.49750042  163.02299500    4.90999985    1.69000006
   14.50083351  894.88702393    4.90999985    1.76999998
   14.50277805  702.15197754    4.90999985    1.78999996
   14.50416660 1043.42004395    4.90999985    1.78999996
   14.50555515 1172.91003418    4.90999985    1.78999996
   14.50694466 1149.89001465    4.90999985    1.83000004
   14.50833321 1196.81005859    4.90999985    1.80999994
   14.50972176 1123.14001465    4.90999985    1.85000002
   14.51138878  935.36602783    4.90999985    1.86000001
   14.51249981  789.64300537    4.90999985    1.94000006
   14.51388931  952.30200195    4.90999985    2.01999998
   14.51555538 1162.93005371    4.90999985    2.00000000
   14.51666641 1149.32995605    4.90999985    1.96000004
   14.51805496 1139.48999023    4.90999985    1.89999998
   14.51944447 1196.71997070    4.90999985    1.83000004
   14.52083302 1212.21997070    4.90999985    1.85000002
   14.52222157 1218.57995605    4.90999985    1.85000002
   14.52361107 1076.60998535    4.90999985    1.88000000
   14.52499962  940.35400391    4.90999985    1.88000000
   14.52638817  940.63897705    4.90999985    1.91999996
   14.52777767  892.77600098    4.90999985    2.01999998
   14.52916622  961.54998779    4.90999985    1.98000002
   14.53055573 1054.81005859    4.90999985    1.94000006
   14.53194427  997.96099854    4.90999985    1.91999996
   14.53333378  891.42999268    4.90999985    1.94000006
   14.53472233  884.10998535    4.90999985    1.96000004
   14.53611183  750.05200195    4.90999985    2.01999998
   14.53750038  763.68499756    4.90999985    2.01999998
   14.53888893  759.37701416    4.90999985    2.03999996
   14.54027843  773.65100098    4.90999985    2.05999994
   14.54166698  823.17498779    4.90999985    2.03999996
   14.54305553  900.94500732    4.90999985    2.03999996
   14.54444504  832.71997070    4.90999985    2.00000000
   14.54583359  851.53802490    4.90999985    2.00000000
   14.54722309  717.69897461    4.90999985    2.01999998
   14.54861164  671.11297607    4.90999985    2.03999996
   14.55000019  673.26300049    4.90999985    2.05999994
   14.55138874  632.32299805    4.90999985    2.05999994
   14.55277824  745.94702148    4.90999985    2.09999990
   14.55416679  810.06597900    4.90999985    2.03999996
   14.55555534  817.49401855    4.90999985    2.01999998
   14.55694485  780.59301758    4.90999985    2.00000000
   14.55833340  756.61700439    4.90999985    2.01999998
   14.55972195  771.39801025    4.90999985    2.00000000
   14.56111145  614.12799072    4.90999985    2.01999998
   14.56250000  740.57299805    4.90999985    2.01999998
   14.56388950  705.95098877    4.90999985    2.01999998
   14.56527805  743.58398438    4.90999985    2.03999996
   14.56666660  735.29302979    4.90999985    2.05999994
   14.56805515  740.10900879    4.90999985    2.05999994
   14.56944466  822.37597656    4.90999985    2.03999996
   14.57083321  871.51898193    4.90999985    2.00000000
   14.57222176  109.72599792    4.90999985    1.91999996
   14.57222176  163.02299500    4.90999985    1.69000006
   14.57250023  894.88702393    4.90999985    1.76999998
   14.57305527  102.68900299    4.90999985    1.83000004
   14.57611084  517.72802734    4.90999985    1.64999998
   14.57833290  201.69999695    4.90999985    1.78999996
   14.57833290  102.68900299    4.90999985    1.83000004
   14.57833290  517.72802734    4.90999985    1.64999998
   14.58027744   93.24199677    4.90999985    1.78999996
   14.58361053   68.59349823    4.90999985    1.58000004
   14.58694458   71.45890045    4.90999985    1.60000002
   14.59000015   90.94680023    4.90999985    1.44000006
   14.59333324 1007.28997803    4.90999985    1.76999998
   14.59527779  937.95501709    4.90999985    1.94000006
   14.59666634   96.49539948    4.90999985    1.86000001
   14.59666634   93.24199677    4.90999985    1.78999996
   14.59694386   68.59349823    4.90999985    1.58000004
   14.59694386   71.45890045    4.90999985    1.60000002
   14.59694386   90.94680023    4.90999985    1.44000006
   14.59722233 1007.28997803    4.90999985    1.76999998
   14.59805489  836.00598145    4.90999985    1.66999996
   14.60000038  132.56500244    4.90999985    1.83000004
   14.60194492  821.08697510    4.90999985    1.75000000
   14.60388947 1007.95001221    4.90999985    1.78999996
   14.60527802  919.55401611    4.90999985    1.76999998
   14.60666752  742.16101074    4.90999985    1.80999994
   14.60805607  773.81799316    4.90999985    1.78999996
   14.60944462  707.94799805    4.90999985    1.78999996
   14.61083412 1003.20001221    4.90999985    1.80999994
   14.61222267 1005.34997559    4.90999985    1.83000004
   14.61361122 1033.00000000    4.90999985    1.85000002
   14.61500072  972.15002441    4.90999985    1.88000000
   14.61638927 1089.06994629    4.90999985    1.85000002
   14.61777782  729.24499512    4.90999985    1.85000002
   14.61916637  953.19598389    4.90999985    1.75000000
   14.62055588  982.62402344    4.90999985    1.78999996
   14.62194443  957.28302002    4.90999985    1.80999994
   14.62333393  693.00701904    4.90999985    1.83000004
   14.62472248  127.70700073    4.90999985    1.80999994
   14.62472248  821.08697510    4.90999985    1.75000000
   14.62527752  134.86399841    4.90999985    1.75000000
   14.62861156   96.90910339    4.90999985    1.63000000
   14.63194466   98.27839661    4.90999985    1.64999998
   14.63500023  105.47399902    4.90999985    1.63000000
   14.63833332  107.07199860    4.90999985    1.69000006
   14.64166641   93.35739899    4.90999985    1.69000006
   14.64555550   93.35739899    4.90999985    1.61000001
   14.64972210   91.75610352    4.90999985    1.39999998
   14.65305519  106.26399994    4.90999985    1.58000004
   14.65638828  980.00701904    4.90999985    1.78999996
   14.65833282  828.87597656    4.90999985    1.88000000
   14.65944386  941.66302490    4.90999985    1.89999998
   14.66083336  942.45898438    4.90999985    1.88000000
   14.66222191 1032.41003418    4.90999985    1.83000004
   14.66361046 1010.04998779    4.90999985    1.78999996
   14.66499996  924.69000244    4.90999985    1.86000001
   14.66638851  987.46002197    4.90999985    1.85000002
   14.66777802  649.16497803    4.90999985    1.86000001
   14.66916656  700.42199707    4.90999985    1.76999998
   14.67055607  844.72100830    4.90999985    1.75000000
   14.67194462  865.24200439    4.90999985    1.78999996
   14.67333412  498.51098633    4.90999985    1.78999996
   14.67472267   93.18630219    4.90999985    1.75000000
   14.67500019  134.86399841    4.90999985    1.75000000
   14.67500019   96.90910339    4.90999985    1.63000000
   14.67527771   98.27839661    4.90999985    1.64999998
   14.67527771  105.47399902    4.90999985    1.63000000
   14.67527771  107.07199860    4.90999985    1.69000006
   14.67555618   93.35739899    4.90999985    1.69000006
   14.67555618   91.75610352    4.90999985    1.39999998
   14.67555618  106.26399994    4.90999985    1.58000004
   14.67583370  980.00701904    4.90999985    1.78999996
   14.67638874   96.49479675    4.90999985    1.71000004
   14.67944431   96.79979706    4.90999985    1.55999994
   14.68277836   63.51480103    4.90999985    1.41999996
   14.68611145   30.83849907    4.90999985    1.41999996
   14.68916702   97.04570007    4.90999985    1.44000006
   14.69555569   97.04570007    4.90999985    1.44000006
   14.69972229   -1.00000000    4.90999985    1.34000003
   14.70305538   -1.00000000    4.90999985    1.19000006
   14.70638847   -1.00000000    4.90999985    1.16999996
   14.71000004   -1.00000000    4.90999985    1.19000006
   14.71305561   -1.00000000    4.90999985    1.25000000
   14.71638870   -1.00000000    4.90999985    1.23000002
   14.71972179   -1.00000000    4.90999985    1.30999994
   14.72277737   36.95529938    4.90999985    1.30999994
   14.72611046   72.90730286    4.90999985    1.44000006
   14.72944355   89.00720215    4.90999985    1.61000001
   14.73249912   81.41929626    4.90999985    1.73000002
   14.73861122   81.41929626    4.90999985    1.76999998
   14.74277782   99.21739960    4.90999985    1.76999998
   14.74583340  124.67500305    4.90999985    1.73000002
   14.74916649  868.99200439    4.90999985    1.80999994
   14.75111103  756.21398926    4.90999985    1.85000002
   14.75249958  816.78802490    4.90999985    1.88000000
   14.75388908  953.93200684    4.90999985    1.94000006
   14.75527763  942.26300049    4.90999985    1.89999998
   14.75666714  882.05798340    4.90999985    1.88000000
   14.75805569  973.52301025    4.90999985    1.86000001
   14.75944424  145.86399841    4.90999985    1.88000000
   14.75944424  868.99200439    4.90999985    1.80999994
   14.75944424   -1.00000000    4.90999985    1.23000002
   14.75972176   -1.00000000    4.90999985    1.30999994
   14.75972176   36.95529938    4.90999985    1.30999994
   14.75972176   72.90730286    4.90999985    1.44000006
   14.76000023   89.00720215    4.90999985    1.61000001
   14.76000023   81.41929626    4.90999985    1.73000002
   14.76027775   99.21739960    4.90999985    1.76999998
   14.76027775  124.67500305    4.90999985    1.73000002
   14.76083374   93.01820374    4.90999985    1.85000002
   14.76416683  905.70397949    4.90999985    1.78999996
   14.76611137  856.18298340    4.90999985    1.88000000
   14.76722240  795.11798096    4.90999985    1.94000006
   14.76861095  827.60498047    4.90999985    1.96000004
   14.76999950  775.16601563    4.90999985    1.94000006
   14.77138901  871.99298096    4.90999985    1.94000006
   14.77277756  740.38500977    4.90999985    1.91999996
   14.77416611  595.14801025    4.90999985    1.91999996
   14.77555561  541.93798828    4.90999985    1.98000002
   14.77694416  512.44201660    4.90999985    2.05999994
   14.77833271  563.40301514    4.90999985    2.07999992
   14.77972221  558.73498535    4.90999985    2.07999992
   14.78111076  443.71099854    4.90999985    2.09999990
   14.78249931  530.37402344    4.90999985    2.13000011
   14.78388977  528.34802246    4.90999985    2.15000010
   14.78527832  504.51199341    4.90999985    2.11999989
   14.78666687  462.11300659    4.90999985    2.11999989
   14.78805637  539.69000244    4.90999985    2.13000011
   14.78944492  701.29400635    4.90999985    2.11999989
   14.79083347  513.77801514    4.90999985    2.09999990
   14.79222298  586.99102783    4.90999985    2.01999998
   14.79361153  648.08801270    4.90999985    2.03999996
   14.79500008  509.07998657    4.90999985    2.03999996
   14.79638958  551.51000977    4.90999985    2.03999996
   14.79777813  458.75299072    4.90999985    2.07999992
   14.79916668  498.43200684    4.90999985    2.09999990
   14.80055618  513.36297607    4.90999985    2.09999990
   14.80194473  519.67102051    4.90999985    2.07999992
   14.80333328  454.85800171    4.90999985    2.07999992
   14.80472279  412.92898560    4.90999985    2.13000011
   14.80611134  438.03500366    4.90999985    2.13000011
   14.80749989  424.00601196    4.90999985    2.13000011
   14.80888939  382.25201416    4.90999985    2.17000008
   14.81027794  374.57101440    4.90999985    2.19000006
   14.81166649  421.55099487    4.90999985    2.21000004
   14.81305599  367.80700684    4.90999985    2.19000006
   14.81444454  426.26400757    4.90999985    2.17000008
   14.81583309  410.15798950    4.90999985    2.19000006
   14.81722260  412.51199341    4.90999985    2.15000010
   14.81861115  404.53201294    4.90999985    2.17000008
   14.81999969  396.98699951    4.90999985    2.19000006
   14.82138920  379.55499268    4.90999985    2.19000006
   14.82277775  331.19900513    4.90999985    2.19000006
   14.82305527   93.01820374    4.90999985    1.85000002
   14.82305527  905.70397949    4.90999985    1.78999996
   14.82361126  365.89801025    4.90999985    2.19000006
   14.82694435  348.80899048    4.90999985    2.17000008
   14.83027744  358.41400146    4.90999985    2.17000008
   14.83333302  364.60501099    4.90999985    2.21000004
   14.83666611  363.58401489    4.90999985    2.25000000
   14.83972168  355.71099854    4.90999985    2.25000000
   14.84388828  355.71099854    4.90999985    2.26999998
   14.84805489  304.60198975    4.90999985    2.26999998
   14.85138893  368.97601318    4.90999985    2.21000004
   14.85444450  344.50500488    4.90999985    2.19000006
   14.85666752  339.47100830    4.90999985    2.09999990
   14.85805607  383.71200562    4.90999985    2.11999989
   14.86138916  377.26199341    4.90999985    2.13000011
   14.86444473  435.03799438    4.90999985    2.11999989
   14.86666679  394.37799072    4.90999985    2.05999994
   14.86777782  434.40499878    4.90999985    2.07999992
   14.86916637  445.84600830    4.90999985    2.03999996
   14.87055588  356.60000610    4.90999985    2.03999996
   14.87194443  476.50601196    4.90999985    2.03999996
   14.87333393  452.90798950    4.90999985    2.01999998
   14.87472248  429.61300659    4.90999985    2.05999994
   14.87611103  412.57598877    4.90999985    2.03999996
   14.87750053  395.42098999    4.90999985    2.05999994
   14.87888908  358.15301514    4.90999985    2.07999992
   14.88027763  459.28399658    4.90999985    2.07999992
   14.88166714  435.00399780    4.90999985    2.07999992
   14.88305569  467.67300415    4.90999985    2.05999994
   14.88444424  507.83999634    4.90999985    2.01999998
   14.88583279  730.37200928    4.90999985    1.98000002
   14.88722229  709.14697266    4.90999985    1.96000004
   14.88861084  632.04998779    4.90999985    1.85000002
   14.89000034  178.74000549    4.90999985    1.80999994
   14.89027786  383.71200562    4.90999985    2.11999989
   14.89027786  377.26199341    4.90999985    2.13000011
   14.89027786  435.03799438    4.90999985    2.11999989
   14.89055538  364.60501099    4.90999985    2.21000004
   14.89055538  363.58401489    4.90999985    2.25000000
   14.89055538  355.71099854    4.90999985    2.25000000
   14.89083290  304.60198975    4.90999985    2.26999998
   14.89083290  368.97601318    4.90999985    2.21000004
   14.89083290  344.50500488    4.90999985    2.19000006
   14.89138889   93.53040314    4.90999985    1.75000000
   14.89472198   92.25579834    4.90999985    1.46000004
   14.89805508   78.78440094    4.90999985    1.55999994
   14.90111065  104.07299805    4.90999985    1.58000004
   14.90444374  100.88099670    4.90999985    1.69000006
   14.91083336  100.88099670    4.90999985    1.48000002
   14.91499996  103.77400208    4.90999985    1.51999998
   14.91833401   69.27449799    4.90999985    1.46000004
   14.92138958   99.63269806    4.90999985    1.53999996
   14.92388916  723.06500244    4.90999985    1.63000000
   14.92527771  743.95501709    4.90999985    1.73000002
   14.92722225  429.42401123    4.90999985    1.86000001
   14.92861176  638.98797607    4.90999985    1.96000004
   14.93000031  608.48999023    4.90999985    1.96000004
   14.93138885  523.65100098    4.90999985    1.94000006
   14.93277836  436.05499268    4.90999985    1.91999996
   14.93416691  722.36102295    4.90999985    1.94000006
   14.93555546  797.02001953    4.90999985    1.89999998
   14.93694496  842.35302734    4.90999985    1.86000001
   14.93833351  821.52301025    4.90999985    1.80999994
   14.93972206  905.23199463    4.90999985    1.76999998
   14.94111156  290.18099976    4.90999985    1.80999994
   14.94111156   93.53040314    4.90999985    1.75000000
   14.94138908   92.25579834    4.90999985    1.46000004
   14.94138908   78.78440094    4.90999985    1.55999994
   14.94138908  104.07299805    4.90999985    1.58000004
   14.94166660  100.88099670    4.90999985    1.69000006
   14.94166660  103.77400208    4.90999985    1.51999998
   14.94166660   69.27449799    4.90999985    1.46000004
   14.94194412   99.63269806    4.90999985    1.53999996
   14.94194412  743.95501709    4.90999985    1.73000002
   14.94250011  802.85601807    4.90999985    1.75000000
   14.94444466  381.97000122    4.90999985    1.78999996
   14.94583321  387.32800293    4.90999985    1.76999998
   14.94722271  652.44000244    4.90999985    1.76999998
   14.94861126  474.44299316    4.90999985    1.76999998
   14.94999981  128.46099854    4.90999985    1.78999996
   14.94999981  802.85601807    4.90999985    1.75000000
   14.95083332  910.34100342    4.90999985    1.75000000
   14.95277786   93.39129639    4.90999985    1.78999996
   14.95444393   92.25720215    4.90999985    1.76999998
   14.95777798   90.39469910    4.90999985    1.66999996
   14.96083355  103.90799713    4.90999985    1.69000006
   14.96416664   81.96759796    4.90999985    1.66999996
   14.96749973   53.52320099    4.90999985    1.58000004
   14.97361088   53.52320099    4.90999985    1.39999998
   14.97777748   -1.00000000    4.90999985    1.36000001
   14.98083305   60.63309860    4.90999985    1.44000006
   14.98416710   -1.00000000    4.90999985    1.46000004
   14.98666668   75.00050354    4.90999985    1.44000006
   14.98777771   67.20480347    4.90999985    1.46000004
   14.99111176   -1.00000000    4.90999985    1.50000000
   14.99444485   87.38430023    4.90999985    1.34000003
   14.99750042   87.42749786    4.90999985    1.55999994
   15.00083351   91.47619629    4.90999985    1.61000001
   15.00416660  396.74398804    4.90999985    1.63000000
   15.00722218  710.73602295    4.90999985    1.80999994
   15.00916672  114.91500092    4.90999985    1.76999998
   15.00944424   -1.00000000    4.90999985    1.50000000
   15.00944424   87.38430023    4.90999985    1.34000003
   15.00944424   87.42749786    4.90999985    1.55999994
   15.00972176   91.47619629    4.90999985    1.61000001
   15.00972176  396.74398804    4.90999985    1.63000000
   15.00972176  710.73602295    4.90999985    1.80999994
   15.01000023   60.63309860    4.90999985    1.44000006
   15.01000023   -1.00000000    4.90999985    1.46000004
   15.01027775   67.20480347    4.90999985    1.46000004
   15.01222229  444.23300171    4.90999985    1.71000004
   15.01416683  476.59201050    4.90999985    1.91999996
   15.01555538  829.09002686    4.90999985    1.88000000
   15.01694393  686.78698730    4.90999985    1.86000001
   15.01833344  393.93798828    4.90999985    1.88000000
   15.01972198  348.24099731    4.90999985    1.98000002
   15.01972198  444.23300171    4.90999985    1.71000004
   15.02027798  324.12200928    4.90999985    2.15000010
   15.02361107  353.03900146    4.90999985    2.25000000
   15.02666664  332.00500488    4.90999985    2.15000010
   15.02999973  406.80499268    4.90999985    2.11999989
   15.03194427  489.03601074    4.90999985    2.11999989
   15.03333378  512.10400391    4.90999985    2.07999992
   15.03472233  627.37298584    4.90999985    2.03999996
   15.03611183  574.30401611    4.90999985    1.98000002
   15.03750038  657.64801025    4.90999985    1.94000006
   15.03888893  597.45697021    4.90999985    1.96000004
   15.04027843  782.57598877    4.90999985    1.91999996
   15.04166698  432.47698975    4.90999985    1.88000000
   15.04305553  567.43103027    4.90999985    1.86000001
   15.04444504  377.60101318    4.90999985    1.91999996
   15.04583359  570.91699219    4.90999985    2.03999996
   15.04722309  629.26300049    4.90999985    1.96000004
   15.04861164  386.35198975    4.90999985    1.89999998
   15.05000019  417.19000244    4.90999985    1.98000002
   15.05138874  331.60101318    4.90999985    2.00000000
   15.05138874  324.12200928    4.90999985    2.15000010
   15.05166721  353.03900146    4.90999985    2.25000000
   15.05166721  332.00500488    4.90999985    2.15000010
   15.05166721  406.80499268    4.90999985    2.11999989
   15.05222225  332.50799561    4.90999985    2.05999994
   15.05555534  311.42898560    4.90999985    2.13000011
   15.05888939  574.95098877    4.90999985    2.17000008
   15.06083393  516.02099609    4.90999985    1.98000002
   15.06194496  680.11602783    4.90999985    1.94000006
   15.06333351  553.78302002    4.90999985    1.96000004
   15.06472206  523.83599854    4.90999985    1.94000006
   15.06611156  458.89401245    4.90999985    1.98000002
   15.06777763  381.03100586    4.90999985    2.05999994
   15.06888866  371.87399292    4.90999985    2.11999989
   15.07027817  616.00201416    4.90999985    2.09999990
   15.07166672  725.54101563    4.90999985    2.03999996
   15.07305527  665.23297119    4.90999985    1.94000006
   15.07444477  781.30401611    4.90999985    1.96000004
   15.07583332  625.68902588    4.90999985    1.91999996
   15.07722187  164.47099304    4.90999985    1.91999996
   15.07750034  332.50799561    4.90999985    2.05999994
   15.07750034  311.42898560    4.90999985    2.13000011
   15.07777786  574.95098877    4.90999985    2.17000008
   15.07833290  297.28500366    4.90999985    1.86000001
   15.08138847   97.25360107    4.90999985    1.83000004
   15.08472157   82.93759918    4.90999985    1.73000002
   15.08777714   87.12779999    4.90999985    1.78999996
   15.09111118   87.94660187    4.90999985    1.63000000
   15.09444427   90.14409637    4.90999985    1.76999998
   15.09861088   90.14409637    4.90999985    1.83000004
   15.10249996  271.90200806    4.90999985    1.76999998
   15.10583401  291.89999390    4.90999985    1.89999998
   15.10916710  182.69299316    4.90999985    1.83000004
   15.11111164  169.62300110    4.90999985    1.86000001
   15.11277771  271.46499634    4.90999985    1.86000001
   15.11611176  926.08300781    4.90999985    1.98000002
   15.11805534  856.61999512    4.90999985    1.96000004
   15.11944485  921.91699219    4.90999985    1.94000006
   15.12083340  872.87799072    4.90999985    1.94000006
   15.12222195  819.35900879    4.90999985    1.91999996
   15.12361145  770.69598389    4.90999985    1.96000004
   15.12500000  821.97497559    4.90999985    2.00000000
   15.12638855  454.41799927    4.90999985    1.96000004
   15.12777805  711.14202881    4.90999985    1.89999998
   15.12916660  481.56600952    4.90999985    1.91999996
   15.13055611  164.69500732    4.90999985    1.91999996
   15.13055611  271.46499634    4.90999985    1.86000001
   15.13055611  926.08300781    4.90999985    1.98000002
   15.13083363   82.93759918    4.90999985    1.73000002
   15.13083363   87.12779999    4.90999985    1.78999996
   15.13083363   87.94660187    4.90999985    1.63000000
   15.13111115   90.14409637    4.90999985    1.76999998
   15.13111115  271.90200806    4.90999985    1.76999998
   15.13138866  291.89999390    4.90999985    1.89999998
   15.13138866  182.69299316    4.90999985    1.83000004
   15.13194466  125.47899628    4.90999985    1.86000001
   15.13527775  717.33001709    4.90999985    1.83000004
   15.13722229  702.10400391    4.90999985    1.89999998
   15.13833332  868.23901367    4.90999985    1.94000006
   15.13972187  788.52502441    4.90999985    1.98000002
   15.14111137  862.61999512    4.90999985    1.91999996
   15.14249992  861.41101074    4.90999985    1.88000000
   15.14388847  754.71697998    4.90999985    1.94000006
   15.14527798  769.35998535    4.90999985    1.94000006
   15.14666653  874.69897461    4.90999985    1.96000004
   15.14805508  873.69897461    4.90999985    1.94000006
   15.14944458  853.96600342    4.90999985    1.94000006
   15.15083313  882.93298340    4.90999985    1.94000006
   15.15222168  727.51000977    4.90999985    1.98000002
   15.15361118  450.57199097    4.90999985    1.98000002
   15.15499973  865.35400391    4.90999985    1.96000004
   15.15638828  741.46002197    4.90999985    2.00000000
   15.15777779  754.83502197    4.90999985    2.00000000
   15.15916634  887.16400146    4.90999985    1.98000002
   15.16055489  861.36798096    4.90999985    1.94000006
   15.16194439  885.19702148    4.90999985    1.89999998
   15.16333294  567.74700928    4.90999985    1.94000006
   15.16472149  512.18402100    4.90999985    2.03999996
   15.16611099  574.88598633    4.90999985    2.05999994
   15.16750050  543.55603027    4.90999985    2.03999996
   15.16888905  503.51199341    4.90999985    2.09999990
   15.17027855  367.48498535    4.90999985    2.07999992
   15.17166710  565.70300293    4.90999985    2.11999989
   15.17305565  492.77801514    4.90999985    2.07999992
   15.17444515  617.41101074    4.90999985    2.03999996
   15.17583370  701.11798096    4.90999985    2.00000000
   15.17722225  732.55603027    4.90999985    1.96000004
   15.17861176  585.38000488    4.90999985    1.96000004
   15.18000031  308.52899170    4.90999985    1.88000000
   15.18027782  125.47899628    4.90999985    1.86000001
   15.18027782  717.33001709    4.90999985    1.83000004
   15.18083382  487.36599731    4.90999985    1.88000000
   15.18305588  682.91699219    4.90999985    1.85000002
   15.18416691  735.99798584    4.90999985    1.86000001
   15.18555546  806.80297852    4.90999985    1.89999998
   15.18694496  658.39398193    4.90999985    1.89999998
   15.18833351  324.81500244    4.90999985    1.98000002
   15.18861103  487.36599731    4.90999985    1.88000000
   15.18916702  392.19601440    4.90999985    1.98000002
   15.19222260  438.04998779    4.90999985    2.07999992
   15.19444466  297.67098999    4.90999985    2.07999992
   15.19444466  392.19601440    4.90999985    1.98000002
   15.19444466  438.04998779    4.90999985    2.07999992
   15.19638920  313.93798828    4.90999985    2.09999990
   15.19972229  520.19500732    4.90999985    2.01999998
   15.20166683  334.63699341    4.90999985    1.98000002
   15.20194435  313.93798828    4.90999985    2.09999990
   15.20194435  520.19500732    4.90999985    2.01999998
   15.20388889  282.93600464    4.90999985    2.07999992
   15.20722198  255.77499390    4.90999985    2.11999989
   15.21027756  212.53799438    4.90999985    2.13000011
   15.21361065  236.80099487    4.90999985    2.34999990
   15.21694374  243.08000183    4.90999985    2.36999989
   15.22249985  243.08000183    4.90999985    2.39000010
   15.22666645  263.92498779    4.90999985    2.25000000
   15.22999954  285.75299072    4.90999985    2.05999994
   15.23305511  411.63400269    4.90999985    2.19000006
   15.23527813  278.40798950    4.90999985    1.94000006
   15.23527813  282.93600464    4.90999985    2.07999992
   15.23527813  255.77499390    4.90999985    2.11999989
   15.23555565  212.53799438    4.90999985    2.13000011
   15.23555565  236.80099487    4.90999985    2.34999990
   15.23555565  243.08000183    4.90999985    2.36999989
   15.23583317  263.92498779    4.90999985    2.25000000
   15.23583317  285.75299072    4.90999985    2.05999994
   15.23611164  411.63400269    4.90999985    2.19000006
   15.23777771  324.70700073    4.90999985    2.11999989
   15.24083328  283.67001343    4.90999985    1.98000002
   15.24416733  210.88200378    4.90999985    2.03999996
   15.24722290  498.89099121    4.90999985    2.05999994
   15.24944496  321.45999146    4.90999985    1.88000000
   15.24944496  324.70700073    4.90999985    2.11999989
   15.24972248  283.67001343    4.90999985    1.98000002
   15.24972248  210.88200378    4.90999985    2.03999996
   15.24972248  498.89099121    4.90999985    2.05999994
   15.25166702  299.97698975    4.90999985    1.98000002
   15.25500011  512.78198242    4.90999985    1.91999996
   15.25694466  565.07598877    4.90999985    1.85000002
   15.25833321  390.55099487    4.90999985    1.83000004
   15.25972176  296.21798706    4.90999985    1.83000004
   15.25972176  299.97698975    4.90999985    1.98000002
   15.26000023  512.78198242    4.90999985    1.91999996
   15.26055527  368.48001099    4.90999985    1.83000004
   15.26361084  320.60400391    4.90999985    1.98000002
   15.26694393  477.65200806    4.90999985    1.89999998
   15.26888847  617.41699219    4.90999985    1.88000000
   15.27027798  473.61300659    4.90999985    1.86000001
   15.27166653  402.47399902    4.90999985    1.78999996
   15.27305508   -1.00000000   -1.00000000   -1.00000000
   15.27305508  368.48001099    4.90999985    1.83000004
   15.27333355  320.60400391    4.90999985    1.98000002
   15.27333355  477.65200806    4.90999985    1.89999998
   15.27388859   -1.00000000   -1.00000000   -1.00000000
   15.27722168   -1.00000000    4.90999985    1.53999996
   15.28027725   -1.00000000    4.90999985    1.11000001
   15.28361130   -1.00000000    4.90999985    0.83999997
   15.28666687   -1.00000000    4.90999985    0.80000001
   15.29000092   -1.00000000    4.90999985    1.30999994
   15.29416752   -1.00000000    4.90999985    1.39999998
   15.31250000   -1.00000000    4.90999985    1.41999996
   15.31583309   -1.00000000    4.90999985    1.53999996
   15.31888866   -1.00000000    4.90999985    1.46000004
   15.32222176   -1.00000000    4.90999985    1.41999996
   15.32555580   -1.00000000    4.90999985    1.28999996
   15.32861137   -1.00000000    4.90999985    1.33000004
   15.33194447   -1.00000000    4.90999985    1.39999998
   15.33722210   -1.00000000    4.90999985    1.39999998
   15.34138870   -1.00000000    4.90999985    1.44000006
   15.34472179   -1.00000000    4.90999985    1.36000001
   15.34805489   -1.00000000    4.90999985    1.30999994
   15.35138893   -1.00000000    4.90999985    1.16999996
   15.35472298   -1.00000000    4.90999985    1.01999998
   15.35777855   -1.00000000    4.90999985    0.55000001
   15.36111164   -1.00000000    4.90999985    0.63000000
   15.36444473   -1.00000000    4.90999985    0.73000002
   15.36750031   -1.00000000    4.90999985    0.76999998
   15.37083340   -1.00000000    4.90999985    0.89999998
   15.37388897   -1.00000000    4.90999985    0.98000002
   15.38416672   -1.00000000    4.90999985    0.83999997
   15.38749981   -1.00000000    4.90999985    0.81999999
   15.39055538   -1.00000000    4.90999985    0.75000000
   15.39388847   -1.00000000    4.90999985    0.86000001
   15.39694405   -1.00000000    4.90999985    1.00000000
   15.40027714   -1.00000000    4.90999985    0.89999998
   15.40361118   -1.00000000    4.90999985    1.09000003
   15.40666676   -1.00000000    4.90999985    1.07000005
   15.40999985   -1.00000000    4.90999985    1.16999996
   15.41333294   -1.00000000    4.90999985    1.25000000
   15.41666698   -1.00000000    4.90999985    1.33000004
   15.42305565   -1.00000000    4.90999985    1.16999996
   15.42694473   -1.00000000    4.90999985    1.26999998
   15.43027782   -1.00000000    4.90999985    1.30999994
   15.43361092   -1.00000000    4.90999985    1.33000004
   15.43666649   -1.00000000    4.90999985    1.25000000
   15.44000053   -1.00000000    4.90999985    1.26999998
   15.44333363   -1.00000000    4.90999985    1.36000001
   15.44666672   -1.00000000    4.90999985    1.36000001
   15.44999981   -1.00000000    4.90999985    1.36000001
   15.45333290   -1.00000000    4.90999985    1.41999996
   15.45638847   -1.00000000    4.90999985    1.38000000
   15.45972157   -1.00000000    4.90999985    1.33000004
   15.46583271   -1.00000000    4.90999985    1.30999994
   15.46999931   -1.00000000    4.90999985    1.34000003
   15.47305489   -1.00000000    4.90999985    1.23000002
   15.47638798   -1.00000000    4.90999985    1.33000004
   15.47999954   -1.00000000    4.90999985    1.21000004
   15.48305511   -1.00000000    4.90999985    1.14999998
   15.48638916   -1.00000000    4.90999985    1.21000004
   15.48944473   -1.00000000    4.90999985    1.34000003
   15.49277782   -1.00000000    4.90999985    1.36000001
   15.49611092   56.09389877    4.90999985    1.48000002
   15.49916649   -1.00000000    4.90999985    1.55999994
   15.50249958   -1.00000000    4.90999985    1.51999998
   15.50861073   -1.00000000    4.90999985    1.50000000
   15.51277733   -1.00000000    4.90999985    1.46000004
   15.51611137   -1.00000000    4.90999985    1.41999996
   15.51916599   -1.00000000    4.90999985    1.38000000
   15.52250004   -1.00000000   -1.00000000   -1.00000000
   15.52555561   -1.00000000    4.90999985    1.46000004
   15.52888870   -1.00000000    4.90999985    1.51999998
   15.53222179   48.35689926    4.90999985    1.60000002
   15.53527832   -1.00000000    4.90999985    1.60000002
   15.53861141   -1.00000000    4.90999985    1.51999998
   15.54194450   -1.00000000    4.90999985    1.48000002
   15.54500008   -1.00000000    4.90999985    1.50000000
   15.55138874   -1.00000000    4.90999985    1.53999996
   15.55555534   -1.00000000    4.90999985    1.48000002
   15.55888939   -1.00000000    4.90999985    1.44000006
   15.56194496   -1.00000000    4.90999985    1.44000006
   15.56527805   -1.00000000    4.90999985    1.41999996
   15.56861115   -1.00000000    4.90999985    1.36000001
   15.57166672   -1.00000000    4.90999985    1.34000003
   15.57499981   -1.00000000    4.90999985    1.30999994
   15.57833290   -1.00000000    4.90999985    1.16999996
   15.58194447   -1.00000000    4.90999985    1.14999998
   15.58500004   -1.00000000    4.90999985    1.07000005
   15.58833313   -1.00000000    4.90999985    1.03999996
   15.59833336   -1.00000000    4.90999985    1.01999998
   15.60166740   -1.00000000    4.90999985    1.03999996
   15.60472298   -1.00000000    4.90999985    1.01999998
   15.60805607   -1.00000000    4.90999985    1.05999994
   15.61138916   -1.00000000    4.90999985    1.05999994
   15.61500072   -1.00000000    4.90999985    1.09000003
   15.61805534   -1.00000000    4.90999985    1.13000000
   15.62138939   -1.00000000    4.90999985    1.13000000
   15.62444496   -1.00000000    4.90999985    1.09000003
   15.62777805   -1.00000000    4.90999985    1.14999998
   15.63111115   -1.00000000    4.90999985    1.11000001
   15.64111137   -1.00000000    4.90999985    1.05999994
   15.64444447   -1.00000000    4.90999985    1.09000003
   15.64805508   -1.00000000    4.90999985    1.05999994
   15.65111065   -1.00000000    4.90999985    1.03999996
   15.65444374   -1.00000000    4.90999985    1.13000000
   15.65749931   -1.00000000    4.90999985    1.14999998
   15.66083336   -1.00000000    4.90999985    1.19000006
   15.66416645   -1.00000000    4.90999985    1.14999998
   15.66722298   -1.00000000    4.90999985    1.14999998
   15.67055607   -1.00000000    4.90999985    1.16999996
   15.67388916   -1.00000000    4.90999985    1.14999998
   15.68416691   -1.00000000    4.90999985    1.03999996
   15.68722248   -1.00000000    4.90999985    1.05999994
   15.69055557   -1.00000000    4.90999985    1.11000001
   15.69388866   -1.00000000    4.90999985    1.13000000
   15.69694424   -1.00000000    4.90999985    1.14999998
   15.70027733   -1.00000000    4.90999985    1.21000004
   15.70333290   -1.00000000    4.90999985    1.21000004
   15.70666695   -1.00000000    4.90999985    1.21000004
   15.71000004   -1.00000000    4.90999985    1.25000000
   15.71361065   -1.00000000    4.90999985    1.30999994
   15.71666622   -1.00000000    4.90999985    1.28999996
   15.72277737   -1.00000000    4.90999985    1.33000004
   15.72694397   -1.00000000    4.90999985    1.38000000
   15.73027706   -1.00000000    4.90999985    1.39999998
   15.73361111   -1.00000000    4.90999985    1.39999998
   15.73666668   -1.00000000    4.90999985    1.41999996
   15.74000072   -1.00000000    4.90999985    1.46000004
   15.74305534   -1.00000000    4.90999985    1.38000000
   15.74694443   -1.00000000    4.90999985    1.30999994
   15.75000000   -1.00000000    4.90999985    1.21000004
   15.75333309   -1.00000000    4.90999985    1.30999994
   15.75638866   -1.00000000    4.90999985    1.25000000
   15.75972176   -1.00000000    4.90999985    1.26999998
   15.76583290   -1.00000000    4.90999985    1.30999994
   15.76999950   -1.00000000    4.90999985    1.33000004
   15.77305508   -1.00000000    4.90999985    1.34000003
   15.77638817   -1.00000000    4.90999985    1.28999996
   15.77999973   -1.00000000    4.90999985    1.25000000
   15.78305531   -1.00000000    4.90999985    1.23000002
   15.78638935   -1.00000000    4.90999985    1.33000004
   15.78944492   -1.00000000    4.90999985    1.34000003
   15.79277802   -1.00000000    4.90999985    1.36000001
   15.79611111   -1.00000000    4.90999985    1.30999994
   15.79916668   -1.00000000    4.90999985    1.33000004
   15.80249977   -1.00000000    4.90999985    1.33000004
   15.80861092   -1.00000000    4.90999985    1.28999996
   15.81277752   -1.00000000    4.90999985    1.34000003
   15.81583309   -1.00000000    4.90999985    1.25000000
   15.81916618   -1.00000000    4.90999985    1.19000006
   15.82250023   -1.00000000    4.90999985    1.07000005
   15.82555580   -1.00000000    4.90999985    1.13000000
   15.82888889   -1.00000000    4.90999985    1.07000005
   15.83222198   -1.00000000    4.90999985    1.19000006
   15.83527756   -1.00000000    4.90999985    1.25000000
   15.83861065   -1.00000000    4.90999985    1.30999994
   15.84166622   -1.00000000    4.90999985    1.30999994
   15.84499931   -1.00000000    4.90999985    1.26999998
   15.85555553   -1.00000000    4.90999985    1.19000006
   15.85861111   -1.00000000    4.90999985    1.21000004
   15.86194515   -1.00000000    4.90999985    1.23000002
   15.86527824   -1.00000000    4.90999985    1.30999994
   15.86833382   -1.00000000    4.90999985    1.33000004
   15.87166691   -1.00000000    4.90999985    1.34000003
   15.87472248   -1.00000000    4.90999985    1.36000001
   15.87805557   -1.00000000    4.90999985    1.30999994
   15.88166714   -1.00000000    4.90999985    1.46000004
   15.88472176   -1.00000000    4.90999985    1.48000002
   15.88805580   -1.00000000    4.90999985    1.46000004
   15.89416695   -1.00000000    4.90999985    1.48000002
   15.89833355   -1.00000000    4.90999985    1.50000000
   15.90166664   -1.00000000    4.90999985    1.50000000
   15.90499973   -1.00000000    4.90999985    1.46000004
   15.90805531   -1.00000000    4.90999985    1.46000004
   15.91138840   -1.00000000    4.90999985    1.46000004
   15.91499996   -1.00000000    4.90999985    1.46000004
   15.91805553   -1.00000000    4.90999985    1.50000000
   15.92138958   -1.00000000    4.90999985    1.51999998
   15.92472267   -1.00000000    4.90999985    1.53999996
   15.92777824   -1.00000000    4.90999985    1.51999998
   15.93111134   -1.00000000    4.90999985    1.48000002
   15.93722248   -1.00000000    4.90999985    1.50000000
   15.94138908   -1.00000000    4.90999985    1.55999994
   15.94444466   -1.00000000    4.90999985    1.55999994
   15.94805527   -1.00000000    4.90999985    1.58000004
   15.95111084   -1.00000000    4.90999985    1.51999998
   15.95444393   -1.00000000    4.90999985    1.53999996
   15.95777798   -1.00000000    4.90999985    1.53999996
   15.96083355   -1.00000000    4.90999985    1.55999994
   15.96416664   -1.00000000    4.90999985    1.58000004
   15.96722221   -1.00000000    4.90999985    1.55999994
   15.97055531   -1.00000000    4.90999985    1.60000002
   15.97388840   -1.00000000    4.90999985    1.60000002
   15.97999954   -1.00000000    4.90999985    1.61000001
   15.98416710   -1.00000000    4.90999985    1.61000001
   15.98722267   -1.00000000    4.90999985    1.61000001
   15.99055576   -1.00000000    4.90999985    1.61000001
   15.99388885   -1.00000000    4.90999985    1.63000000
   15.99694443   -1.00000000    4.90999985    1.58000004
   16.00027847   -1.00000000    4.90999985    1.55999994
   16.00361061   -1.00000000    4.90999985    1.60000002
   16.00666618   -1.00000000    4.90999985    1.55999994
   16.01000023   -1.00000000    4.90999985    1.55999994
   16.01361084   -1.00000000    4.90999985    1.50000000
   16.01666641   -1.00000000    4.90999985    1.53999996
   16.02277756   -1.00000000    4.90999985    1.50000000
   16.02694511   -1.00000000    4.90999985    1.46000004
   16.03027725   -1.00000000    4.90999985    1.50000000
   16.03333282   -1.00000000    4.90999985    1.51999998
   16.03666687   -1.00000000    4.90999985    1.50000000
   16.03999901   -1.00000000    4.90999985    1.51999998
   16.04305458   -1.00000000    4.90999985    1.51999998
   16.04666710   -1.00000000    4.90999985    1.51999998
   16.04972076   -1.00000000    4.90999985    1.50000000
   16.05305481   -1.00000000    4.90999985    1.58000004
   16.05638885   -1.00000000    4.90999985    1.61000001
   16.05944443   -1.00000000    4.90999985    1.51999998
   16.06972313   -1.00000000    4.90999985    1.09000003
   16.07305717   -1.00000000    4.90999985    1.14999998
   16.07611275   -1.00000000    4.90999985    1.26999998
   16.07972336   -1.00000000    4.90999985    1.33000004
   16.08277893   -1.00000000    4.90999985    1.39999998
   16.08611107   -1.00000000    4.90999985    1.33000004
   16.08944511   -1.00000000    4.90999985    1.39999998
   16.09250069   -1.00000000    4.90999985    1.46000004
   16.09583473   -1.00000000    4.90999985    1.61000001
   16.09889030   -1.00000000    4.90999985    1.53999996
   16.10222244   -1.00000000    4.90999985    1.48000002
   16.11250114   -1.00000000    4.90999985    1.30999994
   16.11583328   -1.00000000    4.90999985    1.30999994
   16.11888885   -1.00000000    4.90999985    1.26999998
   16.12222290   -1.00000000    4.90999985    1.28999996
   16.12555504   -1.00000000    4.90999985    1.16999996
   16.12861061   -1.00000000    4.90999985    1.21000004
   16.13194466   -1.00000000    4.90999985    1.39999998
   16.13527679   -1.00000000    4.90999985    1.39999998
   16.13833237   -1.00000000    4.90999985    1.46000004
   16.14166641   -1.00000000    4.90999985    1.51999998
   16.14472198   -1.00000000    4.90999985    1.53999996
   16.15138817   -1.00000000    4.90999985    1.50000000
   16.15555573   -1.00000000    4.90999985    1.51999998
   16.15861130   -1.00000000    4.90999985    1.58000004
   16.16194344   -1.00000000    4.90999985    1.58000004
   16.16527748   -1.00000000    4.90999985    1.46000004
   16.16833305   -1.00000000    4.90999985    1.61000001
   16.17166519   -1.00000000   -1.00000000   -1.00000000
   16.17499924   -1.00000000    4.90999985    1.71000004
   16.17805481   23.57019997    4.90999985    1.75000000
   16.17916679   -1.00000000   -1.00000000   -1.00000000
   16.18166542  317.51501465    4.90999985    1.75000000
   16.18499947  357.00201416    4.90999985    1.86000001
   16.18805504   -1.00000000    4.90999985    1.73000002
   16.19416618   -1.00000000    4.90999985    1.91999996
   16.19833183  177.57600403    4.90999985    1.96000004
   16.20166779  168.49200439    4.90999985    1.94000006
   16.20472336  210.02799988    4.90999985    1.96000004
   16.20805550  149.59800720    4.90999985    1.83000004
   16.21138954   -1.00000000    4.90999985    1.64999998
   16.21472359   -1.00000000    4.90999985    1.19000006
   16.21777916   -1.00000000    4.90999985    1.00000000
   16.22111130   -1.00000000    4.90999985    0.89999998
   16.22444534   -1.00000000    4.90999985    1.13000000
   16.22750092   -1.00000000    4.90999985    1.26999998
   16.23083305   -1.00000000    4.90999985    1.23000002
   16.24111176   -1.00000000    4.90999985    1.25000000
   16.24444389   -1.00000000    4.90999985    1.28999996
   16.24777794   -1.00000000    4.90999985    1.26999998
   16.25111198   -1.00000000    4.90999985    1.60000002
   16.25416756   -1.00000000    4.90999985    1.64999998
   16.25749969   -1.00000000    4.90999985    1.64999998
   16.26083374   -1.00000000    4.90999985    1.58000004
   16.26388931   -1.00000000    4.90999985    1.60000002
   16.26722145   -1.00000000    4.90999985    1.64999998
   16.27055550   -1.00000000    4.90999985    1.69000006
   16.27361107   -1.00000000    4.90999985    1.55999994
   16.28000069   -1.00000000    4.90999985    1.73000002
   16.28388786   74.66169739    4.90999985    1.76999998
   16.28722191   65.76550293    4.90999985    1.78999996
   16.29055595   38.68600082    4.90999985    1.75000000
   16.29361153   23.57019997    4.90999985    1.83000004
   16.29694366   -1.00000000    4.90999985    1.66999996
   16.30027771   58.65129852    4.90999985    1.66999996
   16.30333328   -1.00000000    4.90999985    1.73000002
   16.30666542   -1.00000000    4.90999985    1.69000006
   16.30972099   -1.00000000    4.90999985    1.61000001
   16.33305550   -1.00000000    4.90999985    1.66999996
   16.33722305   38.39270020    4.90999985    1.78999996
   16.34027863   -1.00000000    4.90999985    1.69000006
   16.34361267   -1.00000000    4.90999985    1.73000002
   16.34722328   -1.00000000    4.90999985    1.71000004
   16.35055542   -1.00000000    4.90999985    1.71000004
   16.35361099   -1.00000000    4.90999985    1.71000004
   16.35694504   -1.00000000    4.90999985    1.61000001
   16.36027908   -1.00000000    4.90999985    1.60000002
   16.36333466   -1.00000000    4.90999985    1.36000001
   16.36666679   -1.00000000    4.90999985    1.46000004
   16.37000084   -1.00000000    4.90999985    1.39999998
   16.37583351   -1.00000000    4.90999985    1.33000004
   16.38000107   -1.00000000    4.90999985    1.60000002
   16.38305473   -1.00000000    4.90999985    1.48000002
   16.38638878   -1.00000000    4.90999985    1.69000006
   16.38944435   -1.00000000    4.90999985    1.75000000
   16.39277840   -1.00000000    4.90999985    1.60000002
   16.39611053   -1.00000000    4.90999985    1.51999998
   16.39916611   -1.00000000    4.90999985    1.51999998
   16.40250015   -1.00000000    4.90999985    1.58000004
   16.40583229   -1.00000000    4.90999985    1.50000000
   16.40888786   -1.00000000    4.90999985    1.46000004
   16.41222191   -1.00000000    4.90999985    1.39999998
   16.41860962   -1.00000000    4.90999985    1.60000002
   16.42277718   -1.00000000    4.90999985    1.41999996
   16.42583275   -1.00000000    4.90999985    1.39999998
   16.42916679   -1.00000000    4.90999985    1.38000000
   16.43249893   -1.00000000    4.90999985    1.11000001
   16.43555450   -1.00000000    4.90999985    1.46000004
   16.43888855   -1.00000000    4.90999985    1.38000000
   16.44222069   -1.00000000    4.90999985    1.34000003
   16.44527626   -1.00000000    4.90999985    1.46000004
   16.44888878   -1.00000000    4.90999985    1.53999996
   16.45222282   -1.00000000    4.90999985    1.48000002
   16.45527840   -1.00000000    4.90999985    1.53999996
   16.46138954   -1.00000000    4.90999985    1.48000002
   16.46555710   -1.00000000    4.90999985    1.39999998
   16.46888924   -1.00000000    4.90999985    1.44000006
   16.47194481   -1.00000000    4.90999985    1.50000000
   16.47527885   -1.00000000    4.90999985    1.51999998
   16.47861099   -1.00000000    4.90999985    1.60000002
   16.48194504   -1.00000000    4.90999985    1.55999994
   16.48527718   -1.00000000    4.90999985    1.58000004
   16.48833275   -1.00000000    4.90999985    1.60000002
   16.49166679   -1.00000000    4.90999985    1.61000001
   16.49500084   -1.00000000    4.90999985    1.78999996
   16.49805641   -1.00000000    4.90999985    1.75000000
   16.50444412   -1.00000000    4.90999985    1.60000002
   16.50833321   -1.00000000    4.90999985    1.50000000
   16.51166725   -1.00000000    4.90999985    1.46000004
   16.51527786   -1.00000000    4.90999985    1.26999998
   16.51861000   -1.00000000    4.90999985    1.23000002
   16.52166557   -1.00000000    4.90999985    1.13000000
   16.52499962   -1.00000000    4.90999985    1.16999996
   16.52833366   -1.00000000    4.90999985    1.36000001
   16.53138924   -1.00000000    4.90999985    1.33000004
   16.53472137   -1.00000000    4.90999985    1.25000000
   16.53777695   -1.00000000    4.90999985    1.30999994
   16.54111099   -1.00000000    4.90999985    1.36000001
   16.55111122   -1.00000000    4.90999985    1.48000002
   16.55444336   -1.00000000    4.90999985    1.50000000
   16.55777740   -1.00000000    4.90999985    1.46000004
   16.56083298   -1.00000000    4.90999985    1.46000004
   16.56416512   -1.00000000    4.90999985    1.58000004
   16.56722260   -1.00000000    4.90999985    1.28999996
   16.57055664   -1.00000000    4.90999985    1.33000004
   16.57389069   -1.00000000    4.90999985    1.30999994
   16.57694626   -1.00000000    4.90999985    1.33000004
   16.58055687   -1.00000000    4.90999985    1.39999998
   16.58388901   -1.00000000    4.90999985    1.50000000
   16.59000015   -1.00000000    4.90999985    1.60000002
   16.59416771   -1.00000000    4.90999985    1.53999996
   16.59722328   -1.00000000    4.90999985    1.60000002
   16.60055542   -1.00000000    4.90999985    1.66999996
   16.60388947   -1.00000000    4.90999985    1.60000002
   16.60694504   -1.00000000    4.90999985    1.55999994
   16.61027908   -1.00000000    4.90999985    1.61000001
   16.61388969   -1.00000000    4.90999985    1.50000000
   16.61722183   -1.00000000    4.90999985    1.55999994
   16.62027740   -1.00000000    4.90999985    1.61000001
   16.62361145   -1.00000000    4.90999985    1.64999998
   16.62694550   -1.00000000    4.90999985    1.61000001
   16.63277817   -1.00000000    4.90999985    1.64999998
   16.63694382   -1.00000000    4.90999985    1.58000004
   16.64027786   -1.00000000    4.90999985    1.61000001
   16.64333344   -1.00000000    4.90999985    1.51999998
   16.64694405   -1.00000000    4.90999985    1.51999998
   16.65027809   -1.00000000    4.90999985    1.41999996
   16.65333366   -1.00000000    4.90999985    1.39999998
   16.65666580   -1.00000000    4.90999985    1.46000004
   16.65999985   -1.00000000    4.90999985    1.46000004
   16.66305542   -1.00000000    4.90999985    1.53999996
   16.66638756   -1.00000000    4.90999985    1.53999996
   16.66944313   -1.00000000    4.90999985    1.51999998
   16.67555428   -1.00000000    4.90999985    1.51999998
   16.67972183   -1.00000000    4.90999985    1.34000003
   16.68305397   -1.00000000    4.90999985    1.38000000
   16.68638802   -1.00000000    4.90999985    1.34000003
   16.68944359   -1.00000000    4.90999985    1.41999996
   16.69277763   -1.00000000    4.90999985    1.48000002
   16.69583321   -1.00000000    4.90999985    1.48000002
   16.69916534   -1.00000000    4.90999985    1.51999998
   16.70250130   -1.00000000    4.90999985    1.58000004
   16.70555687   -1.00000000    4.90999985    1.53999996
   16.70888901   -1.00000000    4.90999985    1.51999998
   16.71222305   -1.00000000    4.90999985    1.61000001
   16.71861076   -1.00000000    4.90999985    1.63000000
   16.72277832   -1.00000000    4.90999985    1.69000006
   16.72583389   -1.00000000    4.90999985    1.61000001
   16.72916794   -1.00000000    4.90999985    1.73000002
   16.73222351  167.96600342    4.90999985    1.69000006
   16.73555565  210.85000610    4.90999985    1.78999996
   16.73888969  143.16600037    4.90999985    1.91999996
   16.74194527  137.41499329    4.90999985    2.01999998
   16.74527740  125.24900055    4.90999985    2.05999994
   16.74611092  141.61599731    4.90999985    2.01999998
   16.74888992  129.08799744    4.90999985    2.01999998
   16.75194359  193.63099670    4.90999985    2.00000000
   16.75527763  133.63400269    4.90999985    1.96000004
   16.76138878  133.63400269    4.90999985    1.88000000
   16.76555634  237.95899963    4.90999985    1.69000006
   16.76888847  251.15199280    4.90999985    1.80999994
   16.77194405   -1.00000000    4.90999985    1.83000004
   16.77527809   35.68579865    4.90999985    1.71000004
   16.77833366   -1.00000000    4.90999985    1.64999998
   16.78194427   -1.00000000   -1.00000000   -1.00000000
   16.78527641   84.37280273    4.90999985    1.71000004
   16.78833199   -1.00000000    4.90999985    1.71000004
   16.79166603   23.57019997    4.90999985    1.58000004
   16.79500008   -1.00000000   -1.00000000   -1.00000000
   16.79805565   -1.00000000    4.90999985    1.69000006
   16.80416679   -1.00000000    4.90999985    1.64999998
   16.80833244   36.68330002    4.90999985    1.66999996
   16.81166649   -1.00000000    4.90999985    1.75000000
   16.81277657   44.62919998    4.90999985    1.75000000
   16.81527710   95.87319946    4.90999985    1.75000000
   16.81833458  409.94198608    4.90999985    1.73000002
   16.82055664  486.26000977    4.90999985    1.85000002
   16.82166672  358.73901367    4.90999985    1.86000001
   16.82305717  280.68701172    4.90999985    1.88000000
   16.82333374   95.87319946    4.90999985    1.75000000
   16.82333374  409.94198608    4.90999985    1.73000002
   16.82333374   84.37280273    4.90999985    1.71000004
   16.82361221   -1.00000000    4.90999985    1.71000004
   16.82361221   23.57019997    4.90999985    1.58000004
   16.82361221   -1.00000000   -1.00000000   -1.00000000
   16.82389069   -1.00000000    4.90999985    1.69000006
   16.82389069   36.68330002    4.90999985    1.66999996
   16.82389069   -1.00000000    4.90999985    1.75000000
   16.82444572   37.79639816    4.90999985    1.86000001
   16.82777786   61.98419952    4.90999985    1.73000002
   16.83111191  449.17401123    4.90999985    1.76999998
   16.83305550  401.96398926    4.90999985    1.86000001
   16.83444595  344.11599731    4.90999985    1.91999996
   16.83444595   37.79639816    4.90999985    1.86000001
   16.83444595   61.98419952    4.90999985    1.73000002
   16.83472252  449.17401123    4.90999985    1.76999998
   16.83583450  220.65100098    4.90999985    1.91999996
   16.83889008  200.43299866    4.90999985    1.94000006
   16.84222221  311.72198486    4.90999985    1.98000002
   16.84555626  199.25199890    4.90999985    1.98000002
   16.84861183  234.30400085    4.90999985    1.98000002
   16.85499954  234.30400085    4.90999985    2.03999996
   16.85916710  141.16799927    4.90999985    2.13000011
   16.86250114  144.27099609    4.90999985    2.11999989
   16.86583328  131.74400330    4.90999985    2.11999989
   16.86833382  143.79800415    4.90999985    2.17000008
   16.86944389  130.82699585    4.90999985    2.15000010
   16.87277794  207.00199890    4.90999985    2.05999994
   16.87583351  368.72799683    4.90999985    1.96000004
   16.87916756  314.99301147    4.90999985    1.85000002
   16.88249969  287.94000244    4.90999985    1.78999996
   16.88555527  186.14700317    4.90999985    1.94000006
   16.88888931  200.56500244    4.90999985    1.98000002
   16.89222145  157.91700745    4.90999985    1.98000002
   16.89805603  157.91700745    4.90999985    2.07999992
   16.90222168  136.41900635    4.90999985    1.91999996
   16.90527725  196.30499268    4.90999985    1.83000004
   16.90861130  170.68600464    4.90999985    1.98000002
   16.91166687  349.97000122    4.90999985    1.88000000
   16.91499901  205.78799438    4.90999985    1.96000004
   16.91833305  267.79800415    4.90999985    2.00000000
   16.92138863  189.70799255    4.90999985    1.98000002
   16.92472076  171.00999451    4.90999985    2.00000000
   16.92805481  121.78399658    4.90999985    1.96000004
   16.93111038  146.32499695    4.90999985    2.05999994
   16.93444443   -1.00000000    4.90999985    2.00000000
   16.94083214   -1.00000000    4.90999985    1.66999996
   16.94499969   -1.00000000   -1.00000000   -1.00000000
   16.94805527   -1.00000000    4.90999985    1.64999998
   16.95138931  167.80000305    4.90999985    1.85000002
   16.95472336   37.07669830    4.90999985    1.75000000
   16.95777893   -1.00000000    4.90999985    1.86000001
   16.96111107   -1.00000000    4.90999985    1.61000001
   16.96444511   -1.00000000    4.90999985    1.34000003
   16.96750069   62.34690094    4.90999985    1.61000001
   16.96833420  186.58900452    4.90999985    1.61000001
   16.97111130  185.96600342    4.90999985    1.85000002
   16.97444534  232.99200439    4.90999985    2.05999994
   16.97777748  245.50100708    4.90999985    1.96000004
   16.98361206  245.50100708    4.90999985    2.01999998
   16.98777771  177.31700134    4.90999985    1.98000002
   16.99111176  365.25900269    4.90999985    1.86000001
   16.99416733  160.43699646    4.90999985    2.01999998
   16.99749947  322.29299927    4.90999985    1.91999996
   17.00083351  120.14299774    4.90999985    1.86000001
   17.00166702  227.34899902    4.90999985    1.96000004
   17.00416756  116.57800293    4.90999985    2.13000011
   17.00749969  122.25000000    4.90999985    2.13000011
   17.01083374  149.83700562    4.90999985    2.03999996
   17.01388931  333.69198608    4.90999985    1.98000002
   17.01722145  273.10699463    4.90999985    1.91999996
   17.02055550  352.41900635    4.90999985    1.86000001
   17.02638817  352.41900635    4.90999985    1.80999994
   17.03055573  153.40800476    4.90999985    1.86000001
   17.03388786   -1.00000000    4.90999985    1.76999998
   17.03750038   -1.00000000    4.90999985    1.63000000
   17.04083252   -1.00000000    4.90999985    1.78999996
   17.04388809  162.66900635    4.90999985    1.75000000
   17.04722214  213.97200012    4.90999985    1.78999996
   17.05055428  160.36300659    4.90999985    1.89999998
   17.05360985  167.77299500    4.90999985    1.94000006
   17.05694389  164.85600281    4.90999985    1.98000002
   17.05999947  183.82899475    4.90999985    2.03999996
   17.06333351  155.91200256    4.90999985    1.96000004
   17.06944466  155.91200256    4.90999985    1.94000006
   17.07361221  177.08599854    4.90999985    1.98000002
   17.07666779  156.16499329    4.90999985    2.01999998
   17.08000183  119.68399811    4.90999985    2.07999992
   17.08305550  166.72999573    4.90999985    1.91999996
   17.08638954  273.05499268    4.90999985    1.98000002
   17.08972359  148.16999817    4.90999985    1.85000002
   17.09277916  145.60200500    4.90999985    2.01999998
   17.09611130  176.50199890    4.90999985    1.98000002
   17.09944534  106.84700012    4.90999985    1.91999996
   17.10166740  149.22300720    4.90999985    2.09999990
   17.10277748  198.35299683    4.90999985    2.07999992
   17.10611153  203.36399841    4.90999985    1.98000002
   17.11222267  203.36399841    4.90999985    2.09999990
   17.11638832   99.07189941    4.90999985    2.11999989
   17.11944389  118.84300232    4.90999985    2.17000008
   17.12277794  105.43499756    4.90999985    2.11999989
   17.12611198  117.19599915    4.90999985    2.19000006
   17.12916756  126.54299927    4.90999985    2.23000002
   17.13249969   -1.00000000    4.90999985    1.61000001
   17.13611031   -1.00000000    4.90999985    1.55999994
   17.13944435  287.66900635    4.90999985    1.76999998
   17.14249992  157.92999268    4.90999985    2.11999989
   17.14583397  104.65599823    4.90999985    2.13000011
   17.14916611  115.28800201    4.90999985    2.19000006
   17.15499878  115.28800201    4.90999985    2.19000006
   17.15916634   -1.00000000    4.90999985    1.69000006
   17.16250038   -1.00000000    4.90999985    1.66999996
   17.16555595   -1.00000000    4.90999985    1.61000001
   17.16833305  287.62600708    4.90999985    1.85000002
   17.16916656  133.89100647    4.90999985    1.94000006
   17.17249870  155.41700745    4.90999985    2.00000000
   17.17583275  126.42099762    4.90999985    2.13000011
   17.17888832  123.16699982    4.90999985    2.17000008
   17.18222237  124.67700195    4.90999985    2.17000008
   17.18555450  139.32099915    4.90999985    2.01999998
   17.18861008  117.96299744    4.90999985    2.17000008
   17.19194412  125.47200012    4.90999985    2.21000004
   17.19777679  125.47200012    4.90999985    2.32999992
   17.20194435   97.57209778    4.90999985    2.32999992
   17.20527840  119.15200043    4.90999985    2.21000004
   17.20861244  104.38200378    4.90999985    2.21000004
   17.21166801  103.01599884    4.90999985    2.25000000
   17.21500015   96.97969818    4.90999985    2.34999990
   17.21805573  101.22699738    4.90999985    2.39000010
   17.22138977  119.74299622    4.90999985    2.32999992
   17.22472191   92.07469940    4.90999985    2.34999990
   17.22777748  105.93000031    4.90999985    2.30999994
   17.23111153  109.01200104    4.90999985    2.32999992
   17.23444557  114.26999664    4.90999985    2.25000000
   17.23500061  103.96600342    4.90999985    2.25000000
   17.24083328  103.96600342    4.90999985    2.30999994
   17.24500084  108.40699768    4.90999985    2.25000000
   17.24805641  126.18699646    4.90999985    2.28999996
   17.25138855   95.71179962    4.90999985    2.17000008
   17.25444412  101.63500214    4.90999985    2.25000000
   17.25777817  124.75399780    4.90999985    2.11999989
   17.26111031  121.54599762    4.90999985    2.13000011
   17.26416588  126.59600067    4.90999985    2.11999989
   17.26749992   99.48979950    4.90999985    2.26999998
   17.26833344  104.00399780    4.90999985    2.21000004
   17.27111053  111.07800293    4.90999985    2.28999996
   17.27416611   99.22489929    4.90999985    2.36999989
   17.27750015   97.20980072    4.90999985    2.39000010
   17.28361130   97.20980072    4.90999985    2.40000010
   17.28777695   98.66079712    4.90999985    2.50000000
   17.29083252   84.36900330    4.90999985    2.55999994
   17.29416656  115.02799988    4.90999985    2.40000010
   17.29749870  100.82800293    4.90999985    2.28999996
   17.30055428   99.82659912    4.90999985    2.32999992
   17.30166626  109.70600128    4.90999985    2.28999996
   17.30444336  119.59400177    4.90999985    2.32999992
   17.30749893  132.81399536    4.90999985    2.09999990
   17.31083298  102.11799622    4.90999985    2.03999996
   17.31388855   97.55310059    4.90999985    2.17000008
   17.31722260  113.97699738    4.90999985    2.19000006
   17.32055664  104.54599762    4.90999985    2.15000010
   17.32638931  104.54599762    4.90999985    2.26999998
   17.34638977  119.46600342    4.90999985    2.15000010
   17.34972191  142.55999756    4.90999985    2.05999994
   17.35305595   37.79959869    4.90999985    1.71000004
   17.35611153  168.32000732    4.90999985    1.80999994
   17.35944557   -1.00000000    4.90999985    1.73000002
   17.36250114   -1.00000000    4.90999985    1.58000004
   17.36944389   -1.00000000    4.90999985    1.71000004
   17.37361145   -1.00000000    4.90999985    1.64999998
   17.37694550   -1.00000000    4.90999985    1.78999996
   17.38055611   -1.00000000    4.90999985    1.80999994
   17.38361168  123.81900024    4.90999985    1.73000002
   17.38694382  332.42700195    4.90999985    1.85000002
   17.39027786  117.74700165    4.90999985    1.86000001
   17.39333344  223.85400391    4.90999985    1.91999996
   17.39666748  993.21002197    4.90999985    1.89999998
   17.39861107   55.00709915    4.90999985    1.88000000
   17.39888954  123.81900024    4.90999985    1.73000002
   17.39888954  332.42700195    4.90999985    1.85000002
   17.39888954  117.74700165    4.90999985    1.86000001
   17.39916611  223.85400391    4.90999985    1.91999996
   17.39916611  993.21002197    4.90999985    1.89999998
   17.39916611   -1.00000000    4.90999985    1.58000004
   17.39944458   -1.00000000    4.90999985    1.64999998
   17.39944458   -1.00000000    4.90999985    1.78999996
   17.39944458   -1.00000000    4.90999985    1.80999994
   17.40138817   23.57019997    4.90999985    1.66999996
   17.40472221   -1.00000000    4.90999985    1.53999996
   17.40805435   -1.00000000    4.90999985    1.51999998
   17.41110992   -1.00000000    4.90999985    1.48000002
   17.41444397   -1.00000000    4.90999985    1.38000000
   17.41944313   -1.00000000    4.90999985    1.60000002
   17.42361069   -1.00000000    4.90999985    1.50000000
   17.42694473   -1.00000000    4.90999985    1.34000003
   17.43000031   -1.00000000    4.90999985    1.50000000
   17.43249893   44.06980133    4.90999985    1.36000001
   17.43388748   89.74690247    4.90999985    1.61000001
   17.43694305  454.17999268    4.90999985    1.83000004
   17.43916512  476.85900879    4.90999985    1.96000004
   17.44027710  246.34599304    4.90999985    1.89999998
   17.44055557  454.17999268    4.90999985    1.83000004
   17.44055557   -1.00000000    4.90999985    1.53999996
   17.44055557   -1.00000000    4.90999985    1.51999998
   17.44083214   -1.00000000    4.90999985    1.48000002
   17.44083214   -1.00000000    4.90999985    1.38000000
   17.44083214   -1.00000000    4.90999985    1.50000000
   17.44111061   -1.00000000    4.90999985    1.34000003
   17.44111061   -1.00000000    4.90999985    1.50000000
   17.44111061   89.74690247    4.90999985    1.61000001
   17.44249916   77.08840179    4.90999985    1.83000004
   17.44555473   33.86949921    4.90999985    1.73000002
   17.44888878  242.79299927    4.90999985    1.69000006
   17.45194435  157.70300293    4.90999985    1.86000001
   17.45527840  223.60499573    4.90999985    2.01999998
   17.46111107  223.60499573    4.90999985    2.00000000
   17.46527863  635.41497803    4.90999985    1.75000000
   17.46722221  368.07598877    4.90999985    1.86000001
   17.46861076  220.77299500    4.90999985    1.96000004
   17.46861076   77.08840179    4.90999985    1.83000004
   17.46888924   33.86949921    4.90999985    1.73000002
   17.46888924  242.79299927    4.90999985    1.69000006
   17.46916771  157.70300293    4.90999985    1.86000001
   17.46916771  223.60499573    4.90999985    2.01999998
   17.46916771  635.41497803    4.90999985    1.75000000
   17.47027779   -1.00000000    4.90999985    1.94000006
   17.47361183   -1.00000000    4.90999985    1.48000002
   17.47666740   -1.00000000    4.90999985    1.36000001
   17.48000145   -1.00000000    4.90999985    1.39999998
   17.48333359   -1.00000000    4.90999985    1.30999994
   17.48944473   -1.00000000    4.90999985    1.46000004
   17.49361229   -1.00000000    4.90999985    1.39999998
   17.49666786   -1.00000000    4.90999985    1.69000006
   17.50000000   -1.00000000    4.90999985    1.66999996
   17.50250053  226.03199768    4.90999985    1.69000006
   17.50388908   -1.00000000    4.90999985    1.88000000
   17.50694466  209.99000549    4.90999985    1.80999994
   17.51027870  193.32200623    4.90999985    1.85000002
   17.51333427  204.26800537    4.90999985    1.75000000
   17.51666641  153.25199890    4.90999985    1.76999998
   17.52000046  217.15600586    4.90999985    1.98000002
   17.52305603  118.35199738    4.90999985    1.94000006
   17.52638817  172.67599487    4.90999985    1.94000006
   17.53222275  172.67599487    4.90999985    2.13000011
   17.53638840  124.33499908    4.90999985    2.07999992
   17.53972244  176.49899292    4.90999985    2.07999992
   17.54277802  139.43499756    4.90999985    1.94000006
   17.54611015  158.32299805    4.90999985    1.98000002
   17.54944420  138.61599731    4.90999985    2.03999996
   17.55249977  111.12500000    4.90999985    2.19000006
   17.55583191   99.63559723    4.90999985    2.19000006
   17.55888748  117.88300323    4.90999985    2.19000006
   17.56222153  103.60399628    4.90999985    2.25000000
   17.56555557   97.68319702    4.90999985    2.26999998
   17.56861115  107.27500153    4.90999985    2.25000000
   17.56916809  111.28299713    4.90999985    2.25000000
   17.57527924  111.28299713    4.90999985    2.28999996
   17.57916832  106.76599884    4.90999985    2.32999992
   17.58250046  111.12000275    4.90999985    2.30999994
   17.58583450  100.62999725    4.90999985    2.30999994
   17.58889008   99.86840057    4.90999985    2.36999989
   17.59222221  116.73699951    4.90999985    2.32999992
   17.59527779  102.12300110    4.90999985    2.34999990
   17.59861183   95.31990051    4.90999985    2.34999990
   17.60194397  105.03299713    4.90999985    2.26999998
   17.60250092  108.18099976    4.90999985    2.26999998
   17.60555649   97.78890228    4.90999985    2.26999998
   17.60888863  115.28700256    4.90999985    2.21000004
   17.61194420  110.27899933    4.90999985    2.07999992
   17.61805534  110.27899933    4.90999985    2.07999992
   17.62222290  101.32700348    4.90999985    2.09999990
   17.62527847  119.39099884    4.90999985    2.19000006
   17.62861061  108.69000244    4.90999985    2.23000002
   17.63166618  109.15599823    4.90999985    2.23000002
   17.63500023  108.26899719    4.90999985    2.26999998
   17.63583374  104.55000305    4.90999985    2.28999996
   17.63861084  111.47899628    4.90999985    2.28999996
   17.64194489   94.61229706    4.90999985    2.28999996
   17.64500046   96.37580109    4.90999985    2.28999996
   17.64833260  103.15299988    4.90999985    2.30999994
   17.65138817   93.24909973    4.90999985    2.34999990
   17.65472221   92.96479797    4.90999985    2.39000010
   17.66083336   92.96479797    4.90999985    2.23000002
   17.66499901  116.86299896    4.90999985    2.21000004
   17.66805458  118.26100159    4.90999985    2.17000008
   17.66916656  102.39800262    4.90999985    2.15000010
   17.67194366  106.34700012    4.90999985    2.15000010
   17.67527771  108.61499786    4.90999985    2.25000000
   17.67833328  109.17900085    4.90999985    2.23000002
   17.68166542  107.98300171    4.90999985    2.19000006
   17.68472099  119.73500061    4.90999985    2.19000006
   17.68805504  114.59100342    4.90999985    2.25000000
   17.69138718  121.30899811    4.90999985    2.32999992
   17.69444275  117.07399750    4.90999985    2.26999998
   17.69777679   98.73909760    4.90999985    2.32999992
   17.70361137   98.73909760    4.90999985    2.34999990
   17.70777893   88.53070068    4.90999985    2.28999996
   17.71111107  108.52600098    4.90999985    2.26999998
   17.71416664  104.16500092    4.90999985    2.23000002
   17.71750069  111.03299713    4.90999985    2.26999998
   17.72083473  108.25700378    4.90999985    2.32999992
   17.72389030   98.68779755    4.90999985    2.40000010
   17.72722244   97.45559692    4.90999985    2.44000006
   17.73055649   96.74890137    4.90999985    2.34999990
   17.73361206  100.86100006    4.90999985    2.40000010
   17.73583412  112.62400055    4.90999985    2.40000010
   17.73722267   95.14340210    4.90999985    2.32999992
   17.74055672   93.97619629    4.90999985    2.42000008
   17.74638939   93.97619629    4.90999985    2.44000006
   17.75055504   91.20059967    4.90999985    2.50000000
   17.75388908   97.89800262    4.90999985    2.40000010
   17.75722313   89.72160339    4.90999985    2.36999989
   17.76027870   99.59880066    4.90999985    2.50000000
   17.76361084   91.78669739    4.90999985    2.40000010
   17.76666641  102.79399872    4.90999985    2.40000010
   17.76916695  101.14299774    4.90999985    2.39000010
   17.77055550   93.37490082    4.90999985    2.39000010
   17.77388954   97.27960205    4.90999985    2.42000008
   17.77694511   94.63469696    4.90999985    2.44000006
   17.78027725   95.65499878    4.90999985    2.40000010
   17.78333282   94.78600311    4.90999985    2.42000008
   17.78944397   94.78600311    4.90999985    2.34999990
   17.79361153  100.91899872    4.90999985    2.34999990
   17.79666710  103.03700256    4.90999985    2.26999998
   17.79999924  109.08499908    4.90999985    2.30999994
   17.80249977   96.97969818    4.90999985    2.36999989
   17.80360985   97.54160309    4.90999985    2.40000010
   17.80694389  104.33899689    4.90999985    2.32999992
   17.80999947  109.15399933    4.90999985    2.39000010
   17.81333351   97.04949951    4.90999985    2.32999992
   17.81638718   97.35299683    4.90999985    2.25000000
   17.81972313  102.13200378    4.90999985    2.19000006
   17.82305717  102.61799622    4.90999985    2.25000000
   17.82611275  125.14600372    4.90999985    2.32999992
   17.83222389  125.14600372    4.90999985    2.32999992
   17.83638954  107.58999634    4.90999985    2.40000010
   17.83944511  106.40499878    4.90999985    2.36999989
   17.84277916  112.77400208    4.90999985    2.32999992
   17.84611130   89.42859650    4.90999985    2.23000002
   17.84916687   85.18260193    4.90999985    2.11999989
   17.85250092   88.60209656    4.90999985    2.09999990
   17.85583305  104.23899841    4.90999985    2.23000002
   17.85888863  108.33999634    4.90999985    2.25000000
   17.86222267  106.05300140    4.90999985    2.17000008
   17.86527824  105.70200348    4.90999985    2.32999992
   17.86861038  103.01599884    4.90999985    2.30999994
   17.86916733  100.03199768    4.90999985    2.30999994
   17.87500000  100.03199768    4.90999985    2.28999996
   17.87916756  102.53099823    4.90999985    2.34999990
   17.88249969  105.05300140    4.90999985    2.30999994
   17.88555527   83.70230103    4.90999985    2.17000008
   17.88888931   88.83580017    4.90999985    2.25000000
   17.89222145   93.62590027    4.90999985    2.25000000
   17.89527702   90.21189880    4.90999985    2.32999992
   17.89861107   91.12120056    4.90999985    2.26999998
   17.90194321  104.64399719    4.90999985    2.36999989
   17.90250015   96.92980194    4.90999985    2.40000010
   17.90555573  105.28299713    4.90999985    2.48000002
   17.90888786   92.10279846    4.90999985    2.40000010
   17.91194344  109.89900208    4.90999985    2.39000010
   17.91777802  109.89900208    4.90999985    2.39000010
   17.92194366  102.86799622    4.90999985    2.34999990
   17.92527771   91.66649628    4.90999985    2.39000010
   17.92860985  101.16799927    4.90999985    2.40000010
   17.93166542  109.03900146    4.90999985    2.40000010
   17.93499947  101.65000153    4.90999985    2.13000011
   17.93583298  112.03800201    4.90999985    2.17000008
   17.93861008  130.58700562    4.90999985    2.23000002
   17.94194412  125.88500214    4.90999985    2.13000011
   17.94499969  121.26000214    4.90999985    2.07999992
   17.94833183  119.32900238    4.90999985    2.19000006
   17.95166779  142.72700500    4.90999985    2.11999989
   17.95472336  101.75199890    4.90999985    2.11999989
   17.96083450  101.75199890    4.90999985    2.17000008
   17.96500015   95.79789734    4.90999985    2.15000010
   17.96805573   91.24040222    4.90999985    2.23000002
   17.96916771   99.61190033    4.90999985    2.30999994
   17.97166634  104.02500153    4.90999985    2.28999996
   17.97500038  113.31900024    4.90999985    2.36999989
   17.97805595   94.03410339    4.90999985    2.32999992
   17.98139000   90.34470367    4.90999985    2.36999989
   17.98472214  100.80899811    4.90999985    2.34999990
   17.98777771   99.21410370    4.90999985    2.39000010
   17.99111176   96.72149658    4.90999985    2.32999992
   17.99416733   96.93029785    4.90999985    2.36999989
   17.99749947  103.71900177    4.90999985    2.32999992
   18.00361061  103.71900177    4.90999985    2.36999989
   18.00777817  105.22599792    4.90999985    2.40000010
   18.01083374   87.17990112    4.90999985    2.36999989
   18.01416588   98.08090210    4.90999985    2.39000010
   18.01749992   89.60060120    4.90999985    2.34999990
   18.02055550  102.28700256    4.90999985    2.30999994
   18.02388954  113.90000153    4.90999985    2.32999992
   18.02722168   90.82720184    4.90999985    2.32999992
   18.03027725   95.51529694    4.90999985    2.34999990
   18.03361130   99.14009857    4.90999985    2.39000010
   18.03610992   93.11109924    4.90999985    2.39000010
   18.03722191   92.84259796    4.90999985    2.39000010
   18.04055595   97.43859863    4.90999985    2.40000010
   18.04638863   97.43859863    4.90999985    2.32999992
   18.05055428  105.25700378    4.90999985    2.36999989
   18.05388832  101.10199738    4.90999985    2.32999992
   18.05694389  108.62100220    4.90999985    2.26999998
   18.06027794  103.95600128    4.90999985    2.07999992
   18.06333351  115.81700134    4.90999985    2.23000002
   18.06666756  117.65299988    4.90999985    2.17000008
   18.06916809  153.14799500    4.90999985    2.05999994
   18.07027817  132.67700195    4.90999985    2.05999994
   18.07361221   92.44419861    4.90999985    2.01999998
   18.07666779  129.18600464    4.90999985    2.17000008
   18.08000183  150.95300293    4.90999985    2.13000011
   18.08333397  143.86700439    4.90999985    2.01999998
   18.08916664  143.86700439    4.90999985    2.17000008
   18.09333420   97.70429993    4.90999985    2.05999994
   18.09666824  120.87500000    4.90999985    2.15000010
   18.09972191  104.98799896    4.90999985    2.15000010
   18.10250092  118.26399994    4.90999985    2.19000006
   18.10333443  104.35800171    4.90999985    2.19000006
   18.10666656  105.15499878    4.90999985    2.23000002
   18.10972214  109.43900299    4.90999985    2.23000002
   18.11305618   99.34040070    4.90999985    2.17000008
   18.11638832  116.94599915    4.90999985    2.25000000
   18.11944389  106.59200287    4.90999985    2.28999996
   18.12277794   96.66799927    4.90999985    2.30999994
   18.12583351   95.76809692    4.90999985    2.26999998
   18.13222313   95.76809692    4.90999985    2.23000002
   18.13638878   96.83100128    4.90999985    2.30999994
   18.13944435  106.32399750    4.90999985    2.30999994
   18.14277840  110.80899811    4.90999985    2.25000000
   18.14583397  105.86900330    4.90999985    2.28999996
   18.14916611  105.09400177    4.90999985    2.28999996
   18.15250015  101.99400330    4.90999985    2.30999994
   18.15555573  100.33000183    4.90999985    2.26999998
   18.15888786  101.69599915    4.90999985    2.30999994
   18.16222191  104.64399719    4.90999985    2.30999994
   18.16527748  108.70400238    4.90999985    2.26999998
   18.16860962  101.67700195    4.90999985    2.32999992
   18.16944313  101.15000153    4.90999985    2.36999989
   18.17499924  101.15000153    4.90999985    2.32999992
   18.17916679   96.41840363    4.90999985    2.30999994
   18.18222237  102.79000092    4.90999985    2.32999992
   18.18555450   99.94049835    4.90999985    2.32999992
   18.18888855   92.55049896    4.90999985    2.26999998
   18.19194412  100.81199646    4.90999985    2.28999996
   18.19527626  100.83899689    4.90999985    2.30999994
   18.19861031  105.57900238    4.90999985    2.23000002
   18.20166779   99.94550323    4.90999985    2.19000006
   18.20277786  108.68699646    4.90999985    2.17000008
   18.20527840  109.03199768    4.90999985    2.25000000
   18.20861244  105.09799957    4.90999985    2.25000000
   18.21166801  100.12300110    4.90999985    2.21000004
   18.21777916  100.12300110    4.90999985    2.07999992
   18.22194481  101.24900055    4.90999985    2.19000006
   18.22527885  102.38999939    4.90999985    2.21000004
   18.22833443   99.68350220    4.90999985    2.17000008
   18.23166656   97.75689697    4.90999985    2.17000008
   18.23472214  114.23200226    4.90999985    2.13000011
   18.23611069  109.78600311    4.90999985    2.11999989
   18.23833275  110.16699982    4.90999985    2.11999989
   18.24166679  112.42700195    4.90999985    2.09999990
   18.24472237  132.49200439    4.90999985    2.07999992
   18.24805641  127.51999664    4.90999985    2.05999994
   18.25138855  177.59199524    4.90999985    1.91999996
   18.25444412  117.45999908    4.90999985    2.05999994
   18.26055527  117.45999908    4.90999985    2.09999990
   18.26472282  138.35800171    4.90999985    2.09999990
   18.26805496  166.71200562    4.90999985    1.96000004
   18.26944351  144.70500183    4.90999985    2.00000000
   18.27166557  112.60099792    4.90999985    1.98000002
   18.27499962  129.03900146    4.90999985    2.01999998
   18.27805519  121.86900330    4.90999985    2.03999996
   18.28138924  129.53999329    4.90999985    2.00000000
   18.28472137  116.25599670    4.90999985    2.05999994
   18.28777695  106.64199829    4.90999985    2.01999998
   18.29111099  121.53099823    4.90999985    2.05999994
   18.29444313  114.13099670    4.90999985    2.03999996
   18.29749870  132.22000122    4.90999985    1.98000002
   18.30360985  132.22000122    4.90999985    2.11999989
   18.30749893  128.22500610    4.90999985    2.17000008
   18.31083298  103.96099854    4.90999985    2.13000011
   18.31416512  111.09400177    4.90999985    2.23000002
   18.31722260  112.51799774    4.90999985    2.25000000
   18.32055664  103.40100098    4.90999985    2.23000002
   18.32389069  111.34999847    4.90999985    2.11999989
   18.32694626  133.16799927    4.90999985    2.00000000
   18.33027840  125.93399811    4.90999985    2.05999994
   18.33361244  123.62699890    4.90999985    2.07999992
   18.33611107  115.38500214    4.90999985    2.11999989
   18.33722305  118.61100006    4.90999985    2.13000011
   18.34055710  221.61999512    4.90999985    2.01999998
   18.34638977  221.61999512    4.90999985    1.85000002
   18.36472321   -1.00000000    4.90999985    1.48000002
   18.36805534   -1.00000000    4.90999985    1.50000000
   18.37138939   -1.00000000    4.90999985    1.63000000
   18.37472153   -1.00000000    4.90999985    1.55999994
   18.37805557   -1.00000000    4.90999985    1.48000002
   18.38111115   -1.00000000    4.90999985    1.33000004
   18.38444519   -1.00000000    4.90999985    1.21000004
   18.38944435   -1.00000000    4.90999985    1.55999994
   18.39361191  249.63999939    4.90999985    1.80999994
   18.39694405  234.48699951    4.90999985    1.78999996
   18.39999962  236.90600586    4.90999985    1.76999998
   18.40277672  179.61399841    4.90999985    1.86000001
   18.40388870  164.60600281    4.90999985    1.88000000
   18.40694427  128.10499573    4.90999985    1.98000002
   18.41027832  161.98699951    4.90999985    2.00000000
   18.41361046  166.28300476    4.90999985    2.01999998
   18.41666603  204.22099304    4.90999985    1.91999996
   18.42000008  248.34899902    4.90999985    1.88000000
   18.42305565  206.18800354    4.90999985    1.86000001
   18.42638779  156.23800659    4.90999985    1.88000000
   18.43222237  156.23800659    4.90999985    1.96000004
   18.43638802  132.81300354    4.90999985    1.96000004
   18.43972206  129.61799622    4.90999985    1.98000002
   18.44277763  127.36799622    4.90999985    2.00000000
   18.44610977  104.40100098    4.90999985    1.94000006
   18.44944382  119.17800140    4.90999985    2.07999992
   18.45250130   97.81379700    4.90999985    2.07999992
   18.45583344  115.57900238    4.90999985    2.07999992
   18.45888901  100.95400238    4.90999985    2.15000010
   18.46222305   86.59210205    4.90999985    2.26999998
   18.46555710   99.17430115    4.90999985    2.32999992
   18.46861076   95.83679962    4.90999985    2.40000010
   18.46944427  103.98999786    4.90999985    2.39000010
   18.47500038  103.98999786    4.90999985    2.30999994
   18.47916794  101.67400360    4.90999985    2.07999992
   18.48250008  101.35399628    4.90999985    2.34999990
   18.48583412  118.18699646    4.90999985    2.32999992
   18.48888969  108.94699860    4.90999985    2.11999989
   18.49222183  100.04199982    4.90999985    2.17000008
   18.49527740  113.76499939    4.90999985    2.26999998
   18.49861145  120.62200165    4.90999985    2.23000002
   18.50194359   96.75589752    4.90999985    2.13000011
   18.50277710  104.51200104    4.90999985    2.17000008
   18.50555611  132.63600159    4.90999985    2.09999990
   18.50861168  134.89700317    4.90999985    1.88000000
   18.51194382  125.23200226    4.90999985    1.91999996
   18.51805496  125.23200226    4.90999985    1.78999996
   18.52222252  360.37899780    4.90999985    1.71000004
   18.52527809  127.45500183    4.90999985    1.91999996
   18.52861023  101.77500153    4.90999985    2.23000002
   18.53166580  116.54399872    4.90999985    2.30999994
   18.53499985  196.03500366    4.90999985    2.07999992
   18.53610992  116.25199890    4.90999985    1.96000004
   18.53861046  178.17799377    4.90999985    1.94000006
   18.54166603   -1.00000000    4.90999985    1.85000002
   18.54500008   43.54790115    4.90999985    1.61000001
   18.54833221   51.66270065    4.90999985    1.75000000
   18.55138779  213.66000366    4.90999985    1.73000002
   18.55472183   -1.00000000    4.90999985    1.76999998
   18.56083298   -1.00000000    4.90999985    1.60000002
   18.56499863   70.34790039    4.90999985    1.76999998
   18.56805611  262.97198486    4.90999985    1.66999996
   18.56944466  187.96699524    4.90999985    1.76999998
   18.57194519   34.26929855    4.90999985    1.89999998
   18.57500076   63.82970047    4.90999985    1.55999994
   18.57833481  229.53999329    4.90999985    1.80999994
   18.58166695  132.33200073    4.90999985    1.75000000
   18.58472252   -1.00000000    4.90999985    1.51999998
   18.58805656   -1.00000000    4.90999985    1.23000002
   18.59138870   -1.00000000    4.90999985    1.48000002
   18.59472275   -1.00000000    4.90999985    1.61000001
   18.59777832   -1.00000000    4.90999985    1.69000006
   18.60361099   -1.00000000    4.90999985    1.76999998
   18.60777855   -1.00000000    4.90999985    1.96000004
   18.61111069  291.12399292    4.90999985    1.63000000
   18.61416626  204.70399475    4.90999985    1.86000001
   18.61750031   -1.00000000    4.90999985    1.80999994
   18.62083435   -1.00000000    4.90999985    1.25000000
   18.62388992   -1.00000000    4.90999985    1.48000002
   18.62722206   -1.00000000    4.90999985    1.34000003
   18.63027763   -1.00000000    4.90999985    1.33000004
   18.63361168   -1.00000000    4.90999985    1.44000006
   18.63694382  237.39999390    4.90999985    1.44000006
   18.64027786  141.45300293    4.90999985    1.96000004
   18.64638901  141.45300293    4.90999985    2.21000004
   18.65055466   -1.00000000    4.90999985    1.33000004
   18.65388870   -1.00000000    4.90999985    0.75000000
   18.65722275  319.06298828    4.90999985    1.25000000
   18.66027832   -1.00000000    4.90999985    1.86000001
   18.66361046   -1.00000000    4.90999985    1.28999996
   18.66694450   -1.00000000    4.90999985    1.38000000
   18.66944313   -1.00000000   -1.00000000   -1.00000000
   18.67055511  338.83898926    4.90999985    1.60000002
   18.67361069  160.22300720    4.90999985    1.94000006
   18.67694473  124.75599670    4.90999985    2.03999996
   18.68027687  122.55500031    4.90999985    2.00000000
   18.68333244  114.86399841    4.90999985    2.09999990
   18.69333267   -1.00000000    4.90999985    0.67000002
   18.69666672   -1.00000000    4.90999985    0.67000002
   18.70000076  198.58299255    4.90999985    1.05999994
   18.70277786  137.13000488    4.90999985    1.98000002
   18.70361137  125.34400177    4.90999985    2.03999996
   18.70666695  317.98001099    4.90999985    2.05999994
   18.71000099  145.21899414    4.90999985    1.88000000
   18.71333504  123.16200256    4.90999985    2.15000010
   18.71638870  141.80499268    4.90999985    2.11999989
   18.71972275  122.09799957    4.90999985    2.15000010
   18.72305679  141.33299255    4.90999985    2.17000008
   18.72611237  112.74400330    4.90999985    2.15000010
   18.73222351  112.74400330    4.90999985    2.09999990
   18.73638916  131.07200623    4.90999985    2.07999992
   18.73944473  122.60800171    4.90999985    2.07999992
   18.74277878  124.75099945    4.90999985    2.09999990
   18.74611092  103.74800110    4.90999985    2.13000011
   18.74916649  105.26100159    4.90999985    2.15000010
   18.75250053  111.68299866    4.90999985    2.19000006
   18.75583267  116.16899872    4.90999985    2.15000010
   18.75888824  114.87599945    4.90999985    2.17000008
   18.76222229  115.96199799    4.90999985    2.23000002
   18.76555634  108.52799988    4.90999985    2.19000006
   18.76861000  108.29599762    4.90999985    2.17000008
   18.76944351  121.69799805    4.90999985    2.15000010
   18.77499962  121.69799805    4.90999985    2.11999989
   18.77916718  114.71499634    4.90999985    2.11999989
   18.78249931  130.10099792    4.90999985    2.07999992
   18.78555489  128.69400024    4.90999985    2.09999990
   18.78888893  122.07700348    4.90999985    2.07999992
   18.79222107  127.78399658    4.90999985    2.09999990
   18.79527664  136.34399414    4.90999985    2.11999989
   18.79861069  116.66699982    4.90999985    2.05999994
   18.80166626  143.61700439    4.90999985    2.07999992
   18.80277634  134.21299744    4.90999985    2.09999990
   18.80555534  130.50300598    4.90999985    2.11999989
   18.80861092  143.90899658    4.90999985    2.05999994
   18.81194305  131.21699524    4.90999985    2.03999996
   18.81777954  131.21699524    4.90999985    2.03999996
   18.82194519  134.67900085    4.90999985    2.09999990
   18.82527924  140.29200745    4.90999985    2.07999992
   18.82861137  130.05099487    4.90999985    2.01999998
   18.83166695  139.35099792    4.90999985    2.03999996
   18.83500099  144.52200317    4.90999985    2.07999992
   18.83611107  132.27699280    4.90999985    2.05999994
   18.83861160  136.94599915    4.90999985    2.11999989
   18.84166718  119.46700287    4.90999985    2.17000008
   18.84500122  109.30100250    4.90999985    2.23000002
   18.84833336  119.84500122    4.90999985    2.23000002
   18.85138893  122.67800140    4.90999985    2.21000004
   18.85472298  122.24900055    4.90999985    2.21000004
   18.86083412  122.24900055    4.90999985    2.25000000
   18.86499977  118.10600281    4.90999985    2.23000002
   18.86805534  112.18900299    4.90999985    2.23000002
   18.86944389  135.41700745    4.90999985    2.19000006
   18.87166595  129.52999878    4.90999985    2.15000010
   18.87500000  187.96699524    4.90999985    2.05999994
   18.87805557  397.42300415    4.90999985    2.01999998
   18.88138962  364.03601074    4.90999985    1.85000002
   18.88444519  181.92599487    4.90999985    1.94000006
   18.88777733  188.84100342    4.90999985    2.00000000
   18.89111137  397.09100342    4.90999985    1.96000004
   18.89416695  287.13400269    4.90999985    1.80999994
   18.89749908  144.47300720    4.90999985    1.80999994
   18.90361023  144.47300720    4.90999985    1.78999996
   18.90777779  243.11900330    4.90999985    1.83000004
   18.91083336  199.78599548    4.90999985    1.83000004
   18.91416550  272.72198486    4.90999985    1.80999994
   18.91749954  249.71800232    4.90999985    1.94000006
   18.92083359  239.34899902    4.90999985    1.91999996
   18.92388916  360.40499878    4.90999985    2.00000000
   18.92722130  301.84201050    4.90999985    1.91999996
   18.93027687  298.71200562    4.90999985    1.96000004
   18.93361092   61.58000183    4.90999985    1.83000004
   18.93722153   -1.00000000    4.90999985    1.69000006
   18.94027710   -1.00000000    4.90999985    1.60000002
   18.94666672   -1.00000000    4.90999985    1.61000001
   18.95083427   73.20269775    4.90999985    1.63000000
   18.95416832  138.99400330    4.90999985    1.73000002
   18.95722389  175.29600525    4.90999985    1.86000001
   18.96055603   -1.00000000    4.90999985    1.78999996
   18.96389008   -1.00000000    4.90999985    1.46000004
   18.96694565   -1.00000000    4.90999985    1.60000002
   18.97083473   -1.00000000    4.90999985    1.39999998
   18.97389030   -1.00000000    4.90999985    1.34000003
   18.97722244   -1.00000000    4.90999985    1.25000000
   18.98027802   -1.00000000    4.90999985    1.03999996
   18.98361206   -1.00000000    4.90999985    0.88000000
   18.98916626   -1.00000000    4.90999985    1.13000000
   18.99333382   -1.00000000    4.90999985    1.30999994
   18.99666786   23.57019997    4.90999985    1.53999996
   19.00000000   -1.00000000    4.90999985    1.86000001
   19.00361061   -1.00000000    4.90999985    1.39999998
   19.00666618   -1.00000000    4.90999985    1.48000002
   19.01000023   -1.00000000    4.90999985    1.61000001
   19.01305580   -1.00000000    4.90999985    1.64999998
   19.01638794   -1.00000000    4.90999985    1.53999996
   19.01972198   -1.00000000    4.90999985    1.50000000
   19.02277756   -1.00000000    4.90999985    1.60000002
   19.02611160   -1.00000000    4.90999985    1.50000000
   19.03222275   -1.00000000    4.90999985    1.46000004
   19.03638840   -1.00000000    4.90999985    1.23000002
   19.03944397   -1.00000000    4.90999985    1.33000004
   19.04277802   51.28110123    4.90999985    1.51999998
   19.04583359   -1.00000000    4.90999985    1.73000002
   19.04916573   -1.00000000    4.90999985    1.63000000
   19.05249977   -1.00000000    4.90999985    1.58000004
   19.05555534   -1.00000000    4.90999985    1.50000000
   19.05888748   -1.00000000    4.90999985    1.48000002
   19.06194305   -1.00000000    4.90999985    1.39999998
   19.06527710   -1.00000000    4.90999985    1.34000003
   19.06861115   -1.00000000    4.90999985    1.39999998
   19.07500076   -1.00000000    4.90999985    1.48000002
   19.07916832   -1.00000000    4.90999985    1.51999998
   19.08222389   43.83449936    4.90999985    1.71000004
   19.08555603   -1.00000000    4.90999985    1.73000002
   19.08889008  189.89500427    4.90999985    1.73000002
   19.09194565  198.96499634    4.90999985    1.78999996
   19.09527779  119.48799896    4.90999985    1.86000001
   19.09861183   36.36959839    4.90999985    1.78999996
   19.10166740   54.37360001    4.90999985    1.64999998
   19.10277748   72.88410187    4.90999985    1.69000006
   19.10527802   85.05130005    4.90999985    1.76999998
   19.10861206  103.71700287    4.90999985    1.78999996
   19.11166763  133.59300232    4.90999985    1.76999998
   19.11777878  133.59300232    4.90999985    1.73000002
   19.12194443  119.03500366    4.90999985    1.76999998
   19.12527847   87.04409790    4.90999985    1.69000006
   19.12833405   84.00460052    4.90999985    1.83000004
   19.13166618  305.52398682    4.90999985    1.76999998
   19.13500023  335.10699463    4.90999985    1.86000001
   19.13611031  228.32800293    4.90999985    1.91999996
   19.13861084  181.16999817    4.90999985    1.88000000
   19.14194489  154.47000122    4.90999985    1.86000001
   19.14500046  158.86099243    4.90999985    2.00000000
   19.14833260  167.64799500    4.90999985    2.07999992
   19.15166664  155.31900024    4.90999985    2.07999992
   19.15472221  241.52000427    4.90999985    1.94000006
   19.16055489  241.52000427    4.90999985    1.89999998
   19.16472244  190.38800049    4.90999985    1.86000001
   19.16805458  203.60200500    4.90999985    1.89999998
   19.16944313  169.20100403    4.90999985    1.88000000
   19.17166519  171.02799988    4.90999985    1.91999996
   19.17527771  203.02499390    4.90999985    1.94000006
   19.17833328  223.75599670    4.90999985    1.94000006
   19.18166542  186.51899719    4.90999985    1.89999998
   19.18499947  148.20700073    4.90999985    1.96000004
   19.18805504  194.50500488    4.90999985    1.91999996
   19.19138718  140.43699646    4.90999985    2.00000000
   19.19472122  128.46000671    4.90999985    2.13000011
   19.19777679  121.02899933    4.90999985    2.19000006
   19.20361137  121.02899933    4.90999985    2.07999992
   19.20777893  158.04400635    4.90999985    2.11999989
   19.21083450  121.80000305    4.90999985    2.11999989
   19.21416664  136.75599670    4.90999985    2.07999992
   19.21722221  151.71099854    4.90999985    1.96000004
   19.22055626  126.82800293    4.90999985    2.00000000
   19.22389030  158.65699768    4.90999985    2.03999996
   19.22694588  260.27398682    4.90999985    1.96000004
   19.23027802  323.20901489    4.90999985    1.76999998
   19.23361206  173.01400757    4.90999985    1.83000004
   19.23611069  297.31600952    4.90999985    1.94000006
   19.23722267  191.35000610    4.90999985    1.86000001
   19.24055672  177.54299927    4.90999985    1.86000001
   19.24638939  177.54299927    4.90999985    2.03999996
   19.25055504  267.75399780    4.90999985    2.05999994
   19.25361061  237.80499268    4.90999985    1.85000002
   19.25694466  149.96200562    4.90999985    2.01999998
   19.26027870  116.78199768    4.90999985    2.00000000
   19.26333427  246.59599304    4.90999985    1.83000004
   19.26666641  164.39399719    4.90999985    1.98000002
   19.26944351  130.63999939    4.90999985    1.96000004
   19.27027702   73.02690125    4.90999985    1.85000002
   19.27361107  324.51300049    4.90999985    1.75000000
   19.27694511  271.80599976    4.90999985    1.86000001
   19.28000069  246.13600159    4.90999985    1.85000002
   19.28333282  268.08300781    4.90999985    1.94000006
   19.28916550  268.08300781    4.90999985    1.98000002
   19.29333305  111.93699646    4.90999985    2.09999990
   19.29666710  159.37699890    4.90999985    2.09999990
   19.29972076  133.84899902    4.90999985    2.01999998
   19.30277634  160.38800049    4.90999985    2.07999992
   19.30333328  151.76899719    4.90999985    2.07999992
   19.30666542  151.72599792    4.90999985    2.03999996
   19.30972099  266.79501343    4.90999985    2.00000000
   19.31305504  295.06600952    4.90999985    1.94000006
   19.31638718  181.65899658    4.90999985    1.91999996
   19.31944466   -1.00000000    4.90999985    1.63000000
   19.32277870   -1.00000000    4.90999985    1.58000004
   19.32583427  174.84199524    4.90999985    1.60000002
   19.33194542  174.84199524    4.90999985    1.94000006
   19.33611107  202.66700745    4.90999985    1.94000006
   19.33666801  179.07200623    4.90999985    2.00000000
   19.34000015  279.29699707    4.90999985    2.07999992
   19.34305573  197.74400330    4.90999985    1.94000006
   19.34638977  215.38099670    4.90999985    1.96000004
   19.34972191  161.61999512    4.90999985    2.03999996
   19.35277748  135.69500732    4.90999985    2.03999996
   19.35611153  156.01400757    4.90999985    2.05999994
   19.35944557  138.44400024    4.90999985    2.05999994
   19.36250114  153.40800476    4.90999985    2.05999994
   19.38166618  167.41799927    4.90999985    2.00000000
   19.38583374  167.41799927    4.90999985    2.03999996
   19.38999939  115.65299988    4.90999985    2.05999994
   19.39305496  129.98199463    4.90999985    2.03999996
   19.39638901  129.56300354    4.90999985    2.07999992
   19.39972115  115.79599762    4.90999985    2.05999994
   19.40277672  110.10399628    4.90999985    2.07999992
   19.40611076  142.35200500    4.90999985    2.09999990
   19.40916634  137.61399841    4.90999985    2.05999994
   19.41250038  162.14999390    4.90999985    2.05999994
   19.41472244  168.62300110    4.90999985    1.98000002
   19.41611099  109.76399994    4.90999985    1.98000002
   19.41944313  163.12100220    4.90999985    2.11999989
   19.42249870  119.28500366    4.90999985    2.03999996
   19.42860985  119.28500366    4.90999985    2.00000000
   19.43277740  129.85200500    4.90999985    1.98000002
   19.43610954  169.98300171    4.90999985    2.01999998
   19.43916512  131.12500000    4.90999985    2.01999998
   19.44249916  195.80999756    4.90999985    2.03999996
   19.44555473  143.67700195    4.90999985    1.91999996
   19.44833183  135.07899475    4.90999985    2.07999992
   19.44916534  132.47599792    4.90999985    2.11999989
   19.45250130  108.11100006    4.90999985    2.23000002
   19.45583344  120.73400116    4.90999985    2.17000008
   19.45888901  116.10399628    4.90999985    2.15000010
   19.46222305  115.11900330    4.90999985    2.07999992
   19.46555710   97.91369629    4.90999985    2.17000008
   19.47138977   97.91369629    4.90999985    2.11999989
   19.47555542  107.16999817    4.90999985    2.15000010
   19.47888947  112.02899933    4.90999985    2.28999996
   19.48166656  105.93099976    4.90999985    2.28999996
   19.48250008  102.55699921    4.90999985    2.28999996
   19.48583412  106.03700256    4.90999985    2.17000008
   19.48888969  108.69999695    4.90999985    2.25000000
   19.49222183  102.39199829    4.90999985    2.28999996
   19.49555588  122.77200317    4.90999985    2.21000004
   19.49861145  108.46600342    4.90999985    2.21000004
   19.50194359   98.08360291    4.90999985    2.09999990
   19.50527763  137.15699768    4.90999985    2.00000000
   19.50833321  122.44100189    4.90999985    2.07999992
   19.51416588  122.44100189    4.90999985    2.03999996
   19.51833344  133.01699829    4.90999985    2.00000000
   19.52166557  157.59399414    4.90999985    1.94000006
   19.52472115  136.95500183    4.90999985    1.96000004
   19.52805519  143.03399658    4.90999985    1.98000002
   19.53138924  130.32000732    4.90999985    2.00000000
   19.53444481  147.58000183    4.90999985    2.00000000
   19.53777695  117.59100342    4.90999985    2.00000000
   19.54111099  124.86799622    4.90999985    2.09999990
   19.54416656  120.22699738    4.90999985    2.05999994
   19.54749870  146.30799866    4.90999985    1.96000004
   19.54944420  153.50000000    4.90999985    1.96000004
   19.55111122  137.88000488    4.90999985    1.98000002
   19.55722237  137.88000488    4.90999985    1.85000002
   19.56110954  265.58700562    4.90999985    1.64999998
   19.56444359  142.20700073    4.90999985    1.83000004
   19.56777954  130.46600342    4.90999985    1.96000004
   19.57083511  137.50300598    4.90999985    1.98000002
   19.57416725  120.25000000    4.90999985    2.01999998
   19.57750130  178.05400085    4.90999985    1.91999996
   19.58055687  223.69999695    4.90999985    1.88000000
   19.58277893  229.64199829    4.90999985    1.83000004
   19.58416748  203.96699524    4.90999985    1.80999994
   19.58750153  196.13099670    4.90999985    1.86000001
   19.59083366  149.13499451    4.90999985    1.94000006
   19.59388924  215.69500732    4.90999985    1.91999996
   19.60000038  215.69500732    4.90999985    1.80999994
   19.60416794  211.51499939    4.90999985    1.76999998
   19.60722351  191.74600220    4.90999985    1.69000006
   19.61055565   -1.00000000    4.90999985    1.66999996
   19.61388969  227.89700317    4.90999985    1.64999998
   19.61611176  121.91600037    4.90999985    1.75000000
   19.61750031  161.76600647    4.90999985    1.73000002
   19.62083435  177.76300049    4.90999985    1.73000002
   19.62416649  145.63200378    4.90999985    1.94000006
   19.62722206  136.93699646    4.90999985    1.98000002
   19.63055611  159.19900513    4.90999985    2.01999998
   19.63361168  121.53399658    4.90999985    1.98000002
   19.63694382  139.47099304    4.90999985    2.07999992
   19.64277840  139.47099304    4.90999985    2.01999998
   19.64694405  131.52299500    4.90999985    1.98000002
   19.64944458  133.95799255    4.90999985    1.96000004
   19.65055466  140.01400757    4.90999985    1.94000006
   19.65388870  144.27600098    4.90999985    1.85000002
   19.65694427  162.81500244    4.90999985    1.85000002
   19.66027832  237.49499512    4.90999985    1.85000002
   19.66361046  206.37699890    4.90999985    1.83000004
   19.66666603  216.09599304    4.90999985    1.86000001
   19.67000008  206.13699341    4.90999985    1.85000002
   19.67305565   92.10939789    4.90999985    1.71000004
   19.67638779  248.41499329    4.90999985    1.71000004
   19.67972183  245.21899414    4.90999985    1.78999996
   19.68555450  245.21899414    4.90999985    1.91999996
   19.68972206  172.88600159    4.90999985    1.96000004
   19.69305420  277.13198853    4.90999985    1.86000001
   19.69638824   76.52950287    4.90999985    1.80999994
   19.69944382   23.57019997    4.90999985    1.64999998
   19.70277786   41.47010040    4.90999985    1.66999996
   19.70611191   75.09490204    4.90999985    1.69000006
   19.70916748   -1.00000000   -1.00000000   -1.00000000
   19.71250153   -1.00000000    4.90999985    1.66999996
   19.71555710   -1.00000000    4.90999985    1.55999994
   19.71916771   -1.00000000    4.90999985    1.48000002
   19.72249985   -1.00000000    4.90999985    1.38000000
   19.73250008   -1.00000000    4.90999985    1.03999996
   19.73583412   -1.00000000    4.90999985    1.23000002
   19.73888969   -1.00000000    4.90999985    1.36000001
   19.74222183   -1.00000000    4.90999985    1.41999996
   19.74555588   -1.00000000    4.90999985    1.36000001
   19.74861145   -1.00000000    4.90999985    1.48000002
   19.75222206   -1.00000000    4.90999985    1.61000001
   19.75555611   -1.00000000    4.90999985    1.85000002
   19.75861168   -1.00000000    4.90999985    1.94000006
   19.76194382   -1.00000000    4.90999985    1.96000004
   19.76499939   -1.00000000    4.90999985    1.83000004
   19.77527809   -1.00000000    4.90999985    1.86000001
