    HOUR (UT)   FLARE FACTOR    SKY TESTER    SUN TESTER
   11.06055546   -1.00000000   -1.00000000   -1.00000000
   11.08388901  387.93499756    0.00000000    0.00000000
   11.08694458  329.41400146    0.00000000    0.00000000
   11.09027767  230.03199768    0.00000000    0.00000000
   11.09361076  328.64898682    0.00000000    0.00000000
   11.09666634  333.69400024    0.00000000    0.00000000
   11.10000038  331.36099243    0.00000000    0.00000000
   11.10416698  331.36099243    0.00000000    0.00000000
   11.10833359  281.39498901    0.00000000    0.00000000
   11.11138916  307.25799561    0.00000000    0.00000000
   11.11472225  309.17700195    0.00000000    0.00000000
   11.11722279  231.37899780    0.00000000    0.00000000
   11.11833382  347.01000977    0.00000000    0.00000000
   11.12166691  319.37600708    0.00000000    0.00000000
   11.12500000  302.10598755    0.00000000    0.00000000
   11.12805557  300.45001221    4.90999985    1.63000000
   11.13138866  290.00799561    4.90999985    1.63000000
   11.13472176  280.92999268    4.90999985    1.63000000
   11.13777733  297.43301392    4.90999985    1.63000000
   11.14111137  287.27801514    4.90999985    1.63000000
   11.14694405  287.27801514    4.90999985    1.63000000
   11.15138817  287.60101318    4.90999985    1.63000000
   11.15472221  302.40499878    4.90999985    1.63000000
   11.15777779  261.01699829    4.90999985    1.63000000
   11.16111088  267.99700928    4.90999985    1.63000000
   11.16444397  270.82699585    4.90999985    1.63000000
   11.16750050  265.11099243    4.90999985    1.63000000
   11.17083359  266.32299805    4.90999985    1.63000000
   11.17416668  252.55000305    4.90999985    1.63000000
   11.17722225  257.97799683    4.90999985    1.63000000
   11.18055630  257.05200195    4.90999985    1.63000000
   11.18388939  284.66500854    4.90999985    1.63000000
   11.18416691  260.48300171    4.90999985    1.63000000
   11.18972206  260.48300171    4.90999985    1.63000000
   11.19388866  204.38900757    4.90999985    1.63000000
   11.19722271  248.14300537    4.90999985    1.63000000
   11.20027733  261.78900146    4.90999985    1.63000000
   11.20361137  249.66700745    4.90999985    1.63000000
   11.20694447  267.13598633    4.90999985    1.63000000
   11.21000004  242.83500671    4.90999985    1.63000000
   11.21333313  247.69799805    4.90999985    1.63000000
   11.21666622  248.62399292    4.90999985    1.63000000
   11.21722221  243.42199707    4.90999985    1.63000000
   11.21999931  248.81399536    4.90999985    1.63000000
   11.22333336  236.86900330    4.90999985    1.63000000
   11.22666645  230.02799988    4.90999985    1.63000000
   11.23277760  230.02799988    4.90999985    1.63000000
   11.23666668  245.46800232    4.90999985    1.63000000
   11.24000072  220.70899963    4.90999985    1.63000000
   11.24333382  232.96800232    4.90999985    1.63000000
   11.24638939  237.48100281    4.90999985    1.63000000
   11.24972248  219.16700745    4.90999985    1.63000000
   11.25055599  236.38200378    4.90999985    1.63000000
   11.25333309  216.49200439    4.90999985    1.63000000
   11.25666714  223.13999939    4.90999985    1.63000000
   11.26000023  217.03399658    4.90999985    1.63000000
   11.26305580  244.06300354    4.90999985    1.63000000
   11.26638889  225.82000732    4.90999985    1.63000000
   11.26972198  220.70500183    4.90999985    1.63000000
   11.27555561  220.70500183    4.90999985    1.63000000
   11.27972221  230.16400146    4.90999985    1.63000000
   11.28277779  211.53999329    4.90999985    1.63000000
   11.28388977  218.52699280    4.90999985    1.63000000
   11.28638935  213.09500122    4.90999985    1.63000000
   11.28972244  223.18699646    4.90999985    1.63000000
   11.29305553  214.73599243    4.90999985    1.63000000
   11.29611111  214.17300415    4.90999985    1.63000000
   11.29944515  220.56300354    4.90999985    1.63000000
   11.30277824  177.29400635    4.90999985    1.63000000
   11.30583382  212.97399902    4.90999985    1.63000000
   11.30916691  223.17300415    4.90999985    1.63000000
   11.31222248  218.56799316    4.90999985    1.63000000
   11.31833363  218.56799316    4.90999985    1.63000000
   11.32250023  223.22200012    4.90999985    1.63000000
   11.32583332  211.16900635    4.90999985    1.63000000
   11.32888889  210.89100647    4.90999985    1.63000000
   11.33222198  214.80299377    4.90999985    1.63000000
   11.33555508  234.02400208    4.90999985    1.63000000
   11.33861065  203.76499939    4.90999985    1.63000000
   11.34194374  214.48899841    4.90999985    1.63000000
   11.34499931  217.53900146    4.90999985    1.63000000
   11.34833336  245.98100281    4.90999985    1.63000000
   11.35055637  250.23100281    4.90999985    1.63000000
   11.35194492  202.97000122    4.90999985    1.63000000
   11.36444473  235.84100342    0.00000000    0.00000000
   11.36861134  235.84100342    4.90999985    1.96000004
   11.37277794  233.09800720    4.90999985    1.96000004
   11.37583351  217.15600586    4.90999985    1.96000004
   11.37916660  222.77400208    4.90999985    1.96000004
   11.38249969  230.94700623    4.90999985    1.96000004
   11.38388920  216.40699768    4.90999985    1.98000002
   11.38611126  215.58099365    4.90999985    1.96000004
   11.38916683  208.42100525    4.90999985    1.98000002
   11.39249992  202.35800171    4.90999985    1.98000002
   11.39555550  229.25100708    4.90999985    1.98000002
   11.39888859  206.34700012    4.90999985    1.98000002
   11.40222168  235.96499634    4.90999985    1.98000002
   11.40527725  214.50599670    4.90999985    2.00000000
   11.41138840  214.50599670    4.90999985    2.00000000
   11.41555500  227.92599487    4.90999985    2.00000000
   11.41722298  212.88299561    4.90999985    2.00000000
   11.41944504  208.39399719    4.90999985    2.00000000
   11.42250061  203.75700378    4.90999985    2.01999998
   11.42583370  217.61099243    4.90999985    2.01999998
   11.42888927  221.01199341    4.90999985    2.01999998
   11.43222237  210.78900146    4.90999985    2.01999998
   11.43555546  201.65400696    4.90999985    2.01999998
   11.43861103  218.59500122    4.90999985    2.03999996
   11.44194412  225.34399414    4.90999985    2.03999996
   11.44527817  209.32200623    4.90999985    2.03999996
   11.44833374  208.90299988    4.90999985    2.03999996
   11.45055580  200.54499817    4.90999985    2.03999996
   11.45472240  200.54499817    4.90999985    2.03999996
   11.45888901  205.58700562    4.90999985    2.03999996
   11.46194458  205.22099304    4.90999985    2.03999996
   11.46527767  208.75900269    4.90999985    2.05999994
   11.46861076  208.50300598    4.90999985    2.05999994
   11.47166634  193.17199707    4.90999985    2.05999994
   11.47499943  211.13699341    4.88999987    2.05999994
   11.47805500  203.68499756    4.86999989    2.05999994
   11.48138809  208.94000244    4.84999990    2.05999994
   11.48388958  184.97999573    4.84999990    2.05999994
   11.48527813  198.63400269    4.82999992    2.05999994
   11.48833370  202.66400146    4.82999992    2.07999992
   11.49166679  206.67700195    4.80999994    2.07999992
   11.49750042  206.67700195    4.80999994    2.07999992
   11.50166702  188.75900269    4.80000019    2.07999992
   11.50500011  191.40699768    4.80000019    2.07999992
   11.50805569  190.76699829    4.78000021    2.07999992
   11.51138878  196.38200378    4.78000021    2.09999990
   11.51444435  203.70199585    4.76000023    2.09999990
   11.51722240  205.56399536    4.76000023    2.09999990
   11.51833344  210.34599304    4.76000023    2.09999990
   11.52138901  200.06500244    4.73999977    2.09999990
   11.52472210  202.50700378    4.73999977    2.09999990
   11.52777767  194.89799500    4.73999977    2.09999990
   11.53111076  192.59399414    4.71999979    2.09999990
   11.53444481  199.11900330    4.71999979    2.11999989
   11.54027843  199.11900330    4.67999983    2.11999989
   11.54444504  189.24200439    4.67999983    2.11999989
   11.54777813  195.27799988    4.65999985    2.11999989
   11.55055618  178.60099792    4.65999985    2.11999989
   11.55138874  196.83700562    4.65999985    2.11999989
   11.55472279  188.17700195    4.65999985    2.11999989
   11.55777836  182.08599854    4.63999987    2.11999989
   11.56999969  180.41299438    0.00000000    0.00000000
   11.57305527  185.58399963    4.61999989    2.13000011
   11.57638836  185.72999573    4.59999990    2.13000011
   11.58333302  185.72999573    4.59999990    2.13000011
   11.58722210  191.36799622    4.59999990    2.13000011
   11.59055519  187.38800049    4.57999992    2.13000011
   11.60222244  181.67300415    4.53999996    2.15000010
   11.60555553  182.47999573    4.53999996    2.15000010
   11.60861111  173.34199524    4.53000021    2.15000010
   11.61194515  176.65199280    4.51000023    2.15000010
   11.61611176  175.98599243    4.48999977    2.15000010
   11.61888885  177.83099365    4.46999979    2.17000008
   11.61999989  181.14900208    4.46999979    2.17000008
   11.62333393  167.51699829    4.46999979    2.15000010
   11.63000011  167.51699829    4.44999981    2.17000008
   11.63416672  174.57299805    4.42999983    2.15000010
   11.63722229  185.30799866    4.42999983    2.17000008
   11.64055538  175.97900391    4.40999985    2.17000008
   11.64361095  178.71800232    4.40999985    2.17000008
   11.64694405  176.02200317    4.40999985    2.17000008
   11.65027714  183.34800720    4.36999989    2.17000008
   11.65222168  167.83900452    4.38999987    2.19000006
   11.65388870  175.95100403    4.36999989    2.17000008
   11.65722179  172.19500732    4.36999989    2.19000006
   11.66027737  189.47599792    4.34999990    2.19000006
   11.66361046  174.03999329    4.32999992    2.19000006
   11.66666698  213.43200684    4.32999992    2.19000006
   11.67277813  213.43200684    4.30999994    2.19000006
   11.67694473  190.35200500    4.30999994    2.19000006
   11.68000031  177.90600586    4.30999994    2.21000004
   11.68333340  175.31599426    4.28999996    2.21000004
   11.68555546  195.58799744    4.28999996    2.21000004
   11.68694496  183.69900513    4.28999996    2.21000004
   11.69027805  201.29899597    4.28999996    2.21000004
   11.69333363  182.29200745    4.28999996    2.19000006
   11.69666672  171.25500488    4.26999998    2.21000004
   11.69999981  169.83299255    4.26999998    2.21000004
   11.70305538  201.16799927    4.26999998    2.21000004
   11.70638847  197.21800232    4.26999998    2.21000004
   11.70972157  169.41700745    4.26999998    2.21000004
   11.72444439  169.41700745    4.23999977    2.23000002
   11.72861099  182.36000061    4.21999979    2.23000002
   11.73194408  171.62399292    4.21999979    2.23000002
   11.73500061  196.19700623    4.19999981    2.23000002
   11.73833370  166.02299500    4.19999981    2.23000002
   11.74166679  174.44599915    4.17999983    2.23000002
   11.74472237  166.27400208    4.15999985    2.23000002
   11.74805546  160.21099854    4.13999987    2.23000002
   11.75138855  183.92700195    4.13999987    2.25000000
   11.75444412  174.73699951    4.11999989    2.25000000
   11.75861073  174.73699951    4.11999989    2.23000002
   11.76277733  167.29100037    4.09999990    2.25000000
   11.76611137  179.03300476    4.07999992    2.25000000
   11.76916599  170.96299744    4.05999994    2.25000000
   11.77250004  161.77200317    4.07999992    2.25000000
   11.77555561  180.94000244    4.05999994    2.26999998
   11.77888870  164.19400024    4.05999994    2.25000000
   11.78222179  170.41999817    4.05999994    2.26999998
   11.78527832  165.81199646    4.05999994    2.26999998
   11.78861141  165.53300476    4.03999996    2.26999998
   11.79194450  168.59500122    4.03999996    2.26999998
   11.79361153  158.75500488    4.03999996    2.28999996
   11.79555607  182.68699646    4.03999996    2.26999998
   11.80138874  182.68699646    4.01999998    2.26999998
   11.80555534  166.47000122    4.01999998    2.26999998
   11.80888939  165.90199280    4.00000000    2.26999998
   11.81194496  161.75500488    4.00000000    2.26999998
   11.82444477  167.84300232    0.00000000    0.00000000
   11.82694435  173.86000061    3.99000001    2.28999996
   11.82805538  167.61000061    4.00000000    2.28999996
   11.83138847  174.83700562    3.99000001    2.28999996
   11.83444405  174.92999268    3.99000001    2.28999996
   11.83777714  175.19099426    3.99000001    2.28999996
   11.84083271  160.64300537    3.99000001    2.28999996
   11.84416676  183.28500366    3.99000001    2.28999996
   11.84749985  164.85099792    3.99000001    2.28999996
   11.85194492  164.85099792    3.99000001    2.28999996
   11.85611153  161.68400574    3.97000003    2.28999996
   11.85944462  176.53999329    3.99000001    2.30999994
   11.86027813  168.61000061    3.99000001    2.28999996
   11.86305618  160.14399719    3.97000003    2.30999994
   11.86638927  159.85299683    3.95000005    2.28999996
   11.86944485  165.97099304    3.95000005    2.30999994
   11.87277794  163.72599792    3.93000007    2.28999996
   11.87611103  156.13400269    3.91000009    2.30999994
   11.87916660  163.52999878    3.91000009    2.30999994
   11.88249969  152.45799255    3.89000010    2.30999994
   11.88555527  171.55400085    3.86999989    2.30999994
   11.88888836  168.56100464    3.86999989    2.30999994
   11.89472198  168.56100464    3.82999992    2.30999994
   11.89888859  175.63600159    3.80999994    2.30999994
   11.90222168  166.74099731    3.80999994    2.32999992
   11.90555477  161.66600037    3.78999996    2.32999992
   11.90861034  166.71400452    3.78999996    2.32999992
   11.91194439  165.69299316    3.76999998    2.32999992
   11.91527748  168.22599792    3.75000000    2.32999992
   11.91833401  157.29600525    3.75000000    2.32999992
   11.92166710  172.55299377    3.75000000    2.30999994
   11.92472267  160.05400085    3.73000002    2.32999992
   11.92694473  174.07400513    3.72000003    2.32999992
   11.92861176  161.41700745    3.72000003    2.32999992
   11.93194485  168.54499817    3.70000005    2.32999992
   11.93777752  168.54499817    3.68000007    2.32999992
   11.94194412  158.14900208    3.68000007    2.34999990
   11.94499969  169.27200317    3.68000007    2.34999990
   11.94833374  156.11700439    3.68000007    2.34999990
   11.95138836  171.29699707    3.68000007    2.34999990
   11.95472240  159.86700439    3.68000007    2.34999990
   11.95805550  161.48100281    3.68000007    2.32999992
   11.96027756  163.90899658    3.68000007    2.34999990
   11.96166611  155.37199402    3.66000009    2.32999992
   11.96500015  165.25000000    3.66000009    2.34999990
   11.96805477  166.81799316    3.64000010    2.34999990
   11.97138882  154.17999268    3.64000010    2.34999990
   11.97472191  157.86700439    3.61999989    2.36999989
   11.98055553  157.86700439    3.59999990    2.36999989
   11.98472214  156.84100342    3.59999990    2.36999989
   11.98777771  158.95599365    3.61999989    2.34999990
   11.99111176  161.52600098    3.59999990    2.36999989
   11.99361134  164.91700745    3.59999990    2.36999989
   11.99472237  161.79299927    3.59999990    2.34999990
   11.99805546  165.44700623    3.59999990    2.34999990
   12.00111103  147.69900513    3.57999992    2.36999989
   12.00444412  157.88800049    3.57999992    2.36999989
   12.00777817  152.81500244    3.57999992    2.36999989
   12.01083374  161.36099243    3.57999992    2.36999989
   12.01416683  155.92700195    3.55999994    2.36999989
   12.01749992  158.49800110    3.55999994    2.36999989
   12.02333355  158.49800110    3.55999994    2.36999989
   12.02750015  155.81199646    3.51999998    2.36999989
   12.03083324  160.02900696    3.51999998    2.36999989
   12.03388977  154.21800232    3.51999998    2.36999989
   12.03722286  159.15699768    3.50000000    2.39000010
   12.04055595  161.35099792    3.50000000    2.39000010
   12.04361153  165.92900085    3.50000000    2.39000010
   12.04694462  166.19700623    3.48000002    2.39000010
   12.05000019  156.07699585    3.48000002    2.39000010
   12.05333328  149.01499939    3.46000004    2.39000010
   12.05666733  166.09199524    3.46000004    2.39000010
   12.05972195  163.63499451    3.45000005    2.39000010
   12.06027794  144.30900574    3.45000005    2.39000010
   12.06611156  144.30900574    3.45000005    2.39000010
   12.07027817  150.41499329    3.43000007    2.39000010
   12.07361126  154.00999451    3.41000009    2.39000010
   12.07694435  155.65299988    3.39000010    2.39000010
   12.07999992  155.83500671    3.39000010    2.40000010
   12.08333302  158.21299744    3.39000010    2.40000010
   12.08638859  152.07800293    3.39000010    2.40000010
   12.08972168  153.33700562    3.36999989    2.39000010
   12.09305477  160.76300049    3.36999989    2.40000010
   12.09361076  159.75900269    3.36999989    2.40000010
   12.09666634  169.04299927    3.36999989    2.40000010
   12.10000038  155.73800659    3.34999990    2.40000010
   12.10305595  155.62899780    3.36999989    2.40000010
   12.10916710  155.62899780    3.34999990    2.40000010
   12.11305618  159.06199646    3.34999990    2.40000010
   12.13166714  218.25199890    3.32999992    2.40000010
   12.13305569  202.90100098    3.32999992    2.42000008
   12.13611126  179.56100464    3.30999994    2.42000008
   12.13944435  193.71099854    3.32999992    2.42000008
   12.14277744  153.86799622    3.30999994    2.42000008
   12.14611053  170.44799805    3.30999994    2.42000008
   12.15222168  170.44799805    3.30999994    2.42000008
   12.15638828  191.74099731    3.30999994    2.44000006
   12.15944386  172.32899475    3.30999994    2.40000010
   12.16277695  196.62600708    3.30999994    2.40000010
   12.16499996  193.66999817    3.30999994    2.40000010
   12.16638851  170.65600586    3.28999996    2.42000008
   12.16972256  177.03500366    3.28999996    2.42000008
   12.17305565  191.95199585    3.26999998    2.42000008
   12.17611122  172.98599243    3.26999998    2.42000008
   12.17944431  163.60400391    3.26999998    2.40000010
   12.18277836  171.60600281    3.25000000    2.40000010
   12.18583298  181.33900452    3.25000000    2.42000008
   12.18916702  165.84199524    3.23000002    2.42000008
   12.19499969  165.84199524    3.21000004    2.42000008
   12.19916630  155.82899475    3.21000004    2.42000008
   12.20249939  155.27200317    3.20000005    2.42000008
   12.20555496  167.44599915    3.20000005    2.40000010
   12.20888901  148.78199768    3.20000005    2.42000008
   12.21194458  155.79299927    3.20000005    2.42000008
   12.21527767  161.61300659    3.18000007    2.42000008
   12.21861076  170.14700317    3.18000007    2.42000008
   12.22166634  168.34500122    3.16000009    2.42000008
   12.22499943  176.55400085    3.16000009    2.42000008
   12.22833252  169.23899841    3.14000010    2.42000008
   12.23138809  157.65800476    3.14000010    2.42000008
   12.23194408  163.84399414    3.16000009    2.44000006
   12.23777771  163.84399414    3.16000009    2.44000006
   12.24194431  160.93600464    3.14000010    2.44000006
   12.24527836  157.47000122    3.11999989    2.42000008
   12.24833393  160.45300293    3.11999989    2.42000008
   12.25166702  151.45799255    3.09999990    2.42000008
   12.25500011  166.24299622    3.09999990    2.42000008
   12.25805569  163.68400574    3.07999992    2.44000006
   12.26138878  154.97200012    3.07999992    2.44000006
   12.26472187  155.62399292    3.05999994    2.44000006
   12.26527786  153.33000183    3.05999994    2.44000006
   12.26833344  159.47900391    3.05999994    2.44000006
   12.27138901  157.52799988    3.03999996    2.42000008
   12.27472210  155.72300720    3.01999998    2.46000004
   12.28055573  155.72300720    3.00000000    2.46000004
   12.28472233  154.92799377    2.98000002    2.44000006
   12.28805637  154.11700439    2.98000002    2.46000004
   12.29138947  158.09399414    2.96000004    2.46000004
   12.29444504  153.65600586    2.96000004    2.44000006
   12.29777813  150.95199585    2.96000004    2.46000004
   12.29861164  148.36199951    2.96000004    2.46000004
   12.30138874  152.36999512    2.94000006    2.46000004
   12.30444431  155.12100220    2.94000006    2.46000004
   12.30777836  148.40499878    2.93000007    2.46000004
   12.31111145  159.56599426    2.93000007    2.46000004
   12.31416702  158.47599792    2.91000009    2.46000004
   12.31750011  152.35499573    2.91000009    2.46000004
   12.32361126  152.35499573    2.89000010    2.46000004
   12.32777786  155.26100159    2.89000010    2.46000004
   12.33083344  156.59700012    2.89000010    2.46000004
   12.33194447  157.10299683    2.89000010    2.46000004
   12.33472157  154.45799255    2.89000010    2.46000004
   12.33777714  151.82099915    2.86999989    2.46000004
   12.34111118  175.16499329    2.86999989    2.46000004
   12.34444427  160.57400513    2.84999990    2.46000004
   12.34749985  164.75700378    2.84999990    2.46000004
   12.35083389  160.94000244    2.84999990    2.46000004
   12.35388947  157.77900696    2.84999990    2.46000004
   12.35722256  156.11199951    2.84999990    2.48000002
   12.36055565  147.75900269    2.84999990    2.46000004
   12.36638927  147.75900269    2.84999990    2.46000004
   12.37055588  172.34700012    2.82999992    2.48000002
   12.37361145  155.83500671    2.80999994    2.46000004
   12.37694454  168.95300293    2.82999992    2.48000002
   12.38027763  152.72900391    2.80999994    2.48000002
   12.38333321  142.28300476    2.80999994    2.48000002
   12.38666630  160.66700745    2.80999994    2.48000002
   12.39000034  160.07000732    2.80999994    2.48000002
   12.39305496  159.78500366    2.78999996    2.48000002
   12.39638901  165.38000488    2.78999996    2.48000002
   12.39861107  151.07299805    2.78999996    2.48000002
   12.39999962  164.57200623    2.76999998    2.48000002
   12.40305519  171.91900635    2.76999998    2.48000002
   12.40916634  171.91900635    2.76999998    2.48000002
   12.41333294  153.38299561    2.75000000    2.48000002
   12.41666698  163.06900024    2.76999998    2.48000002
   12.41972256  149.93299866    2.75000000    2.48000002
   12.42305565  153.99400330    2.76999998    2.48000002
   12.42611122  150.75799561    2.75000000    2.48000002
   12.42944431  146.36300659    2.75000000    2.48000002
   12.43194485  154.44900513    2.76999998    2.50000000
   12.43305588  150.37600708    2.76999998    2.50000000
   12.43611145  146.56399536    2.75000000    2.48000002
   12.43944454  148.73300171    2.75000000    2.50000000
   12.44277763  151.08099365    2.76999998    2.50000000
   12.44583321  152.41000366    2.75000000    2.50000000
   12.45194435  152.41000366    2.76999998    2.50000000
   12.45611095  152.91799927    2.76999998    2.50000000
   12.45944405  154.85099792    2.75000000    2.50000000
   12.46249962  150.33700562    2.75000000    2.50000000
   12.46527767  143.57600403    2.73000002    2.50000000
   12.46638870  144.22300720    2.73000002    2.50000000
   12.46944427  151.48800659    2.73000002    2.50000000
   12.47277737  152.87199402    2.75000000    2.50000000
   12.47611046  153.15100098    2.75000000    2.50000000
   12.47916603  150.29400635    2.75000000    2.50000000
   12.48249912  152.35499573    2.75000000    2.50000000
   12.48583317  150.63299561    2.75000000    2.50000000
   12.48888874  148.31399536    2.75000000    2.50000000
   12.49499989  148.31399536    2.75000000    2.51999998
   12.49916649  150.21800232    2.73000002    2.51999998
   12.50222206  152.79400635    2.73000002    2.50000000
   12.50555515  150.02600098    2.71000004    2.50000000
   12.50861073  149.16299438    2.71000004    2.50000000
   12.51194477  149.22599792    2.69000006    2.50000000
   12.51527786  148.54299927    2.69000006    2.50000000
   12.51833344  147.93800354    2.69000006    2.50000000
   12.52166653  156.73300171    2.67000008    2.51999998
   12.52472210  147.26499939    2.69000006    2.51999998
   12.52805519  149.62800598    2.69000006    2.51999998
   12.53138828  146.12800598    2.69000006    2.51999998
   12.53194427  147.95899963    2.69000006    2.51999998
   12.53777790  147.95899963    2.69000006    2.51999998
   12.54194450  151.87399292    2.71000004    2.50000000
   12.54500008  151.81399536    2.71000004    2.51999998
   12.54833412  148.11399841    2.73000002    2.51999998
   12.55166721  152.02600098    2.73000002    2.51999998
   12.55472279  146.38600159    2.71000004    2.50000000
   12.55805588  153.81300354    2.71000004    2.51999998
   12.56138897  146.04899597    2.71000004    2.51999998
   12.56444454  147.97000122    2.71000004    2.51999998
   12.56527805  145.28100586    2.71000004    2.53999996
   12.56833363  145.79499817    2.71000004    2.51999998
   12.57138920  145.80799866    2.69000006    2.51999998
   12.57472229  146.35400391    2.69000006    2.51999998
   12.58055592  146.35400391    2.69000006    2.51999998
   12.58472157  146.43699646    2.69000006    2.51999998
   12.58805561  148.42399597    2.69000006    2.51999998
   12.59111118  148.15499878    2.67000008    2.51999998
   12.59444427  139.42700195    2.67000008    2.51999998
   12.59749985  141.45599365    2.67000008    2.51999998
   12.59861088  140.07299805    2.67000008    2.51999998
   12.60138893  146.15499878    2.67000008    2.51999998
   12.60472298  148.50199890    2.67000008    2.51999998
   12.60777855  136.61999512    2.67000008    2.53999996
   12.61999989  140.35099792    0.00000000    0.00000000
   12.62333393  144.74899292    2.67000008    2.51999998
   12.62944412  144.74899292    2.67000008    2.51999998
   12.63361073  142.50500488    2.67000008    2.53999996
   12.63583279  140.85400391    2.67000008    2.53999996
   12.63777733  144.39399719    2.67000008    2.53999996
   12.64083290  136.71400452    2.67000008    2.53999996
   12.64416695  137.26800537    2.66000009    2.53999996
   12.64722252  143.66799927    2.66000009    2.51999998
   12.65055561  140.82499695    2.64000010    2.53999996
   12.65388870  149.16499329    2.64000010    2.53999996
   12.65694427  143.80799866    2.64000010    2.53999996
   12.66027737  153.04200745    2.64000010    2.53999996
   12.66361046  144.88699341    2.61999989    2.53999996
   12.66666698  148.48599243    2.59999990    2.53999996
   12.67222214  148.48599243    2.59999990    2.53999996
   12.67638874  155.08299255    2.55999994    2.55999994
   12.67972279  156.10200500    2.55999994    2.53999996
   12.68277836  164.69700623    2.55999994    2.53999996
   12.68611145  161.31599426    2.55999994    2.53999996
   12.68944454  141.71099854    2.57999992    2.53999996
   12.69250011  156.53300476    2.57999992    2.53999996
   12.69583321  148.47099304    2.57999992    2.53999996
   12.69916630  149.66700745    2.57999992    2.53999996
   12.70222187  148.53199768    2.59999990    2.53999996
   12.70333290  155.92199707    2.59999990    2.53999996
   12.70583344  143.50700378    2.57999992    2.55999994
   12.70916653  170.44400024    2.57999992    2.55999994
   12.71527767  170.44400024    2.59999990    2.55999994
   12.71916580  174.35200500    2.59999990    2.53999996
   12.72249985  143.35499573    2.59999990    2.53999996
   12.72583294  164.07899475    2.57999992    2.53999996
   12.72888851  185.91900635    2.57999992    2.55999994
   12.73222160  150.70100403    2.55999994    2.55999994
   12.73555565  164.59800720    2.55999994    2.53999996
   12.73666668  132.66400146    2.55999994    2.53999996
   12.73888874  176.18299866    2.53999996    2.53999996
   12.74222279  151.98599243    2.53999996    2.53999996
   12.74527836  196.59599304    2.53999996    2.55999994
   12.74861145  149.61900330    2.53999996    2.55999994
   12.75194454  195.10699463    2.53999996    2.55999994
   12.75805569  195.10699463    2.51999998    2.55999994
   12.76222229  201.40800476    2.51999998    2.53999996
   12.76527786  228.52099609    2.51999998    2.55999994
   12.76861095  182.98300171    2.51999998    2.55999994
   12.76999950  202.92199707    2.51999998    2.55999994
   12.77222157  206.84500122    2.50000000    2.55999994
   12.77555561  196.68899536    2.50000000    2.55999994
   12.77861118  182.69000244    2.50000000    2.55999994
   12.78194427  174.04400635    2.50000000    2.55999994
   12.78527832  219.49299622    2.48000002    2.55999994
   12.78833389  182.52799988    2.48000002    2.55999994
   12.79166698  154.03900146    2.46000004    2.55999994
   12.79472256  154.40499878    2.46000004    2.55999994
   12.80083370  154.40499878    2.46000004    2.55999994
   12.80500031  134.59599304    2.48000002    2.55999994
   12.80833340  149.64500427    2.46000004    2.55999994
   12.81138897  145.06700134    2.46000004    2.55999994
   12.81472206  128.58399963    2.46000004    2.55999994
   12.81777763  149.02499390    2.46000004    2.55999994
   12.82111073  141.50199890    2.46000004    2.57999992
   12.82444477  139.39199829    2.46000004    2.55999994
   12.82750034  137.86900330    2.46000004    2.57999992
   12.83083344  136.77400208    2.46000004    2.55999994
   12.83416653  140.80299377    2.44000006    2.55999994
   12.83666611  143.56399536    2.44000006    2.57999992
   12.83777714  139.53599548    2.44000006    2.57999992
   12.84361076  139.53599548    2.42000008    2.57999992
   12.84777737  140.85899353    2.42000008    2.57999992
   12.85111141  137.62199402    2.42000008    2.57999992
   12.85416698  135.45599365    2.42000008    2.57999992
   12.85750008  145.18200684    2.42000008    2.57999992
   12.86083412  149.05099487    2.42000008    2.57999992
   12.86388969  144.82800293    2.42000008    2.57999992
   12.86722279  136.31599426    2.44000006    2.57999992
   12.86999989  137.73899841    2.44000006    2.57999992
   12.87083340  135.98599243    2.44000006    2.57999992
   12.87416649  146.36999512    2.42000008    2.57999992
   12.87722206  140.44099426    2.42000008    2.57999992
   12.88055611  143.08000183    2.42000008    2.55999994
   12.88666630  143.08000183    2.42000008    2.57999992
   12.89055538  138.08299255    2.40000010    2.59999990
   12.89388847  134.77200317    2.40000010    2.57999992
   12.89722252  142.21499634    2.39000010    2.57999992
   12.90027714  136.13600159    2.39000010    2.57999992
   12.90361118  139.74499512    2.36999989    2.57999992
   12.90388870  134.49299622    2.36999989    2.57999992
   12.90722179  146.02999878    2.34999990    2.57999992
   12.91027737  134.63400269    2.34999990    2.57999992
   12.91361046  151.70700073    2.32999992    2.57999992
   12.91694450  153.37899780    2.32999992    2.57999992
   12.92000008  157.60299683    2.32999992    2.57999992
   12.92333412  150.40299988    2.32999992    2.57999992
   12.92944431  150.40299988    2.32999992    2.59999990
   12.93361092  137.82099915    2.32999992    2.59999990
   12.93694496  157.29100037    2.32999992    2.57999992
   12.93722248  161.31900024    2.32999992    2.59999990
   12.94055557  139.73300171    2.32999992    2.57999992
   12.94361115  143.96200562    2.30999994    2.57999992
   12.94694424  144.60299683    2.30999994    2.57999992
   12.95027733  150.43899536    2.30999994    2.59999990
   12.95333290  132.57699585    2.30999994    2.59999990
   12.95666695  146.19500732    2.32999992    2.57999992
   12.95972157  140.32800293    2.32999992    2.59999990
   12.96305561  130.71600342    2.32999992    2.57999992
   12.96638870  136.15299988    2.32999992    2.59999990
   12.97222137  136.15299988    2.30999994    2.59999990
   12.97638798  137.11799622    2.30999994    2.59999990
   12.97972202  148.94700623    2.30999994    2.59999990
   12.98277760  130.74499512    2.28999996    2.59999990
   12.98611164  132.09500122    2.28999996    2.59999990
   12.98916721  135.55599976    2.28999996    2.59999990
   12.99250031  136.77000427    2.28999996    2.59999990
   12.99583340  154.35200500    2.28999996    2.59999990
   12.99888897  147.79600525    2.26999998    2.61999989
   13.00222206  141.08500671    2.26999998    2.59999990
   13.00361156  141.56100464    2.26999998    2.59999990
   13.00583363  134.49899292    2.26999998    2.59999990
   13.00916672  149.76300049    2.26999998    2.59999990
   13.01500034  149.76300049    2.26999998    2.61999989
   13.01916599  128.92500305    2.28999996    2.59999990
   13.02250004  139.42399597    2.28999996    2.59999990
   13.02555561  152.27200317    2.28999996    2.61999989
   13.02888870  142.46600342    2.28999996    2.59999990
   13.03222179  140.36999512    2.30999994    2.61999989
   13.03527832  141.21499634    2.30999994    2.59999990
   13.03694534  130.26899719    2.30999994    2.61999989
   13.03888893  141.60299683    2.30999994    2.61999989
   13.04222298  132.05200195    2.32999992    2.61999989
   13.04527855  135.80400085    2.32999992    2.59999990
   13.04861164  138.11300659    2.32999992    2.59999990
   13.05194473  147.88699341    2.32999992    2.59999990
   13.05805588  147.88699341    2.32999992    2.61999989
   13.06194496  138.73399353    2.34999990    2.61999989
   13.06527805  145.79200745    2.34999990    2.59999990
   13.06861115  141.42399597    2.34999990    2.59999990
   13.07027817  141.95899963    2.32999992    2.59999990
   13.07222176  140.93099976    2.32999992    2.61999989
   13.07555580  133.42500305    2.30999994    2.61999989
   13.07861137  138.30599976    2.28999996    2.61999989
   13.08194447  140.38099670    2.26999998    2.61999989
   13.08500004  141.66000366    2.25000000    2.59999990
   13.08833313  136.50999451    2.25000000    2.61999989
   13.09166622  130.64399719    2.23000002    2.61999989
   13.09472179  153.18099976    2.23000002    2.59999990
   13.10083389  153.18099976    2.23000002    2.61999989
   13.10500050  138.01899719    2.26999998    2.61999989
   13.10805607  135.26199341    2.26999998    2.61999989
   13.11138916  143.18600464    2.28999996    2.61999989
   13.11472225  158.15499878    2.26999998    2.61999989
   13.11777782  138.03999329    2.28999996    2.61999989
   13.12111092  141.63800049    2.25000000    2.61999989
   13.12416649  147.88000488    2.25000000    2.61999989
   13.12750053  144.33599854    2.23000002    2.61999989
   13.13083363  143.15699768    2.21000004    2.61999989
   13.14861107  134.49499512    2.15000010    2.64000010
   13.15277767  134.49499512    2.15000010    2.64000010
   13.15694427  142.53700256    2.15000010    2.64000010
   13.16027737  141.45500183    2.15000010    2.61999989
   13.16333294  146.11599731    2.15000010    2.61999989
   13.16666698  141.94999695    2.17000008    2.61999989
   13.17000008  144.02999878    2.15000010    2.61999989
   13.17305565  135.29499817    2.15000010    2.61999989
   13.17638874  142.80599976    2.15000010    2.61999989
   13.17944431  150.82800293    2.13000011    2.64000010
   13.18194485  143.52900696    2.13000011    2.61999989
   13.18333340  143.90100098    2.13000011    2.64000010
   13.18638897  128.03700256    2.13000011    2.64000010
   13.18972206  140.88099670    2.11999989    2.64000010
   13.19555569  140.88099670    2.11999989    2.61999989
   13.19972229  139.89999390    2.11999989    2.64000010
   13.20305538  138.64900208    2.11999989    2.64000010
   13.20638847  136.75900269    2.11999989    2.61999989
   13.20944405  138.99000549    2.11999989    2.64000010
   13.21277714  136.23599243    2.11999989    2.64000010
   13.21527767  135.25399780    2.11999989    2.61999989
   13.21638870  134.56100464    2.11999989    2.61999989
   13.21944427  139.83099365    2.11999989    2.64000010
   13.22277737  129.38699341    2.09999990    2.64000010
   13.22583294  135.25000000    2.09999990    2.64000010
   13.22916603  129.61300659    2.09999990    2.64000010
   13.23249912  138.86300659    2.09999990    2.64000010
   13.23861122  138.86300659    2.07999992    2.64000010
   13.24277782  136.11199951    2.07999992    2.64000010
   13.24583340  141.66499329    2.07999992    2.64000010
   13.24861145  132.98500061    2.07999992    2.64000010
   13.24972248  134.70799255    2.07999992    2.64000010
   13.25277805  133.91299438    2.09999990    2.64000010
   13.25611115  134.45799255    2.09999990    2.66000009
   13.25944424  133.30200195    2.09999990    2.64000010
   13.26249981  132.33900452    2.09999990    2.66000009
   13.26583290  126.62100220    2.07999992    2.64000010
   13.26916599  139.00300598    2.07999992    2.64000010
   13.27222157  138.71000671    2.07999992    2.64000010
   13.27555561  140.84399414    2.05999994    2.64000010
   13.28138828  140.84399414    2.05999994    2.64000010
   13.28555584  133.71299744    2.05999994    2.64000010
   13.28861141  128.64799500    2.05999994    2.64000010
   13.29277802  133.20500183    2.05999994    2.64000010
   13.29611111  131.54499817    2.07999992    2.64000010
   13.29916668  136.17700195    2.07999992    2.64000010
   13.30249977  131.51400757    2.05999994    2.64000010
   13.30583382  136.56300354    2.05999994    2.64000010
   13.30888939  134.57699585    2.03999996    2.64000010
   13.31222248  136.99400330    2.03999996    2.64000010
   13.31527805  139.42700195    2.01999998    2.64000010
   13.31638908  133.51600647    2.01999998    2.64000010
   13.31916618  133.92399597    2.01999998    2.66000009
   13.32416630  133.92399597    2.01999998    2.64000010
   13.32833290  132.25700378    2.01999998    2.64000010
   13.33166695  133.77900696    2.00000000    2.64000010
   13.33472157  138.69500732    2.00000000    2.66000009
   13.33805561  136.51400757    2.00000000    2.64000010
   13.34138870  148.92500305    2.00000000    2.64000010
   13.34444427  140.80999756    2.00000000    2.64000010
   13.34777737  127.80899811    2.00000000    2.61999989
   13.34972191  133.63299561    2.00000000    2.66000009
   13.35138893  132.33399963    2.00000000    2.64000010
   13.35444450  143.48100281    2.00000000    2.66000009
   13.35777855  138.67700195    2.01999998    2.66000009
   13.36111164  137.93400574    2.00000000    2.64000010
   13.36694431  137.93400574    2.00000000    2.66000009
   13.37111092  141.09599304    1.98000002    2.67000008
   13.37444496  127.12999725    2.00000000    2.67000008
   13.37777805  153.50100708    2.01999998    2.67000008
   13.38083363  144.72099304    2.01999998    2.66000009
   13.38333321  141.40499878    2.01999998    2.67000008
   13.38472176  140.89700317    2.01999998    2.67000008
   13.38777733  153.32699585    2.01999998    2.67000008
   13.39111137  132.16000366    2.01999998    2.67000008
   13.39416695  132.84700012    2.01999998    2.67000008
   13.39750004  148.66700745    2.01999998    2.67000008
   13.40083313  134.33599854    2.00000000    2.67000008
   13.40388870  139.46299744    2.00000000    2.66000009
   13.40999985  139.46299744    2.00000000    2.67000008
   13.41416645  141.90899658    1.98000002    2.67000008
   13.41694450  146.96400452    1.98000002    2.67000008
   13.41833401  161.90600586    1.98000002    2.67000008
   13.42166710  146.20199585    1.98000002    2.66000009
   13.42500019  144.53799438    1.98000002    2.66000009
   13.42833328  145.81900024    1.98000002    2.67000008
   13.43166733  149.33200073    1.98000002    2.67000008
   13.43472195  140.07699585    1.98000002    2.67000008
   13.43805599  154.64700317    1.98000002    2.67000008
   13.44111156  150.73199463    1.94000006    2.66000009
   13.44444466  155.23100281    1.94000006    2.67000008
   13.44777775  152.23699951    1.94000006    2.67000008
   13.45277786  152.23699951    1.91999996    2.67000008
   13.45694447  139.60000610    1.94000006    2.67000008
   13.46000004  152.35400391    1.91999996    2.67000008
   13.46333313  140.52499390    1.91999996    2.67000008
   13.46666622  151.39900208    1.91999996    2.67000008
   13.46972179  141.08700562    1.91999996    2.67000008
   13.47305489  141.88299561    1.94000006    2.67000008
   13.47638798  152.01300049    1.94000006    2.67000008
   13.47944355  146.81799316    1.94000006    2.67000008
   13.48277760  145.50500488    1.94000006    2.67000008
   13.48361111  156.83399963    1.94000006    2.67000008
   13.48638916  163.29100037    1.94000006    2.67000008
   13.48944473  159.85000610    1.94000006    2.67000008
   13.49555588  159.85000610    1.91999996    2.67000008
   13.49972248  149.68200684    1.91999996    2.66000009
   13.50305557  145.86700439    1.91999996    2.67000008
   13.50611115  164.68299866    1.89999998    2.67000008
   13.50944424  153.80299377    1.89999998    2.67000008
   13.51277733  150.32400513    1.89999998    2.69000006
   13.51583290  155.13099670    1.88000000    2.69000006
   13.51694393  139.17399597    1.88000000    2.69000006
   13.51972198  155.08900452    1.86000001    2.69000006
   13.52277756  152.27499390    1.85000002    2.69000006
   13.52611065  159.16999817    1.83000004    2.69000006
   13.52944374  146.51800537    1.83000004    2.69000006
   13.53277779  147.50799561    1.83000004    2.69000006
   13.54777813  147.50799561    1.75000000    2.69000006
   13.55194473  142.52600098    1.76999998    2.69000006
   13.55527782  154.07499695    1.75000000    2.71000004
   13.55833340  146.45700073    1.75000000    2.71000004
   13.56166649  136.28399658    1.75000000    2.71000004
   13.56500053  145.76100159    1.75000000    2.67000008
   13.56805515  159.30099487    1.76999998    2.69000006
   13.57138920  166.71800232    1.76999998    2.69000006
   13.57472229  161.79499817    1.76999998    2.69000006
   13.58138847  161.79499817    1.75000000    2.69000006
   13.58527756  153.23599243    1.76999998    2.69000006
   13.58861065  158.04800415    1.76999998    2.69000006
   13.59194374  155.17500305    1.76999998    2.69000006
   13.59499931  164.81500244    1.76999998    2.69000006
   13.59833336  151.31100464    1.76999998    2.69000006
   13.60166740  157.99099731    1.76999998    2.71000004
   13.60472298  148.16000366    1.76999998    2.69000006
   13.60805607  158.16499329    1.76999998    2.69000006
   13.61111164  153.47399902    1.75000000    2.69000006
   13.61444473  164.27400208    1.75000000    2.69000006
   13.61722279  152.03100586    1.75000000    2.69000006
   13.61833382  151.72599792    1.75000000    2.69000006
   13.62416649  151.72599792    1.75000000    2.69000006
   13.62833309  153.59300232    1.75000000    2.69000006
   13.63138866  147.96299744    1.75000000    2.69000006
   13.63472176  149.53700256    1.73000002    2.71000004
   13.63805580  145.33000183    1.73000002    2.71000004
   13.64111137  148.86000061    1.71000004    2.69000006
   13.64444447  157.24499512    1.71000004    2.69000006
   13.64777756  144.81900024    1.71000004    2.69000006
   13.65055561  151.11399841    1.71000004    2.69000006
   13.65138817  155.32499695    1.71000004    2.69000006
   13.65444374  163.33000183    1.71000004    2.69000006
   13.65777779  162.92900085    1.71000004    2.69000006
   13.66083336  161.34399414    1.71000004    2.69000006
   13.66694450  161.34399414    1.71000004    2.71000004
   13.67111111  168.88999939    1.71000004    2.71000004
   13.67444515  161.76400757    1.71000004    2.71000004
   13.67750072  153.64700317    1.71000004    2.71000004
   13.68083382  161.13800049    1.69000006    2.71000004
   13.68388939  146.15100098    1.69000006    2.71000004
   13.68444443  146.21499634    1.69000006    2.69000006
   13.68750000  155.39300537    1.69000006    2.69000006
   13.69083309  150.37899780    1.66999996    2.69000006
   13.69388866  148.79499817    1.69000006    2.71000004
   13.69750023  168.16799927    1.71000004    2.71000004
   13.70055580  159.45899963    1.71000004    2.69000006
   13.70388889  162.39199829    1.71000004    2.69000006
   13.70972157  162.39199829    1.71000004    2.69000006
   13.71388912  161.38400269    1.71000004    2.69000006
   13.71722221  149.20799255    1.69000006    2.71000004
   13.71777725  135.27600098    1.69000006    2.71000004
   13.72083282  164.14399719    1.71000004    2.69000006
   13.72416592  145.71400452    1.69000006    2.71000004
   13.72722149  178.78300476    1.69000006    2.69000006
   13.73055553  169.43600464    1.69000006    2.71000004
   13.73388958  184.40199280    1.69000006    2.71000004
   13.73694515  183.37199402    1.71000004    2.71000004
   13.74027824  167.24000549    1.69000006    2.71000004
   13.74361134  161.99800110    1.69000006    2.71000004
   13.74666691  156.23800659    1.69000006    2.69000006
   13.75277805  156.23800659    1.69000006    2.69000006
   13.75666714  174.13099670    1.73000002    2.69000006
   13.76000023  182.21899414    1.85000002    2.71000004
   13.76361084  183.30999756    1.88000000    2.69000006
   13.76666641  160.66799927    1.88000000    2.69000006
   13.76999950  178.50000000    1.89999998    2.71000004
   13.78305531  185.80299377    1.80999994    2.71000004
   13.78388977  162.54499817    1.80999994    2.71000004
   13.78666687  167.48500061    1.76999998    2.71000004
   13.78972244  201.76400757    1.75000000    2.71000004
   13.79555607  201.76400757    1.75000000    2.71000004
   13.79972267  181.04800415    1.71000004    2.71000004
   13.80277824  178.30400085    1.69000006    2.71000004
   13.80611134  164.53199768    1.71000004    2.71000004
   13.80944443  210.78799438    1.69000006    2.71000004
   13.81250000  172.75900269    1.69000006    2.71000004
   13.81583309  184.88699341    1.66999996    2.71000004
   13.82666683  161.78399658    1.66999996    2.71000004
   13.82888889  184.99600220    1.66999996    2.71000004
   13.83222198  176.45700073    1.66999996    2.71000004
   13.83861065  176.45700073    1.66999996    2.71000004
   13.84277725  178.91299438    1.66999996    2.71000004
   13.84611034  176.62399292    1.66999996    2.71000004
   13.84916592  177.12600708    1.66999996    2.73000002
   13.85083389  198.94000244    1.66999996    2.73000002
   13.85277843  185.11700439    1.66999996    2.73000002
   13.85611153  175.85400391    1.66999996    2.71000004
   13.85944462  168.22099304    1.64999998    2.71000004
   13.86250019  167.19999695    1.64999998    2.71000004
   13.86583328  175.09700012    1.63000000    2.71000004
   13.86916637  183.42799377    1.63000000    2.71000004
   13.87222195  176.90600586    1.63000000    2.71000004
   13.87555599  178.90299988    1.63000000    2.71000004
   13.88111115  178.90299988    1.63000000    2.71000004
   13.88583279  163.24600220    1.61000001    2.71000004
   13.88916683  176.28999329    1.61000001    2.71000004
   13.89249992  161.70500183    1.61000001    2.71000004
   13.89555550  183.55900574    1.61000001    2.71000004
   13.89888859  173.12899780    1.61000001    2.71000004
   13.90194416  175.03900146    1.60000002    2.73000002
   13.90527725  165.70399475    1.60000002    2.73000002
   13.90861034  172.27900696    1.60000002    2.73000002
   13.91166592  181.80000305    1.61000001    2.73000002
   13.91499996  164.91099548    1.61000001    2.71000004
   13.91750050  196.21299744    1.61000001    2.71000004
   13.91861153  168.19999695    1.60000002    2.71000004
   13.92416668  168.19999695    1.60000002    2.71000004
   13.92805576  166.94799805    1.61000001    2.73000002
   13.93138885  168.84100342    1.60000002    2.73000002
   13.93472195  195.21099854    1.60000002    2.71000004
   13.93777752  155.73500061    1.61000001    2.73000002
   13.94111156  192.13499451    1.60000002    2.73000002
   13.94444466  188.70399475    1.60000002    2.73000002
   13.94750023  170.59500122    1.60000002    2.73000002
   13.95083332  181.17399597    1.58000004    2.73000002
   13.95111084  192.85400391    1.58000004    2.73000002
   13.95444393  163.80499268    1.58000004    2.71000004
   13.95777798  175.63800049    1.60000002    2.73000002
   13.96083355  149.94700623    1.60000002    2.73000002
   13.96694374  149.94700623    1.58000004    2.73000002
   13.97111034  158.00199890    1.58000004    2.71000004
   13.97416592  171.45700073    1.58000004    2.71000004
   13.97749996  174.73399353    1.58000004    2.71000004
   13.98083305  167.63800049    1.58000004    2.73000002
   13.98388958  171.48300171    1.58000004    2.71000004
   13.98444462  177.57099915    1.58000004    2.71000004
   13.98777771  172.89199829    1.58000004    2.73000002
   13.99111176  180.83200073    1.58000004    2.73000002
   13.99416733  160.31900024    1.60000002    2.73000002
   13.99750042  172.50300598    1.60000002    2.71000004
   14.00055599  174.91200256    1.60000002    2.73000002
   14.00388908  154.65600586    1.60000002    2.73000002
   14.00972176  154.65600586    1.60000002    2.71000004
   14.01388931  166.10899353    1.60000002    2.73000002
   14.01722240  177.84700012    1.61000001    2.73000002
   14.01777744  170.41099548    1.61000001    2.73000002
   14.02999973  167.68899536    0.00000000    0.00000000
   14.03333378  177.42500305    1.60000002    2.73000002
   14.03638935  173.85699463    1.60000002    2.71000004
   14.03972244  175.02799988    1.61000001    2.75000000
   14.04305553  171.53900146    1.60000002    2.73000002
   14.04611111  157.35400391    1.60000002    2.73000002
   14.04944515  175.61500549    1.60000002    2.73000002
   14.05111122  163.54699707    1.60000002    2.73000002
   14.05305576  181.81199646    1.60000002    2.73000002
   14.06166649  181.81199646    1.61000001    2.73000002
   14.06583309  134.61900330    1.60000002    2.73000002
   14.06916618  151.08399963    1.61000001    2.75000000
   14.07222176  169.12399292    1.60000002    2.73000002
   14.07555580  176.02099609    1.61000001    2.73000002
   14.07888889  165.72399902    1.61000001    2.73000002
   14.08194447  163.10800171    1.60000002    2.73000002
   14.08472157  160.23500061    1.61000001    2.73000002
   14.08555508  163.47399902    1.61000001    2.73000002
   14.08888817  166.19900513    1.61000001    2.73000002
   14.09222221  149.26100159    1.61000001    2.75000000
   14.09527779  158.95599365    1.60000002    2.73000002
   14.10055637  158.95599365    1.60000002    2.73000002
   14.10444450  168.26600647    1.58000004    2.75000000
   14.10777855  156.45500183    1.60000002    2.75000000
   14.11111164  164.12100220    1.60000002    2.75000000
   14.11527824  156.48199463    1.55999994    2.75000000
   14.11777782  163.53399658    1.55999994    2.73000002
   14.11888885  180.96499634    1.55999994    2.73000002
   14.12194443  151.05099487    1.55999994    2.75000000
   14.12527752  162.76699829    1.51999998    2.75000000
   14.12861156  158.58099365    1.53999996    2.75000000
   14.13166714  160.75599670    1.53999996    2.75000000
   14.13500023  164.66200256    1.51999998    2.75000000
   14.13833332  149.52999878    1.53999996    2.75000000
   14.14333344  149.52999878    1.51999998    2.75000000
   14.14750004  167.67900085    1.53999996    2.75000000
   14.15055561  149.74499512    1.53999996    2.75000000
   14.15111065  146.44200134    1.51999998    2.75000000
   14.15416622  160.13000488    1.51999998    2.75000000
   14.17388916  173.06399536    1.51999998    2.73000002
   14.17722225  161.44000244    1.51999998    2.73000002
   14.18027782  172.69000244    1.51999998    2.75000000
   14.18666649  172.69000244    1.53999996    2.75000000
   14.19055557  158.01100159    1.53999996    2.73000002
   14.19444466  156.68800354    1.53999996    2.75000000
   14.19750023  151.48399353    1.53999996    2.73000002
   14.20083332  168.61599731    1.53999996    2.73000002
   14.20416641  156.64900208    1.53999996    2.73000002
   14.20722198  153.30499268    1.53999996    2.73000002
   14.21055508  157.30999756    1.53999996    2.75000000
   14.21388912  153.69999695    1.53999996    2.75000000
   14.21694374  154.09800720    1.53999996    2.75000000
   14.21805477  162.13499451    1.53999996    2.75000000
   14.22083282  156.74000549    1.53999996    2.75000000
   14.22388840  159.61799622    1.53999996    2.75000000
   14.22916603  159.61799622    1.53999996    2.75000000
   14.23333359  167.36300659    1.53999996    2.75000000
   14.23666668  144.12100220    1.53999996    2.73000002
   14.23972225  169.18699646    1.53999996    2.73000002
   14.24305534  154.24600220    1.51999998    2.75000000
   14.24638939  169.59199524    1.51999998    2.75000000
   14.24944496  164.42300415    1.51999998    2.75000000
   14.25138855  162.99099731    1.51999998    2.75000000
   14.25333309  154.02400208    1.51999998    2.75000000
   14.25638866  159.61199951    1.50000000    2.75000000
   14.25972176  150.23500061    1.50000000    2.75000000
   14.26277733  169.32099915    1.50000000    2.75000000
   14.26611137  148.86300659    1.50000000    2.75000000
   14.27194405  148.86300659    1.50000000    2.75000000
   14.27611065  168.14300537    1.50000000    2.75000000
   14.27944374  168.49699402    1.50000000    2.75000000
   14.28277779  151.93699646    1.50000000    2.75000000
   14.28472233  149.19700623    1.50000000    2.75000000
   14.28638935  146.81199646    1.50000000    2.75000000
   14.28944492  138.90400696    1.50000000    2.75000000
   14.29277802  159.25300598    1.50000000    2.75000000
   14.29611111  143.24499512    1.48000002    2.75000000
   14.29916668  154.33599854    1.48000002    2.75000000
   14.30249977  150.95199585    1.48000002    2.75000000
   14.30611134  167.36700439    1.46000004    2.75000000
   14.30944443  144.40800476    1.44000006    2.76999998
   14.31500053  144.40800476    1.44000006    2.75000000
   14.31888866  139.88699341    1.44000006    2.75000000
   14.32222176  145.42300415    1.44000006    2.76999998
   14.32555580  152.61799622    1.44000006    2.75000000
   14.32861137  139.86599731    1.44000006    2.76999998
   14.33194447  147.66200256    1.44000006    2.75000000
   14.33527756  146.79499817    1.44000006    2.75000000
   14.33833313  125.83499908    1.44000006    2.76999998
   14.34166622  136.69099426    1.41999996    2.75000000
   14.34472179  147.40400696    1.41999996    2.75000000
   14.34805489  154.74099731    1.41999996    2.75000000
   14.35138893  134.59500122    1.41999996    2.76999998
   14.35194492  152.01499939    1.41999996    2.76999998
   14.35777855  152.01499939    1.39999998    2.75000000
   14.36194515  143.76300049    1.41999996    2.76999998
   14.36500072  141.11799622    1.41999996    2.75000000
   14.36833382  146.64900208    1.41999996    2.75000000
   14.37166691  135.56300354    1.39999998    2.76999998
   14.37472248  170.15299988    1.39999998    2.76999998
   14.37805557  144.71400452    1.39999998    2.76999998
   14.38111115  151.06300354    1.39999998    2.76999998
   14.38444424  145.72000122    1.44000006    2.76999998
   14.38527775  144.99699402    1.41999996    2.76999998
   14.38805580  141.10299683    1.41999996    2.76999998
   14.39138889  142.33399963    1.41999996    2.76999998
   14.39472198  142.74600220    1.41999996    2.75000000
   14.40055561  142.74600220    1.41999996    2.76999998
   14.40472221  142.20899963    1.44000006    2.76999998
   14.40805531  141.65499878    1.44000006    2.76999998
   14.41111088  140.63900757    1.41999996    2.76999998
   14.41444397  145.22900391    1.41999996    2.76999998
   14.41777802  139.07000732    1.44000006    2.76999998
   14.41861153  146.33000183    1.41999996    2.76999998
   14.42138958  140.55999756    1.41999996    2.76999998
   14.42472267  136.69200134    1.41999996    2.76999998
   14.42805576  148.29499817    1.41999996    2.76999998
   14.43111134  166.15199280    1.41999996    2.76999998
   14.43444443  143.19400024    1.41999996    2.78999996
   14.43750000  162.35299683    1.41999996    2.76999998
   14.44333363  162.35299683    1.41999996    2.76999998
   14.44750023  140.36500549    1.41999996    2.76999998
   14.45083332  142.56500244    1.41999996    2.76999998
   14.45194435  131.56599426    1.41999996    2.76999998
   14.45444393  137.36300659    1.41999996    2.76999998
   14.45777798  145.96099854    1.41999996    2.76999998
   14.46111107  133.48599243    1.41999996    2.76999998
   14.46416664  139.11799622    1.39999998    2.76999998
   14.46749973  141.61399841    1.39999998    2.76999998
   14.47055531  136.78500366    1.39999998    2.76999998
   14.47388840  148.36599731    1.39999998    2.76999998
   14.47722149  142.73100281    1.39999998    2.76999998
   14.48027706  148.87600708    1.39999998    2.76999998
   14.48638916  148.87600708    1.39999998    2.76999998
   14.49027824  159.05799866    1.38000000    2.76999998
   14.49361134  144.50500488    1.38000000    2.76999998
   14.49694443  130.29699707    1.38000000    2.76999998
   14.50000000  138.94400024    1.38000000    2.76999998
   14.50333309  146.61399841    1.38000000    2.76999998
   14.50666714  137.10499573    1.38000000    2.76999998
   14.50972176  149.08200073    1.38000000    2.78999996
   14.51305580  136.92799377    1.36000001    2.78999996
   14.51611137  145.77799988    1.38000000    2.78999996
   14.51861095  160.00799561    1.38000000    2.78999996
   14.51972198  157.08500671    1.38000000    2.78999996
   14.52333355  144.11900330    1.38000000    2.76999998
   14.52916622  144.11900330    1.38000000    2.76999998
   14.53333378  133.06399536    1.39999998    2.76999998
   14.53638935  134.25999451    1.39999998    2.76999998
   14.53972244  142.47900391    1.39999998    2.76999998
   14.54305553  136.84100342    1.39999998    2.76999998
   14.54611111  141.41999817    1.39999998    2.76999998
   14.54944515  137.41099548    1.39999998    2.76999998
   14.55194473  140.76100159    1.39999998    2.78999996
   14.55305576  144.42999268    1.39999998    2.78999996
   14.55638885  140.08700562    1.39999998    2.76999998
   14.55972195  142.32200623    1.39999998    2.76999998
   14.56277752  144.54600525    1.39999998    2.76999998
   14.56611156  143.09199524    1.39999998    2.76999998
   14.57194424  143.09199524    1.39999998    2.76999998
   14.57611084  144.33700562    1.39999998    2.76999998
   14.57944393  152.87300110    1.39999998    2.76999998
   14.58249950  148.58399963    1.39999998    2.76999998
   14.58527756  138.91700745    1.39999998    2.78999996
   14.58611107  134.39799500    1.39999998    2.78999996
   14.58944416  156.13400269    1.38000000    2.78999996
   14.59277725  143.90699768    1.39999998    2.76999998
   14.59583282  135.51899719    1.39999998    2.76999998
   14.59916592  146.56199646    1.39999998    2.76999998
   14.60249996  142.79200745    1.38000000    2.76999998
   14.60555553  142.93899536    1.36000001    2.78999996
   14.60888958  136.81100464    1.36000001    2.76999998
   14.61472225  136.81100464    1.36000001    2.76999998
   14.61888885  149.03399658    1.34000003    2.76999998
   14.62222195  137.72300720    1.34000003    2.78999996
   14.62527752  136.00799561    1.34000003    2.78999996
   14.62861156  136.51100159    1.34000003    2.78999996
   14.63194466  147.57499695    1.34000003    2.78999996
   14.63500023  138.75799561    1.33000004    2.78999996
   14.63833332  138.25000000    1.33000004    2.78999996
   14.64166641  137.36799622    1.33000004    2.78999996
   14.64472198  141.30499268    1.33000004    2.78999996
   14.64805508  141.38999939    1.30999994    2.78999996
   14.65138817  137.62800598    1.33000004    2.78999996
   14.65194416  157.60600281    1.33000004    2.78999996
   14.65777779  157.60600281    1.33000004    2.78999996
   14.66166592  142.02799988    1.33000004    2.78999996
   14.66499996  147.09500122    1.33000004    2.78999996
   14.66833401  141.03799438    1.33000004    2.78999996
   14.67138958  139.00300598    1.33000004    2.78999996
   14.67472267  135.93099976    1.33000004    2.76999998
   14.67805576  153.47300720    1.34000003    2.78999996
   14.68111134  120.65000153    1.36000001    2.76999998
   14.68444443  135.63900757    1.34000003    2.76999998
   14.68527794  122.82599640    1.34000003    2.76999998
   14.68805599  126.23100281    1.34000003    2.78999996
   14.69138908  128.86199951    1.34000003    2.78999996
   14.69472218  135.36399841    1.34000003    2.78999996
   14.70055580  135.36399841    1.34000003    2.78999996
   14.70472240  134.63400269    1.34000003    2.78999996
   14.70777798  139.01499939    1.34000003    2.78999996
   14.71111107  142.94200134    1.34000003    2.78999996
   14.71444416  139.06500244    1.34000003    2.78999996
   14.71749973  147.57299805    1.34000003    2.78999996
   14.71861076  139.30799866    1.34000003    2.78999996
   14.72111034  136.20500183    1.34000003    2.78999996
   14.72444439  135.17300415    1.34000003    2.78999996
   14.72777748  134.75000000    1.34000003    2.76999998
   14.73083305  140.19599915    1.34000003    2.78999996
   14.73416710  135.73300171    1.34000003    2.78999996
   14.73750019  137.33599854    1.34000003    2.78999996
   14.74333382  137.33599854    1.33000004    2.78999996
   14.74750042  139.67999268    1.33000004    2.78999996
   14.75083351  134.66900635    1.34000003    2.78999996
   14.75194454  134.80000305    1.34000003    2.78999996
   14.75416660  135.46600342    1.34000003    2.78999996
   14.75749969  138.82299805    1.34000003    2.76999998
   14.76083374  142.68600464    1.36000001    2.78999996
   14.76388931  149.02900696    1.36000001    2.78999996
   14.76722240  139.22599792    1.36000001    2.76999998
   14.77055550  141.99200439    1.34000003    2.78999996
   14.77361107  143.00500488    1.34000003    2.78999996
   14.77694416  139.79600525    1.34000003    2.78999996
   14.77999973  134.76199341    1.30999994    2.76999998
   14.78611183  134.76199341    1.30999994    2.76999998
   14.79027843  146.19799805    1.28999996    2.76999998
   14.79361153  134.67999268    1.28999996    2.78999996
   14.79694462  135.42700195    1.28999996    2.76999998
   14.80000019  131.30900574    1.28999996    2.78999996
   14.80333328  147.57499695    1.30999994    2.78999996
   14.80638885  139.09100342    1.28999996    2.78999996
   14.80972195  133.90100098    1.28999996    2.78999996
   14.81305599  132.86500549    1.28999996    2.78999996
   14.81611156  144.89599609    1.30999994    2.78999996
   14.81861115  131.53999329    1.30999994    2.78999996
   14.81999969  138.42999268    1.30999994    2.78999996
   14.82305527  139.41200256    1.28999996    2.78999996
   14.82916641  139.41200256    1.33000004    2.78999996
   14.83305550  131.29899597    1.33000004    2.78999996
   14.83638859  128.39199829    1.33000004    2.78999996
   14.83972168  135.28500366    1.34000003    2.78999996
   14.84277725  126.73699951    1.34000003    2.78999996
   14.84611034  127.67299652    1.34000003    2.76999998
   14.84944439  135.17799377    1.34000003    2.78999996
   14.85194492  136.87899780    1.36000001    2.78999996
   14.85277843  128.81700134    1.36000001    2.78999996
   14.85638905  137.33700562    1.36000001    2.78999996
   14.85944462  136.62800598    1.36000001    2.78999996
   14.86277771  134.99099731    1.36000001    2.76999998
   14.86611176  136.95799255    1.36000001    2.78999996
   14.87194443  136.95799255    1.34000003    2.78999996
   14.87611103  139.11000061    1.34000003    2.78999996
   14.87916660  137.31700134    1.34000003    2.78999996
   14.88249969  136.80999756    1.36000001    2.78999996
   14.88527775  139.92500305    1.36000001    2.78999996
   14.88638878  137.71899414    1.36000001    2.78999996
   14.88944435  132.44700623    1.36000001    2.78999996
   14.89277744  137.47300720    1.38000000    2.78999996
   14.89583302  133.20799255    1.34000003    2.78999996
   14.89916611  133.98399353    1.34000003    2.78999996
   14.90249920  137.85000610    1.34000003    2.78999996
   14.90555477  136.46000671    1.33000004    2.78999996
   14.90888882  135.76100159    1.30999994    2.78999996
   14.91472149  135.76100159    1.28999996    2.78999996
   14.91888905  131.64999390    1.28999996    2.78999996
   14.92222214  133.81500244    1.28999996    2.78999996
   14.92527771  145.86399841    1.28999996    2.78999996
   14.92861176  131.13000488    1.28999996    2.78999996
   14.93166733  135.17900085    1.28999996    2.78999996
   14.93500042  141.27099609    1.26999998    2.80999994
   14.93833351  130.60600281    1.26999998    2.78999996
   14.94166660  126.40799713    1.26999998    2.78999996
   14.94499969  127.05500031    1.26999998    2.78999996
   14.94805527  132.34100342    1.26999998    2.78999996
   14.95138836  138.48300171    1.25000000    2.78999996
   14.95194435  128.96000671    1.25000000    2.78999996
   14.95749950  128.96000671    1.25000000    2.78999996
   14.96166611  131.97099304    1.25000000    2.78999996
   14.96500015  145.59199524    1.25000000    2.78999996
   14.96805477  134.94200134    1.25000000    2.78999996
   14.97138882  145.88699341    1.21000004    2.80999994
   14.97472191  141.19700623    1.23000002    2.78999996
   14.97777748  131.97399902    1.23000002    2.78999996
   14.98111057  143.07400513    1.23000002    2.80999994
   15.08194447   -1.00000000   -1.00000000   -1.00000000
   15.17750072   -1.00000000   -1.00000000   -1.00000000
   15.27861118   -1.00000000   -1.00000000   -1.00000000
   15.38749981   -1.00000000   -1.00000000   -1.00000000
   15.41277695  153.63900757    1.21000004    2.80999994
   15.41611099  162.55599976    1.21000004    2.80999994
   15.41944504  163.61500549    1.19000006    2.80999994
   15.42250061  151.86900330    1.19000006    2.80999994
   15.42583370  149.82099915    1.19000006    2.80999994
   15.42888927  148.98399353    1.19000006    2.80999994
   15.43305588  148.98399353    1.16999996    2.80999994
   15.43722248  157.21899414    1.16999996    2.80999994
   15.44055557  146.25599670    1.19000006    2.80999994
   15.44388866  159.36700439    1.16999996    2.80999994
   15.44611073  146.66000366    1.16999996    2.80999994
   15.44750023  149.51800537    1.16999996    2.80999994
   15.45083332  148.56599426    1.16999996    2.80999994
   15.45388889  146.72900391    1.16999996    2.82999992
   15.45722198  154.65400696    1.16999996    2.82999992
   15.46027756  148.29699707    1.14999998    2.80999994
   15.46361065  144.04699707    1.14999998    2.80999994
   15.46694374  146.34199524    1.14999998    2.80999994
   15.46999931  150.80000305    1.14999998    2.82999992
   15.47611046  150.80000305    1.13000000    2.82999992
   15.48027706  146.49000549    1.14999998    2.82999992
   15.48333359  144.96000671    1.14999998    2.82999992
   15.48666668  140.64100647    1.13000000    2.82999992
   15.48972225  143.65699768    1.13000000    2.80999994
   15.49305534  135.34599304    1.13000000    2.82999992
   15.49638939  139.34899902    1.13000000    2.82999992
   15.49944496  130.11500549    1.13000000    2.82999992
   15.50277805  143.01400757    1.13000000    2.82999992
   15.50611115  145.01100159    1.13000000    2.82999992
   15.50916672  140.51800537    1.14999998    2.82999992
   15.51249981  141.45500183    1.13000000    2.80999994
   15.51305580  150.37699890    1.13000000    2.80999994
   15.51888847  150.37699890    1.14999998    2.82999992
   15.52305508  138.77499390    1.13000000    2.82999992
   15.52611065  147.90800476    1.14999998    2.82999992
   15.52944374  147.20399475    1.14999998    2.80999994
   15.53277779  136.32699585    1.14999998    2.82999992
   15.53583336  139.85699463    1.14999998    2.82999992
   15.53916740  140.72999573    1.16999996    2.80999994
   15.54250050  142.51100159    1.16999996    2.82999992
   15.54555607  147.94999695    1.16999996    2.82999992
   15.54638958  146.94700623    1.16999996    2.80999994
   15.54944515  145.45599365    1.16999996    2.80999994
   15.55277824  142.69799805    1.16999996    2.80999994
   15.55583382  142.98500061    1.16999996    2.80999994
   15.56166649  142.98500061    1.16999996    2.80999994
   15.56583309  140.68800354    1.16999996    2.82999992
   15.56916618  142.68299866    1.16999996    2.82999992
   15.57222176  141.77400208    1.16999996    2.82999992
   15.57555580  135.57699585    1.16999996    2.80999994
   15.57888889  148.10899353    1.16999996    2.82999992
   15.57972240  139.33700562    1.16999996    2.82999992
   15.58222198  142.48599243    1.16999996    2.82999992
   15.58555508  146.31100464    1.19000006    2.80999994
   15.58888817  149.80900574    1.16999996    2.82999992
   15.59194374  142.63699341    1.16999996    2.82999992
   15.59527779  141.95300293    1.16999996    2.80999994
   15.59861088  142.03999329    1.16999996    2.80999994
   15.60444450  142.03999329    1.21000004    2.80999994
   15.60861111  142.74400330    1.21000004    2.82999992
   15.61194515  136.83500671    1.19000006    2.82999992
   15.61305618  137.88200378    1.19000006    2.82999992
   15.61555576  142.56900024    1.16999996    2.80999994
   15.61888885  136.31700134    1.16999996    2.80999994
   15.62222195  132.29100037    1.16999996    2.80999994
   15.62527752  133.31399536    1.16999996    2.80999994
   15.62861156  136.62300110    1.16999996    2.80999994
   15.63194466  133.63699341    1.16999996    2.80999994
   15.63500023  133.74499512    1.16999996    2.80999994
   15.63833332  137.07099915    1.16999996    2.80999994
   15.64138889  138.47200012    1.16999996    2.80999994
   15.64750004  138.47200012    1.16999996    2.80999994
   15.65138817  133.75100708    1.16999996    2.80999994
   15.65472221  138.16900635    1.16999996    2.82999992
   15.65805531  145.08599854    1.16999996    2.80999994
   15.66111088  134.27400208    1.16999996    2.80999994
   15.66444397  141.49899292    1.16999996    2.82999992
   15.66777802  136.97000122    1.16999996    2.80999994
   15.67083359  139.23100281    1.16999996    2.80999994
   15.67416668  139.89599609    1.16999996    2.80999994
   15.67722225  129.96099854    1.16999996    2.80999994
   15.67972279  133.52600098    1.16999996    2.80999994
   15.68083382  134.36399841    1.16999996    2.80999994
   15.68416691  138.37300110    1.16999996    2.82999992
   15.69027805  138.37300110    1.16999996    2.80999994
   15.69444466  131.95300293    1.16999996    2.80999994
   15.69750023  136.54400635    1.16999996    2.80999994
   15.70083332  136.41200256    1.16999996    2.80999994
   15.70416641  128.38099670    1.16999996    2.80999994
   15.70722198  135.66099548    1.16999996    2.80999994
   15.71055508  138.26400757    1.16999996    2.80999994
   15.71305561  133.62800598    1.19000006    2.82999992
   15.71388912  135.35699463    1.16999996    2.80999994
   15.71722221  136.58500671    1.16999996    2.82999992
   15.72055531  129.04800415    1.16999996    2.82999992
   15.72361088  134.48899841    1.16999996    2.80999994
   15.72694397  140.32499695    1.16999996    2.80999994
   15.73305511  140.32499695    1.16999996    2.82999992
   15.73722267  131.89100647    1.16999996    2.80999994
   15.74055576  132.84100342    1.19000006    2.80999994
   15.74361134  129.75399780    1.19000006    2.80999994
   15.74638939  130.62800598    1.16999996    2.80999994
   15.74722290  135.19299316    1.16999996    2.80999994
   15.75055599  138.85000610    1.19000006    2.80999994
   15.75388908  137.09599304    1.19000006    2.82999992
   15.75694466  137.29499817    1.16999996    2.80999994
   15.76027775  147.77600098    1.16999996    2.80999994
   15.76361084  136.42700195    1.19000006    2.80999994
   15.76666641  150.30200195    1.16999996    2.82999992
   15.76999950  135.68400574    1.19000006    2.80999994
   15.77583313  135.68400574    1.19000006    2.80999994
   15.77999973  136.27299500    1.19000006    2.80999994
   15.78333378  139.00900269    1.19000006    2.82999992
   15.78666687  138.59899902    1.19000006    2.80999994
   15.78972244  139.33299255    1.19000006    2.80999994
   15.79305553  142.18600464    1.19000006    2.82999992
   15.79611111  135.58500671    1.19000006    2.80999994
   15.79944515  139.39599609    1.19000006    2.82999992
   15.80277824  135.10699463    1.19000006    2.82999992
   15.80583382  137.60299683    1.16999996    2.80999994
   15.80916691  161.36300659    1.16999996    2.82999992
   15.81333351  129.50700378    1.16999996    2.80999994
   15.81388950  136.53900146    1.16999996    2.80999994
   15.81888866  136.53900146    1.16999996    2.80999994
   15.82277775  140.69000244    1.16999996    2.82999992
   15.82611084  133.73699951    1.16999996    2.82999992
   15.82944393  130.46699524    1.16999996    2.80999994
   15.83249950  135.24699402    1.16999996    2.80999994
   15.83583260  133.42100525    1.16999996    2.82999992
   15.83916664  135.01499939    1.16999996    2.82999992
   15.84222221  135.40499878    1.19000006    2.82999992
   15.84555531  134.59100342    1.16999996    2.80999994
   15.84722233  134.92300415    1.16999996    2.80999994
   15.84916592  133.92100525    1.16999996    2.82999992
   15.85222244  136.90100098    1.16999996    2.82999992
   15.85555553  146.79200745    1.16999996    2.82999992
   15.86166668  146.79200745    1.16999996    2.82999992
   15.86583328  136.30700684    1.16999996    2.82999992
   15.86888885  134.70199585    1.16999996    2.82999992
   15.87222195  126.36199951    1.16999996    2.82999992
   15.87555599  130.57200623    1.14999998    2.82999992
   15.87861156  137.58099365    1.16999996    2.80999994
   15.88055611  130.02299500    1.16999996    2.80999994
   15.88249969  135.70399475    1.14999998    2.82999992
   15.88555527  132.98399353    1.14999998    2.82999992
   15.88888836  135.62699890    1.16999996    2.82999992
   15.89222240  134.67500305    1.16999996    2.82999992
   15.89527798  131.85800171    1.14999998    2.80999994
   15.89861107  120.26599884    1.14999998    2.80999994
   15.90444374  120.26599884    1.13000000    2.82999992
   15.90861034  134.41200256    1.13000000    2.82999992
   15.91194439  141.70199585    1.14999998    2.82999992
   15.91388893  132.07499695    1.14999998    2.82999992
   15.91555500  127.81600189    1.13000000    2.82999992
   15.91861153  128.68200684    1.16999996    2.82999992
   15.92194462  133.41400146    1.14999998    2.82999992
   15.92527771  136.83399963    1.14999998    2.82999992
   15.92833328  133.99899292    1.16999996    2.82999992
   15.93166733  135.12199402    1.14999998    2.82999992
   15.93472195  123.92400360    1.14999998    2.80999994
   15.93805599  132.67799377    1.14999998    2.82999992
   15.94138908  137.89599609    1.14999998    2.82999992
   15.94722271  137.89599609    1.16999996    2.82999992
   15.95138836  135.94500732    1.14999998    2.82999992
   15.95472240  139.43400574    1.14999998    2.80999994
   15.95777798  132.07400513    1.16999996    2.80999994
   15.96111107  138.83999634    1.14999998    2.80999994
   15.96444416  129.24200439    1.16999996    2.80999994
   15.96749973  137.08399963    1.16999996    2.80999994
   15.97083282  128.65499878    1.16999996    2.82999992
   15.97416592  136.80700684    1.14999998    2.82999992
   15.97722149  130.82299805    1.14999998    2.82999992
   15.98055553  136.32899475    1.16999996    2.82999992
   15.98111057  133.77499390    1.16999996    2.82999992
   15.98416710  128.10400391    1.16999996    2.82999992
   15.99027824  128.10400391    1.14999998    2.82999992
   15.99416733  136.67799377    1.14999998    2.82999992
   15.99750042  140.74899292    1.14999998    2.82999992
   16.00083351  138.43099976    1.14999998    2.80999994
   16.00388908  139.86199951    1.14999998    2.80999994
   16.00722313  128.70899963    1.14999998    2.80999994
   16.01055527  134.93699646    1.14999998    2.82999992
   16.01361084  128.27799988    1.14999998    2.80999994
   16.01416588  129.46800232    1.14999998    2.80999994
   16.01749992  136.09199524    1.16999996    2.82999992
   16.02055550  132.80999756    1.14999998    2.82999992
   16.02388954  133.88000488    1.14999998    2.82999992
   16.02722168  135.13699341    1.14999998    2.82999992
   16.03305435  135.13699341    1.14999998    2.82999992
   16.03722191  136.98300171    1.14999998    2.82999992
   16.04027748  133.21699524    1.14999998    2.80999994
   16.04361153  128.56900024    1.14999998    2.80999994
   16.04694366  131.44700623    1.14999998    2.82999992
   16.04749870  133.49299622    1.14999998    2.82999992
   16.05055428  125.68399811    1.13000000    2.82999992
   16.05360985  134.69200134    1.14999998    2.82999992
   16.05694389  137.13800049    1.13000000    2.82999992
   16.06166649  127.86399841    1.13000000    2.82999992
   16.06472206  139.72099304    1.13000000    2.82999992
   16.06805611  135.47700500    1.11000001    2.82999992
   16.07111168  138.38099670    1.11000001    2.82999992
   16.07583427  138.38099670    1.11000001    2.82999992
   16.08000183  141.22799683    1.11000001    2.80999994
   16.08083344  139.23199463    1.11000001    2.80999994
   16.08361244  135.76499939    1.11000001    2.80999994
   16.08666801  131.82400513    1.13000000    2.82999992
   16.09000015  130.23699951    1.11000001    2.82999992
   16.09333420  133.81799316    1.13000000    2.82999992
   16.09666824  126.80400085    1.13000000    2.82999992
   16.09972191  127.38700104    1.11000001    2.82999992
   16.10305595  127.05999756    1.11000001    2.82999992
   16.10639000  135.19099426    1.11000001    2.82999992
   16.10944557  138.79299927    1.13000000    2.82999992
   16.11277771  128.87899780    1.11000001    2.82999992
   16.11416626  142.98500061    1.11000001    2.82999992
   16.11861038  142.98500061    1.13000000    2.82999992
   16.12277794  132.61500549    1.13000000    2.82999992
   16.12611198  139.73199463    1.13000000    2.82999992
   16.12916756  137.46600342    1.13000000    2.82999992
   16.13249969  134.80200195    1.13000000    2.82999992
   16.13583374  139.58399963    1.13000000    2.82999992
   16.13888931  125.76999664    1.13000000    2.82999992
   16.14222145  127.31099701    1.13000000    2.82999992
   16.14555550  136.69999695    1.11000001    2.80999994
   16.14749908  144.90800476    1.13000000    2.82999992
   16.14916611  139.07299805    1.11000001    2.82999992
   16.15250015  140.00599670    1.11000001    2.82999992
   16.15555573  146.21699524    1.11000001    2.82999992
   16.16138840  146.21699524    1.11000001    2.82999992
   16.16555595  137.55999756    1.11000001    2.82999992
   16.16888809  133.45199585    1.13000000    2.80999994
   16.17222214  130.92700195    1.13000000    2.82999992
   16.17527771  140.84100342    1.13000000    2.82999992
   16.17860985  133.93600464    1.13000000    2.82999992
   16.18083191  133.57800293    1.13000000    2.82999992
   16.18222237  137.50700378    1.13000000    2.82999992
   16.18527603  140.24099731    1.13000000    2.80999994
   16.18861008  137.02400208    1.13000000    2.82999992
   16.19194412  138.03300476    1.13000000    2.82999992
   16.19499969  137.51300049    1.13000000    2.82999992
   16.19833183  137.09800720    1.13000000    2.82999992
   16.20444489  137.09800720    1.13000000    2.84999990
   16.20861244  147.58500671    1.13000000    2.82999992
   16.21166801  136.04600525    1.13000000    2.82999992
   16.21416664  144.39799500    1.13000000    2.82999992
   16.21555710  140.31799316    1.13000000    2.82999992
   16.21861076  138.25799561    1.13000000    2.82999992
   16.22194481  137.99600220    1.13000000    2.82999992
   16.22527885  135.37699890    1.13000000    2.82999992
   16.22833443  134.64599609    1.13000000    2.82999992
   16.23166656  127.46800232    1.13000000    2.82999992
   16.23500061  136.21499634    1.14999998    2.82999992
   16.23805618  134.54299927    1.13000000    2.82999992
   16.24138832  136.52099609    1.13000000    2.80999994
   16.24722290  136.52099609    1.13000000    2.82999992
   16.25138855  132.52200317    1.13000000    2.82999992
   16.25444412  138.92399597    1.13000000    2.82999992
   16.25777817  136.59599304    1.13000000    2.82999992
   16.26111031  140.68099976    1.11000001    2.82999992
   16.26444435  140.76300049    1.11000001    2.82999992
   16.26749992  146.02299500    1.13000000    2.82999992
   16.27083397  138.58999634    1.11000001    2.84999990
   16.27388954  139.08700562    1.11000001    2.82999992
   16.27722168  138.68899536    1.11000001    2.84999990
   16.28055573  138.77200317    1.11000001    2.82999992
   16.28222275  146.82699585    1.11000001    2.82999992
   16.28416634  141.90499878    1.09000003    2.82999992
   16.28999901  141.90499878    1.11000001    2.84999990
   16.29416656  151.46600342    1.09000003    2.84999990
   16.29749870  138.39300537    1.09000003    2.84999990
   16.30055428  136.08599854    1.09000003    2.82999992
   16.30388832  140.50500488    1.09000003    2.84999990
   16.30722237  141.61999512    1.07000005    2.84999990
   16.31027794  132.41600037    1.09000003    2.82999992
   16.31361008  136.67199707    1.09000003    2.82999992
   16.31555557  131.16200256    1.07000005    2.84999990
   16.31722260  140.60299683    1.07000005    2.84999990
   16.32027817  145.06599426    1.09000003    2.82999992
   16.32361221  140.11799622    1.09000003    2.82999992
   16.32694626  135.51300049    1.09000003    2.82999992
   16.33277893  135.51300049    1.09000003    2.82999992
   16.33694458  129.72200012    1.09000003    2.82999992
   16.34027863  143.55999756    1.09000003    2.82999992
   16.34361267  132.51699829    1.09000003    2.82999992
   16.34666824  145.20399475    1.09000003    2.82999992
   16.34916687  142.13200378    1.09000003    2.82999992
   16.35055542  171.41499329    1.09000003    2.82999992
   16.35361099  170.55700684    1.09000003    2.82999992
   16.35694504  197.86000061    1.09000003    2.82999992
   16.36027908  200.94999695    1.09000003    2.82999992
   16.36333466  197.71200562    1.09000003    2.82999992
   16.36666679  187.36799622    1.07000005    2.82999992
   16.36972237  211.87899780    1.07000005    2.82999992
   16.37583351  211.87899780    1.07000005    2.84999990
   16.38000107  214.15899658    1.07000005    2.82999992
   16.38249969  176.83000183    1.07000005    2.82999992
   16.38361168  181.86999512    1.07000005    2.82999992
   16.38666725  169.35099792    1.07000005    2.82999992
   16.38999939  158.53900146    1.07000005    2.82999992
   16.39333344  160.04699707    1.07000005    2.82999992
   16.39638901  165.07699585    1.09000003    2.82999992
   16.39972115  144.87199402    1.09000003    2.82999992
   16.40277672  169.98199463    1.07000005    2.82999992
   16.40611076  156.90299988    1.07000005    2.82999992
   16.40944481  150.51800537    1.07000005    2.82999992
   16.41250038  140.77699280    1.05999994    2.82999992
   16.43388748  140.77699280    1.05999994    2.82999992
   16.43805504  143.33799744    1.05999994    2.84999990
   16.44138718  135.28599548    1.05999994    2.84999990
   16.44444275  145.41000366    1.05999994    2.82999992
   16.44777679  140.82000732    1.05999994    2.82999992
   16.45083427  137.63200378    1.05999994    2.82999992
   16.45416832  135.37699890    1.07000005    2.82999992
   16.45750046  149.81399536    1.05999994    2.82999992
   16.46055603  142.99800110    1.05999994    2.84999990
   16.46389008  142.24400330    1.07000005    2.82999992
   16.46472359  145.59100342    1.07000005    2.82999992
   16.46777916  153.19099426    1.07000005    2.82999992
   16.47083473  140.62300110    1.07000005    2.84999990
   16.47666740  140.62300110    1.07000005    2.82999992
   16.48083305  148.69099426    1.07000005    2.84999990
   16.48388863  151.61199951    1.09000003    2.82999992
   16.48722267  140.47900391    1.07000005    2.82999992
   16.49055672  144.08299255    1.09000003    2.82999992
   16.49361229  140.38499451    1.09000003    2.82999992
   16.49694443  131.87500000    1.09000003    2.82999992
   16.49805641  139.68299866    1.09000003    2.82999992
   16.50055504  151.61399841    1.09000003    2.82999992
   16.50361061  144.92999268    1.09000003    2.80999994
   16.50694466  142.98199463    1.09000003    2.82999992
   16.51027870  137.15499878    1.09000003    2.84999990
   16.51333427  143.81900024    1.09000003    2.84999990
   16.51944351  143.81900024    1.09000003    2.84999990
   16.52361107  151.76300049    1.09000003    2.82999992
   16.52694511  145.15299988    1.09000003    2.82999992
   16.53000069  139.74000549    1.09000003    2.82999992
   16.53166580  145.52999878    1.09000003    2.82999992
   16.53388786  136.09500122    1.09000003    2.82999992
   16.53722191  145.03799438    1.09000003    2.82999992
   16.54027748  153.13099670    1.09000003    2.82999992
   16.54361153  138.30499268    1.09000003    2.82999992
   16.54694366  144.43600464    1.09000003    2.84999990
   16.54999924  149.44000244    1.09000003    2.82999992
   16.55333328  141.20100403    1.09000003    2.84999990
   16.55638885  146.25000000    1.09000003    2.82999992
   16.56250000  146.25000000    1.09000003    2.82999992
   16.56638718  136.79400635    1.11000001    2.82999992
   16.56972313  151.47300720    1.11000001    2.82999992
   16.57305717  142.80799866    1.11000001    2.84999990
   16.57611275  134.89700317    1.11000001    2.84999990
   16.57944489  143.95199585    1.13000000    2.82999992
   16.58277893  145.20799255    1.13000000    2.82999992
   16.58583450  138.24499512    1.11000001    2.82999992
   16.58916664  152.75700378    1.13000000    2.82999992
   16.59250069  142.91999817    1.13000000    2.82999992
   16.59555626  151.68800354    1.13000000    2.82999992
   16.59833336  152.18200684    1.13000000    2.82999992
   16.59916687  146.75300598    1.13000000    2.82999992
   16.60527802  146.75300598    1.13000000    2.82999992
   16.60944557  145.52099609    1.13000000    2.84999990
   16.61250114  142.18800354    1.13000000    2.82999992
   16.61583328  140.36399841    1.14999998    2.84999990
   16.61888885  137.98500061    1.13000000    2.84999990
   16.62222290  138.42500305    1.13000000    2.82999992
   16.62555504  134.29800415    1.13000000    2.82999992
   16.62888908  129.62500000    1.13000000    2.82999992
   16.63166618  145.14399719    1.13000000    2.82999992
   16.63222313  137.41900635    1.13000000    2.82999992
   16.63555527  143.46499634    1.13000000    2.82999992
   16.63888931  149.53399658    1.14999998    2.82999992
   16.64194489  139.23599243    1.14999998    2.82999992
   16.64805603  139.23599243    1.13000000    2.82999992
   16.65222168  155.49400330    1.13000000    2.84999990
   16.65527725  154.67399597    1.13000000    2.82999992
   16.65861130  144.39700317    1.13000000    2.82999992
   16.66194344  138.22399902    1.13000000    2.82999992
   16.66499901  150.13499451    1.11000001    2.82999992
   16.66527748  147.04899597    1.11000001    2.82999992
   16.66860962  144.57499695    1.11000001    2.84999990
   16.67194366  133.76600647    1.11000001    2.84999990
   16.67499924  143.40600586    1.11000001    2.82999992
   16.67833328  145.44200134    1.11000001    2.82999992
   16.68166542  138.81900024    1.09000003    2.84999990
   16.68472099  141.33099365    1.09000003    2.84999990
   16.69083214  141.33099365    1.09000003    2.82999992
   16.69499969  129.74000549    1.09000003    2.82999992
   16.69833183  139.06500244    1.09000003    2.84999990
   16.69861031  139.68899536    1.09000003    2.84999990
   16.70194435  142.69999695    1.09000003    2.82999992
   16.70527840  141.56199646    1.09000003    2.82999992
   16.70833397  140.91499329    1.09000003    2.84999990
   16.71166801  150.64100647    1.09000003    2.84999990
   16.71500015  142.09199524    1.11000001    2.84999990
   16.71805573  140.40899658    1.11000001    2.82999992
   16.72138977  138.05400085    1.11000001    2.82999992
   16.72444534  139.65499878    1.11000001    2.84999990
   16.72777748  141.73699951    1.14999998    2.82999992
   16.73388863  141.73699951    1.14999998    2.82999992
   16.73777771  144.43499756    1.14999998    2.82999992
   16.74111176  148.59899902    1.16999996    2.84999990
   16.74444389  143.11199951    1.16999996    2.82999992
   16.74749947  154.53999329    1.16999996    2.84999990
   16.75083351  151.25399780    1.16999996    2.84999990
   16.75388908  153.47399902    1.16999996    2.84999990
   16.75722313  159.24400330    1.19000006    2.82999992
   16.76055527  153.52099609    1.14999998    2.82999992
   16.76361084  156.46000671    1.14999998    2.82999992
   16.76499939  160.22999573    1.16999996    2.82999992
   16.76749992  173.56500244    1.16999996    2.82999992
   16.77055550  161.09599304    1.14999998    2.80999994
   16.77666664  161.09599304    1.14999998    2.82999992
   16.78083229  157.20100403    1.14999998    2.82999992
   16.78388786  158.08299255    1.14999998    2.82999992
   16.78722191  159.79800415    1.14999998    2.82999992
   16.79055595  158.58799744    1.14999998    2.84999990
   16.79500008  154.57800293    1.14999998    2.82999992
   16.79833221  157.64999390    1.14999998    2.82999992
   16.79888916  165.19099426    1.14999998    2.82999992
   16.80194283  164.74600220    1.13000000    2.82999992
   16.80527687  159.29299927    1.13000000    2.84999990
   16.80833244  151.77600098    1.13000000    2.82999992
   16.81166649  168.75300598    1.14999998    2.82999992
   16.81499863  150.70599365    1.13000000    2.84999990
   16.81944466  150.70599365    1.13000000    2.82999992
   16.82361221  161.11599731    1.14999998    2.82999992
   16.82666779  161.67199707    1.14999998    2.84999990
   16.83000183  152.06900024    1.13000000    2.82999992
   16.83194542  156.00900269    1.13000000    2.82999992
   16.83361244  153.21200562    1.14999998    2.82999992
   16.83694458  154.93600464    1.14999998    2.82999992
   16.84027863  168.89700317    1.14999998    2.82999992
   16.84333420  140.00999451    1.14999998    2.84999990
   16.84666824  141.30799866    1.14999998    2.82999992
   16.84972191  155.56900024    1.14999998    2.84999990
   16.85305595  144.73800659    1.14999998    2.84999990
   16.85639000  159.85899353    1.14999998    2.84999990
   16.86222267  159.85899353    1.13000000    2.84999990
   16.86638832  155.35099792    1.13000000    2.84999990
   16.86972237  139.41000366    1.14999998    2.82999992
   16.87277794  155.69999695    1.14999998    2.82999992
   16.87611198  144.82000732    1.13000000    2.82999992
   16.87944412  144.16799927    1.14999998    2.82999992
   16.88249969  151.94799805    1.14999998    2.84999990
   16.88583374  142.42700195    1.13000000    2.84999990
   16.88888931  145.36399841    1.13000000    2.84999990
   16.89222145  147.62500000    1.13000000    2.84999990
   16.89555550  157.47999573    1.13000000    2.82999992
   16.89861107  160.42700195    1.13000000    2.82999992
   16.89916611  150.81900024    1.13000000    2.82999992
   16.90499878  150.81900024    1.13000000    2.84999990
   16.90916634  152.81900024    1.13000000    2.82999992
   16.91250038  154.71299744    1.14999998    2.84999990
   16.91583252  159.79100037    1.13000000    2.84999990
   16.91888809  154.49299622    1.13000000    2.84999990
   16.92222214  139.49600220    1.13000000    2.82999992
   16.92555428  148.66999817    1.14999998    2.82999992
   16.92860985  161.16200256    1.14999998    2.82999992
   16.93194389  153.46800232    1.13000000    2.82999992
   16.93222237  156.33799744    1.14999998    2.84999990
   16.93555450  149.23199463    1.13000000    2.84999990
   16.93888855  145.67799377    1.13000000    2.82999992
   16.94194412  148.80900574    1.13000000    2.84999990
   16.94805527  148.80900574    1.14999998    2.82999992
   16.95222282  159.19400024    1.16999996    2.82999992
   16.95527840  133.79400635    1.16999996    2.82999992
   16.95861244  150.70300293    1.19000006    2.82999992
   16.96166801  154.47399902    1.19000006    2.82999992
   16.96500015  150.44200134    1.19000006    2.82999992
   16.96555710  140.16600037    1.21000004    2.84999990
   16.96888924  147.81399536    1.21000004    2.84999990
   16.97194481  144.10600281    1.23000002    2.82999992
   16.97527885  133.44700623    1.25000000    2.82999992
   16.97861099  142.82000732    1.25000000    2.84999990
   16.98166656  148.11099243    1.26999998    2.82999992
   16.98500061  145.79899597    1.26999998    2.82999992
   16.99083328  145.79899597    1.23000002    2.82999992
   16.99500084  143.50599670    1.21000004    2.82999992
   16.99805641  143.99200439    1.21000004    2.82999992
   16.99888992  150.32099915    1.21000004    2.82999992
   17.00194359  140.71699524    1.21000004    2.82999992
   17.00499916  150.41700745    1.23000002    2.84999990
   17.00833321  135.68600464    1.21000004    2.82999992
   17.01166725  142.88400269    1.19000006    2.84999990
   17.01472282  132.61799622    1.19000006    2.82999992
   17.01805496  140.64999390    1.19000006    2.84999990
   17.02138901  141.76800537    1.19000006    2.82999992
   17.02444458  166.46699524    1.16999996    2.82999992
   17.02777672  142.36999512    1.16999996    2.82999992
   17.03361130  142.36999512    1.16999996    2.82999992
   17.03777695  139.03100586    1.16999996    2.82999992
   17.04111099  143.40499878    1.16999996    2.82999992
   17.04416656  141.89399719    1.19000006    2.82999992
   17.04749870  144.91400146    1.21000004    2.84999990
   17.05083275  144.55000305    1.21000004    2.84999990
   17.05388832  152.09700012    1.21000004    2.82999992
   17.05722237  147.20199585    1.19000006    2.84999990
   17.06055450  138.46499634    1.21000004    2.84999990
   17.06361008  144.81700134    1.19000006    2.82999992
   17.06555557  130.45199585    1.19000006    2.82999992
   17.06750107  136.37500000    1.19000006    2.84999990
   17.07055664  149.02200317    1.19000006    2.84999990
   17.07638931  149.02200317    1.19000006    2.82999992
   17.08055687  130.85699463    1.19000006    2.82999992
   17.08388901  134.77099609    1.19000006    2.84999990
   17.08722305  150.69999695    1.19000006    2.82999992
   17.09027863  141.18400574    1.19000006    2.82999992
   17.09361267  143.88499451    1.19000006    2.82999992
   17.09666824  149.39799500    1.21000004    2.82999992
   17.09889030  146.07800293    1.21000004    2.82999992
   17.10055542  132.83099365    1.21000004    2.82999992
   17.10361099  138.06900024    1.21000004    2.82999992
   17.10694504  147.66600037    1.21000004    2.82999992
   17.11027908  143.36099243    1.21000004    2.82999992
   17.11333466  145.19599915    1.23000002    2.82999992
   17.11944389  145.19599915    1.23000002    2.82999992
   17.12333298  132.57299805    1.23000002    2.82999992
   17.12666702  142.73599243    1.23000002    2.82999992
   17.13000107  150.51600647    1.21000004    2.82999992
   17.13222313  150.80000305    1.21000004    2.82999992
   17.13361168  146.30200195    1.23000002    2.82999992
   17.13666725  139.46800232    1.21000004    2.82999992
   17.13999939  126.81300354    1.21000004    2.82999992
   17.14333344  149.76400757    1.21000004    2.82999992
   17.14666748  144.18600464    1.21000004    2.82999992
   17.14999962  147.68600464    1.21000004    2.82999992
   17.15305519  137.75500488    1.21000004    2.82999992
   17.15638924  139.25399780    1.21000004    2.82999992
   17.16222191  139.25399780    1.23000002    2.84999990
   17.16638756  150.82200623    1.23000002    2.84999990
   17.16972160  150.69500732    1.23000002    2.82999992
   17.17277718  148.81500244    1.23000002    2.82999992
   17.17611122  155.24000549    1.23000002    2.82999992
   17.17916679  141.28500366    1.25000000    2.82999992
   17.18249893  140.50700378    1.25000000    2.82999992
   17.18583298  145.48199463    1.25000000    2.82999992
   17.18888855  152.23800659    1.25000000    2.82999992
   17.19222069  141.98199463    1.23000002    2.82999992
   17.19555473  135.03799438    1.25000000    2.82999992
   17.19861031  155.92100525    1.25000000    2.84999990
   17.19916534  148.44400024    1.25000000    2.82999992
   17.20499992  148.44400024    1.25000000    2.82999992
   17.20916748  143.27000427    1.25000000    2.84999990
   17.21250153  144.97599792    1.25000000    2.82999992
   17.21555710  148.63400269    1.25000000    2.82999992
   17.21888924  143.82800293    1.26999998    2.82999992
   17.22194481  143.33799744    1.26999998    2.82999992
   17.22527885  147.29600525    1.26999998    2.82999992
   17.22861099  152.38999939    1.25000000    2.82999992
   17.23166656  144.02999878    1.25000000    2.82999992
   17.23250008  140.82699585    1.25000000    2.82999992
   17.23555565  148.35099792    1.25000000    2.82999992
   17.23861122  145.12600708    1.25000000    2.82999992
   17.24194527  152.35699463    1.25000000    2.82999992
   17.24777794  152.35699463    1.25000000    2.82999992
   17.25194359  141.89100647    1.25000000    2.82999992
   17.25527763  148.92999268    1.25000000    2.82999992
   17.25861168  141.55700684    1.25000000    2.84999990
   17.26166725  133.79600525    1.25000000    2.82999992
   17.26499939  131.75100708    1.25000000    2.82999992
   17.26583290  144.28399658    1.23000002    2.84999990
   17.26861000  137.10000610    1.23000002    2.84999990
   17.27166557  141.64300537    1.23000002    2.84999990
   17.27499962  129.43499756    1.23000002    2.84999990
   17.27833366  128.79699707    1.23000002    2.84999990
   17.28138924  136.86000061    1.23000002    2.82999992
   17.28472137  131.50799561    1.23000002    2.80999994
   17.29083252  131.50799561    1.23000002    2.82999992
   17.29472160  136.31900024    1.23000002    2.82999992
   17.29805565  144.20199585    1.23000002    2.82999992
   17.29916573  132.11500549    1.23000002    2.82999992
   17.30166626  132.67300415    1.23000002    2.82999992
   17.30499840  135.35600281    1.25000000    2.82999992
   17.30805397  131.99699402    1.23000002    2.84999990
   17.31138802  131.98199463    1.23000002    2.84999990
   17.31444359  139.88999939    1.23000002    2.82999992
   17.31777954  135.70799255    1.21000004    2.82999992
   17.32111168  126.16999817    1.21000004    2.82999992
   17.32416725  133.93899536    1.21000004    2.82999992
   17.32750130  138.80799866    1.21000004    2.82999992
   17.33361244  138.80799866    1.23000002    2.84999990
   17.33777809  134.85000610    1.21000004    2.82999992
   17.34083366  134.16700745    1.21000004    2.82999992
   17.34416771  139.52499390    1.21000004    2.82999992
   17.34749985  139.81500244    1.21000004    2.82999992
   17.35055542  147.36999512    1.21000004    2.82999992
   17.35388947  142.80799866    1.21000004    2.82999992
   17.35694504  140.28300476    1.21000004    2.82999992
   17.36027908  142.54400635    1.23000002    2.82999992
   17.36361122  146.02000427    1.23000002    2.82999992
   17.36583328  137.12199402    1.23000002    2.82999992
   17.36722183  140.49699402    1.23000002    2.82999992
   17.37055588  133.65400696    1.25000000    2.84999990
   17.37638855  133.65400696    1.23000002    2.84999990
   17.38055611  133.57099915    1.26999998    2.82999992
   17.38388824  139.74600220    1.26999998    2.82999992
   17.38694382  141.19999695    1.26999998    2.82999992
   17.39027786  133.50500488    1.26999998    2.82999992
   17.39333344  127.54499817    1.28999996    2.80999994
   17.39666748  135.57800293    1.28999996    2.82999992
   17.39916611  130.46499634    1.28999996    2.82999992
   17.40027809  135.50199890    1.28999996    2.82999992
   17.40361023  140.06300354    1.30999994    2.82999992
   17.40666580  140.36999512    1.28999996    2.82999992
   17.40999985  140.75300598    1.30999994    2.82999992
   17.41333389  139.24200439    1.30999994    2.82999992
   17.41916656  139.24200439    1.30999994    2.82999992
   17.42333221  130.65899658    1.33000004    2.82999992
   17.42666626  134.21699524    1.38000000    2.82999992
   17.42972183  132.50900269    1.34000003    2.82999992
   17.44833183  138.74299622    1.33000004    2.82999992
   17.44972038  136.42100525    1.33000004    2.82999992
   17.45277786  143.27799988    1.34000003    2.82999992
   17.45611191  137.58900452    1.34000003    2.82999992
   17.46250153  137.58900452    1.34000003    2.82999992
   17.46666718  146.51699829    1.26999998    2.82999992
   17.46972275  147.55400085    1.26999998    2.82999992
   17.47305679  130.48899841    1.26999998    2.80999994
   17.47611237  135.83299255    1.28999996    2.82999992
   17.47944450  141.73100281    1.30999994    2.82999992
   17.48166656  141.07499695    1.33000004    2.82999992
   17.48305511  130.55099487    1.36000001    2.82999992
   17.48638916  158.79200745    1.34000003    2.82999992
   17.48972321  149.00399780    1.34000003    2.82999992
   17.49277878  148.91499329    1.34000003    2.82999992
   17.49611092  137.72500610    1.38000000    2.82999992
   17.49944496  138.90899658    1.39999998    2.82999992
   17.50527763  138.90899658    1.44000006    2.82999992
   17.50944519  149.31799316    1.44000006    2.82999992
   17.51250076  165.47999573    1.46000004    2.80999994
   17.51499939  135.58999634    1.48000002    2.82999992
   17.51638794  147.50100708    1.48000002    2.82999992
   17.51944351  133.50300598    1.48000002    2.82999992
   17.52277756  140.86000061    1.51999998    2.82999992
   17.52611160  142.64300537    1.51999998    2.82999992
   17.52916718  139.09700012    1.53999996    2.82999992
   17.53805542  161.71699524    1.51999998    2.82999992
   17.54138756  145.63699341    1.50000000    2.80999994
   17.54805565  145.63699341    1.38000000    2.80999994
   17.55222130  155.98500061    1.38000000    2.80999994
   17.55388832  162.76899719    1.38000000    2.80999994
   17.55583191  164.57099915    1.38000000    2.82999992
   17.55916595  154.32699585    1.38000000    2.82999992
   17.56250000  156.47599792    1.36000001    2.82999992
   17.56555557  157.01400757    1.38000000    2.82999992
   17.56888962  151.92300415    1.38000000    2.80999994
   17.57222366  165.76899719    1.36000001    2.82999992
   17.57527924  171.94900513    1.36000001    2.82999992
   17.57861137  160.68600464    1.34000003    2.82999992
   17.58194542  163.31599426    1.36000001    2.82999992
   17.58500099  162.38999939    1.36000001    2.82999992
   17.58722305  158.59899902    1.36000001    2.82999992
   17.59138870  158.59899902    1.34000003    2.82999992
   17.59555626  155.26100159    1.30999994    2.80999994
   17.59861183  161.71800232    1.30999994    2.80999994
   17.60194397  148.91900635    1.30999994    2.82999992
   17.60527802  149.69900513    1.28999996    2.82999992
   17.60833359  152.49800110    1.28999996    2.82999992
   17.61166763  164.17999268    1.28999996    2.82999992
   17.61499977  154.66600037    1.28999996    2.82999992
   17.61805534  163.76400757    1.28999996    2.82999992
   17.62055588  166.65600586    1.26999998    2.82999992
   17.62166595  153.61900330    1.28999996    2.82999992
   17.62500000  157.49299622    1.26999998    2.82999992
   17.62833405  150.40299988    1.26999998    2.82999992
   17.63416672  150.40299988    1.26999998    2.82999992
   17.63833237  151.33700562    1.28999996    2.82999992
   17.64166641  153.49899292    1.26999998    2.82999992
   17.64472198  156.11700439    1.28999996    2.82999992
   17.64805603  141.53799438    1.26999998    2.80999994
   17.65111160  164.81799316    1.26999998    2.82999992
   17.65388870  156.09199524    1.25000000    2.82999992
   17.65472221  145.19000244    1.25000000    2.82999992
   17.65805435  169.56300354    1.25000000    2.82999992
   17.66138840  144.00199890    1.23000002    2.82999992
   17.66444397  147.89199829    1.23000002    2.82999992
   17.66777802  169.25500488    1.23000002    2.82999992
   17.67111015  150.79200745    1.23000002    2.82999992
   17.67694473  150.79200745    1.23000002    2.82999992
   17.68111038  133.38900757    1.23000002    2.82999992
   17.68444443  139.05299377    1.23000002    2.82999992
   17.68722153  141.66999817    1.25000000    2.82999992
   17.68777657  148.32099915    1.25000000    2.82999992
   17.69111061  153.48800659    1.25000000    2.82999992
   17.69444275  153.41499329    1.25000000    2.82999992
   17.69749832  144.73199463    1.25000000    2.82999992
   17.70083427  144.99800110    1.25000000    2.82999992
   17.70416832  149.97500610    1.26999998    2.82999992
   17.70722389  152.38800049    1.26999998    2.82999992
   17.71055603  150.28799438    1.25000000    2.82999992
   17.71361160  142.99200439    1.26999998    2.82999992
   17.72000122  142.99200439    1.25000000    2.82999992
   17.72389030  138.77200317    1.25000000    2.82999992
   17.72722244  155.03500366    1.26999998    2.82999992
   17.73055649  141.98800659    1.26999998    2.82999992
   17.73361206  147.76400757    1.28999996    2.82999992
   17.73694420  155.60499573    1.28999996    2.82999992
   17.74027824  137.99600220    1.28999996    2.82999992
   17.74333382  152.85600281    1.30999994    2.82999992
   17.74666786  143.59599304    1.28999996    2.80999994
   17.75000000  140.10800171    1.28999996    2.82999992
   17.75305557  148.51600647    1.28999996    2.82999992
   17.75499916  154.34500122    1.30999994    2.82999992
   17.75666618  164.45199585    1.30999994    2.82999992
   17.76277733  164.45199585    1.30999994    2.82999992
   17.76694489  165.10499573    1.33000004    2.82999992
   17.77000046  167.50900269    1.33000004    2.82999992
   17.77333260  187.24899292    1.34000003    2.82999992
   17.77666664  158.67399597    1.34000003    2.82999992
   17.77972221  168.03199768    1.34000003    2.82999992
   17.78305435  163.46800232    1.34000003    2.82999992
   17.78638840  192.06300354    1.34000003    2.82999992
   17.78833199  190.07600403    1.34000003    2.82999992
   17.78972244  185.48199463    1.34000003    2.80999994
   17.79305458  161.05499268    1.34000003    2.84999990
   17.79638863  161.58700562    1.33000004    2.80999994
   17.79944420  178.55999756    1.33000004    2.82999992
   17.80555534  178.55999756    1.33000004    2.82999992
   17.80972099  177.65800476    1.30999994    2.82999992
   17.81305504  170.57499695    1.30999994    2.82999992
   17.81611061  153.01499939    1.30999994    2.82999992
   17.81944466  151.38999939    1.30999994    2.82999992
   17.82166672  173.15299988    1.30999994    2.82999992
   17.82305717  165.81500244    1.30999994    2.82999992
   17.82638931  169.16200256    1.30999994    2.82999992
   17.82944489  161.51600647    1.30999994    2.84999990
   17.83277893  172.68499756    1.30999994    2.82999992
   17.83611107  151.67100525    1.30999994    2.82999992
   17.83916664  179.56799316    1.30999994    2.82999992
   17.84250069  153.36999512    1.30999994    2.82999992
   17.84833336  153.36999512    1.30999994    2.82999992
   17.85250092  156.30700684    1.30999994    2.82999992
   17.85499954  150.27400208    1.30999994    2.82999992
   17.85611153  139.37100220    1.30999994    2.82999992
   17.85944557  144.25300598    1.28999996    2.82999992
   17.86250114  161.32499695    1.28999996    2.82999992
   17.86583328  168.10000610    1.28999996    2.82999992
   17.86916733  166.63600159    1.28999996    2.80999994
   17.87222290  160.34500122    1.28999996    2.80999994
   17.87555504  159.61900330    1.28999996    2.82999992
   17.87888908  154.69200134    1.28999996    2.82999992
   17.88194466  154.56399536    1.30999994    2.80999994
   17.88527679  165.16799927    1.30999994    2.82999992
   17.89111137  165.16799927    1.30999994    2.80999994
   17.89527702  168.67100525    1.30999994    2.82999992
   17.89861107  174.08299255    1.28999996    2.82999992
   17.90194321  160.58799744    1.28999996    2.82999992
   17.90499878  161.41600037    1.28999996    2.82999992
   17.90833282  168.48199463    1.28999996    2.80999994
   17.91166687  152.69599915    1.30999994    2.82999992
   17.91472244  165.45500183    1.30999994    2.82999992
   17.91805458  148.26499939    1.30999994    2.82999992
   17.92111015  164.17100525    1.28999996    2.82999992
   17.92222214  160.66900635    1.28999996    2.82999992
   17.92472076  161.43699646    1.30999994    2.82999992
   17.92805481  146.11999512    1.30999994    2.82999992
   17.93416595  146.11999512    1.28999996    2.80999994
   17.93833160  159.26699829    1.28999996    2.82999992
   17.94138718  145.82699585    1.28999996    2.80999994
   17.94472122  171.00300598    1.28999996    2.82999992
   17.94777679  171.41099548    1.28999996    2.82999992
   17.95111275  166.98500061    1.30999994    2.82999992
   17.95444489  163.97700500    1.30999994    2.82999992
   17.95555687  163.29499817    1.30999994    2.82999992
   17.95777893  153.65800476    1.28999996    2.82999992
   17.96111107  148.69999695    1.28999996    2.82999992
   17.96444511  153.78900146    1.28999996    2.82999992
   17.96750069  151.03999329    1.28999996    2.82999992
   17.97083473  144.49499512    1.28999996    2.82999992
   17.97694588  144.49499512    1.26999998    2.82999992
   17.98111153  150.59500122    1.26999998    2.82999992
   17.98416710  150.68099976    1.25000000    2.82999992
   17.98750114  161.38699341    1.23000002    2.82999992
   17.98888969  139.06399536    1.23000002    2.82999992
   17.99111176  151.33000183    1.23000002    2.82999992
   17.99444389  155.32899475    1.23000002    2.82999992
   17.99749947  145.78700256    1.21000004    2.82999992
   18.00083351  148.89199829    1.21000004    2.82999992
   18.00416756  145.40299988    1.21000004    2.82999992
   18.00722313  148.44999695    1.21000004    2.82999992
   18.01055527  134.21899414    1.21000004    2.82999992
   18.01388931  145.74899292    1.21000004    2.82999992
   18.01972198  145.74899292    1.21000004    2.82999992
   18.02388954  146.61599731    1.21000004    2.82999992
   18.02722168  137.04699707    1.21000004    2.82999992
   18.03027725  139.10099792    1.21000004    2.82999992
   18.03361130  129.73100281    1.21000004    2.82999992
   18.03861046  134.41099548    1.21000004    2.82999992
   18.04194450  143.61999512    1.21000004    2.82999992
   18.04500008  133.06399536    1.23000002    2.82999992
   18.04833221  144.35099792    1.23000002    2.82999992
   18.05166626  140.72999573    1.21000004    2.80999994
   18.05472183  137.45899963    1.23000002    2.82999992
   18.05583191  140.06700134    1.23000002    2.82999992
   18.05833244  140.37800598    1.21000004    2.80999994
   18.06277657  140.37800598    1.23000002    2.82999992
   18.06666756  138.73599243    1.23000002    2.82999992
   18.07000160  145.53900146    1.23000002    2.82999992
   18.07333374  136.18699646    1.23000002    2.82999992
   18.07638931  142.50700378    1.23000002    2.82999992
   18.07972336  126.03600311    1.23000002    2.82999992
   18.08305550  141.72700500    1.25000000    2.82999992
   18.08611107  139.92599487    1.25000000    2.82999992
   18.08916664  136.51100159    1.25000000    2.82999992
   18.08972359  141.72599792    1.25000000    2.82999992
   18.09305573  149.75399780    1.25000000    2.82999992
   18.09611130  135.90199280    1.23000002    2.80999994
   18.09944534  137.33700562    1.25000000    2.82999992
   18.10555649  137.33700562    1.25000000    2.82999992
   18.10972214  130.25700378    1.25000000    2.82999992
   18.11277771  138.68400574    1.23000002    2.82999992
   18.11611176  139.22000122    1.23000002    2.82999992
   18.11916733  132.60499573    1.23000002    2.82999992
   18.12249947  137.32000732    1.23000002    2.82999992
   18.12277794  136.34300232    1.23000002    2.82999992
   18.12611198  127.38500214    1.25000000    2.82999992
   18.12916756  128.46499634    1.25000000    2.82999992
   18.13249969  130.73399353    1.25000000    2.82999992
   18.13583374  133.34399414    1.25000000    2.82999992
   18.13888931  139.55799866    1.25000000    2.82999992
   18.14222145  136.13099670    1.25000000    2.82999992
   18.14833260  136.13099670    1.21000004    2.82999992
   18.15250015  141.78100586    1.21000004    2.82999992
   18.15583229  133.43600464    1.21000004    2.82999992
   18.15611076  134.05099487    1.21000004    2.82999992
   18.15944481  133.10299683    1.21000004    2.82999992
   18.16277695  134.97999573    1.19000006    2.80999994
   18.16611099  132.62899780    1.19000006    2.82999992
   18.16916656  134.06900024    1.19000006    2.82999992
   18.17249870  132.80400085    1.19000006    2.82999992
   18.17583275  135.53999329    1.19000006    2.82999992
   18.17888832  130.77299500    1.19000006    2.82999992
   18.18222237  139.92599487    1.19000006    2.82999992
   18.18527603  133.17500305    1.19000006    2.82999992
   18.19111061  133.17500305    1.19000006    2.82999992
   18.19527626  131.92599487    1.21000004    2.82999992
   18.19861031  138.78700256    1.21000004    2.82999992
   18.20166779  146.49000549    1.21000004    2.82999992
   18.20499992  128.82400513    1.21000004    2.84999990
   18.20833397  131.48399353    1.25000000    2.82999992
   18.21138954  141.53100586    1.25000000    2.82999992
   18.21472359  126.37300110    1.25000000    2.82999992
   18.21805573  143.78700256    1.23000002    2.82999992
   18.22111130  133.25700378    1.25000000    2.82999992
   18.22249985  133.20700073    1.23000002    2.82999992
   18.22472191  129.28100586    1.23000002    2.82999992
   18.22805595  140.69900513    1.23000002    2.82999992
   18.23388863  140.69900513    1.23000002    2.82999992
   18.23805618  144.89599609    1.23000002    2.82999992
   18.24138832  133.15899658    1.21000004    2.80999994
   18.24472237  130.78300476    1.21000004    2.82999992
   18.24777794  133.35000610    1.19000006    2.82999992
   18.25111198  124.52899933    1.21000004    2.82999992
   18.25416756  127.93299866    1.19000006    2.82999992
   18.25583267  138.40400696    1.19000006    2.82999992
   18.25777817  127.65599823    1.19000006    2.82999992
   18.26111031  117.09300232    1.19000006    2.80999994
   18.26444435  121.79299927    1.19000006    2.80999994
   18.26749992  140.36500549    1.19000006    2.84999990
   18.27083397  116.68099976    1.19000006    2.84999990
   18.27694511  116.68099976    1.19000006    2.82999992
   18.28111076  137.77799988    1.19000006    2.82999992
   18.28416634  132.44500732    1.19000006    2.82999992
   18.28750038  126.40399933    1.19000006    2.80999994
   18.28916550  130.36300659    1.19000006    2.80999994
   18.29111099  118.80300140    1.19000006    2.80999994
   18.29444313  124.27500153    1.21000004    2.82999992
   18.29749870  125.66999817    1.19000006    2.82999992
   18.30083275  136.73800659    1.21000004    2.82999992
   18.30416679  131.28999329    1.21000004    2.82999992
   18.30722237  121.70099640    1.19000006    2.82999992
   18.31055450  121.99099731    1.19000006    2.82999992
   18.31361008  126.65899658    1.19000006    2.82999992
   18.31972313  126.65899658    1.16999996    2.82999992
   18.32389069  130.79600525    1.16999996    2.82999992
   18.32694626  138.67999268    1.16999996    2.82999992
   18.33027840  135.88499451    1.16999996    2.82999992
   18.33361244  127.79100037    1.16999996    2.82999992
   18.33666801  137.32699585    1.16999996    2.82999992
   18.34000015  136.62399292    1.16999996    2.82999992
   18.34333420  127.20099640    1.14999998    2.82999992
   18.34638977  127.51899719    1.14999998    2.82999992
   18.34972191  125.59300232    1.14999998    2.82999992
   18.35277748  130.53500366    1.14999998    2.82999992
   18.35583305  137.42399597    1.13000000    2.82999992
   18.35666656  127.53500366    1.13000000    2.82999992
   18.36250114  127.53500366    1.13000000    2.82999992
   18.36666679  138.79100037    1.11000001    2.82999992
   18.37000084  139.66400146    1.09000003    2.82999992
   18.37305641  132.76899719    1.09000003    2.82999992
   18.37638855  131.58999634    1.09000003    2.82999992
   18.37972260  131.95599365    1.11000001    2.82999992
   18.38277817  125.79299927    1.11000001    2.82999992
   18.38611031  129.87600708    1.09000003    2.82999992
   18.38916588  130.38699341    1.09000003    2.82999992
   18.38972282  125.05100250    1.09000003    2.82999992
   18.39305496  134.89399719    1.09000003    2.84999990
   18.39611053  126.39800262    1.11000001    2.82999992
   18.39944458  130.59100342    1.11000001    2.84999990
   18.40527725  130.59100342    1.11000001    2.82999992
   18.40944481  137.34100342    1.09000003    2.82999992
   18.41277695  132.03999329    1.09000003    2.84999990
   18.41611099  124.80500031    1.09000003    2.84999990
   18.41916656  129.88200378    1.09000003    2.82999992
   18.42249870  126.97299957    1.11000001    2.82999992
   18.42305565  132.26199341    1.11000001    2.82999992
   18.42638779  127.07399750    1.11000001    2.82999992
   18.42944336  130.29800415    1.11000001    2.82999992
   18.43277740  129.80499268    1.13000000    2.82999992
   18.43610954  130.94299316    1.13000000    2.82999992
   18.43916512  123.34999847    1.14999998    2.84999990
   18.44249916  127.66899872    1.14999998    2.82999992
   18.44833183  127.66899872    1.14999998    2.82999992
   18.46666718  130.65899658    1.19000006    2.80999994
   18.47000122  128.51600647    1.21000004    2.82999992
   18.47305679  128.63400269    1.21000004    2.82999992
   18.47638893  125.00099945    1.21000004    2.82999992
   18.47944450  129.31900024    1.21000004    2.82999992
   18.48277855  126.78399658    1.21000004    2.82999992
   18.48611069  130.28100586    1.21000004    2.82999992
   18.49138832  130.28100586    1.23000002    2.82999992
   18.49555588  128.41999817    1.23000002    2.80999994
   18.49861145  125.28199768    1.25000000    2.82999992
   18.49972153  137.47700500    1.25000000    2.82999992
   18.50250053  131.42100525    1.25000000    2.82999992
   18.50555611  123.29100037    1.25000000    2.82999992
   18.50888824  123.91600037    1.25000000    2.80999994
   18.51194382  117.92700195    1.26999998    2.82999992
   18.51527786  124.72000122    1.26999998    2.80999994
   18.51861000  122.82800293    1.28999996    2.82999992
   18.52166557  125.09700012    1.30999994    2.82999992
   18.52499962  121.99600220    1.30999994    2.82999992
   18.52833366  123.50800323    1.30999994    2.82999992
   18.53416634  123.50800323    1.30999994    2.80999994
   18.53833199  124.84300232    1.33000004    2.80999994
   18.54166603  119.34400177    1.33000004    2.80999994
   18.54500008  126.10900116    1.33000004    2.82999992
   18.54805565  121.08699799    1.33000004    2.80999994
   18.55138779  125.63200378    1.33000004    2.80999994
   18.55749893  123.11599731    1.33000004    2.80999994
   18.56083298  124.50900269    1.33000004    2.82999992
   18.56416512  126.71600342    1.33000004    2.80999994
   18.56638718  129.17500305    1.33000004    2.80999994
   18.56777954  126.64199829    1.33000004    2.80999994
   18.57083511  118.02999878    1.33000004    2.80999994
   18.57694626  118.02999878    1.33000004    2.82999992
   18.58111191  123.63099670    1.33000004    2.80999994
   18.58444595  122.37500000    1.33000004    2.82999992
   18.58777809  123.04100037    1.34000003    2.80999994
   18.59083366  124.20200348    1.34000003    2.78999996
   18.59416771  122.44100189    1.36000001    2.80999994
   18.59722328  111.69799805    1.34000003    2.80999994
   18.59972191  120.84500122    1.34000003    2.80999994
   18.60111237  120.73100281    1.34000003    2.80999994
   18.60416794  116.82800293    1.34000003    2.80999994
   18.60750008  126.73899841    1.33000004    2.82999992
   18.61055565  128.96400452    1.33000004    2.80999994
   18.61388969  120.44899750    1.28999996    2.80999994
   18.62000084  120.44899750    1.28999996    2.80999994
   18.62416649  119.33000183    1.26999998    2.80999994
   18.62722206  125.42800140    1.26999998    2.82999992
   18.63055611  119.01499939    1.25000000    2.80999994
   18.63305473  120.10700226    1.26999998    2.82999992
   18.63416672  118.07099915    1.26999998    2.82999992
   18.63722229  121.34600067    1.25000000    2.80999994
   18.64055634  125.89800262    1.25000000    2.80999994
   18.64388847  124.69400024    1.25000000    2.80999994
   18.64694405  124.60399628    1.26999998    2.80999994
   18.65027809  125.93299866    1.26999998    2.80999994
   18.65361023  123.54100037    1.25000000    2.82999992
   18.65666580  125.46299744    1.25000000    2.82999992
   18.66277695  125.46299744    1.25000000    2.82999992
   18.66694450  123.64600372    1.23000002    2.80999994
   18.67000008  119.28299713    1.21000004    2.82999992
   18.67333221  124.02799988    1.21000004    2.82999992
   18.67666626  125.44599915    1.21000004    2.82999992
   18.67972183  129.27699280    1.21000004    2.82999992
   18.68305397  123.96600342    1.21000004    2.80999994
   18.68638802  126.41200256    1.21000004    2.80999994
   18.68944359  117.30599976    1.21000004    2.80999994
   18.69277763  119.17199707    1.21000004    2.80999994
   18.69610977  126.84200287    1.21000004    2.80999994
   18.69916534  119.90200043    1.23000002    2.82999992
   18.69972038  120.61399841    1.23000002    2.82999992
   18.70555687  120.61399841    1.23000002    2.82999992
   18.70972252  115.71399689    1.23000002    2.82999992
   18.71305656  118.59700012    1.25000000    2.80999994
   18.71611214  113.87699890    1.25000000    2.82999992
   18.71944427  119.14499664    1.25000000    2.82999992
   18.72277832  125.46299744    1.25000000    2.82999992
   18.72583389  120.46700287    1.25000000    2.80999994
   18.72916794  121.64299774    1.26999998    2.80999994
   18.73222351  122.57299805    1.28999996    2.80999994
   18.74250031  130.76600647    1.28999996    2.80999994
   18.74527740  121.03199768    1.30999994    2.80999994
   18.76138878  121.03199768    1.36000001    2.82999992
   18.76555634  123.23999786    1.34000003    2.80999994
   18.76638794  133.48399353    1.34000003    2.80999994
   18.76944351  126.07700348    1.38000000    2.78999996
   18.78111076  141.87899780    0.00000000    0.00000000
   18.78444481  125.79299927    1.41999996    2.78999996
   18.78777695  128.81500244    1.41999996    2.80999994
   18.79083252  134.28199768    1.41999996    2.80999994
   18.79500008  134.28199768    1.41999996    2.80999994
   18.80444336  156.54299927    0.00000000    0.00000000
   18.80499840  144.52600098    1.39999998    2.78999996
   18.80805397  148.21200562    1.39999998    2.80999994
   18.81110954  148.12199402    1.39999998    2.80999994
   18.81444359  140.96800232    1.39999998    2.78999996
   18.81777954  141.03599548    1.38000000    2.78999996
   18.82083511  143.83999634    1.38000000    2.78999996
   18.84222221  146.46699524    1.39999998    2.78999996
   18.84277916  151.13099670    1.39999998    2.78999996
   18.84555626  176.80499268    1.39999998    2.78999996
   18.85138893  176.80499268    1.39999998    2.80999994
   18.85555649  152.22999573    1.39999998    2.78999996
   18.85888863  148.29299927    1.41999996    2.80999994
   18.86222267  144.30000305    1.41999996    2.80999994
   18.86527824  143.04100037    1.39999998    2.78999996
   18.86861038  156.41499329    1.41999996    2.78999996
   18.87166595  153.13099670    1.41999996    2.78999996
   18.87500000  164.49000549    1.41999996    2.80999994
   18.87611198  145.99600220    1.41999996    2.80999994
   18.87888908  149.50500488    1.41999996    2.80999994
   18.88194466  152.75999451    1.41999996    2.80999994
   18.88527679  137.70500183    1.41999996    2.80999994
   18.88833237  147.18499756    1.41999996    2.80999994
   18.89444351  147.18499756    1.41999996    2.78999996
   18.89861107  160.35600281    1.41999996    2.80999994
   18.90166664  162.25999451    1.41999996    2.80999994
   18.90499878  163.83200073    1.41999996    2.78999996
   18.90833282  149.46499634    1.44000006    2.78999996
   18.90944481  152.61999512    1.44000006    2.78999996
   18.91194344  146.31399536    1.46000004    2.78999996
   18.91499901  147.25399780    1.44000006    2.78999996
   18.91833305  148.90400696    1.46000004    2.78999996
   18.92138863  153.37100220    1.44000006    2.78999996
   18.92472076  140.81399536    1.44000006    2.78999996
   18.92805481  147.30400085    1.46000004    2.78999996
   18.93111038  154.03999329    1.44000006    2.80999994
   18.93722153  154.03999329    1.44000006    2.78999996
   18.94138718  140.89900208    1.41999996    2.80999994
   18.94277763  147.48399353    1.41999996    2.80999994
   18.94499969  135.84100342    1.41999996    2.80999994
   18.94833183  151.67900085    1.41999996    2.80999994
   18.95166779  144.18200684    1.39999998    2.78999996
   18.95472336  139.29200745    1.39999998    2.80999994
   18.95805550  140.09399414    1.39999998    2.80999994
   18.96111107  150.19099426    1.39999998    2.78999996
   18.96444511  151.01800537    1.41999996    2.78999996
   18.96777916  159.28100586    1.41999996    2.78999996
   18.97083473  137.38299561    1.41999996    2.78999996
   18.97416687  140.39500427    1.41999996    2.78999996
   18.97611237  150.72399902    1.44000006    2.78999996
   18.98027802  150.72399902    1.41999996    2.78999996
   18.98416710  147.51100159    1.44000006    2.78999996
   18.98805618  143.12600708    1.41999996    2.80999994
   18.99111176  142.90499878    1.41999996    2.78999996
   18.99444389  145.71200562    1.41999996    2.78999996
   18.99749947  142.38299561    1.41999996    2.78999996
   19.00083351  147.03599548    1.44000006    2.78999996
   19.00416756  141.42500305    1.41999996    2.80999994
   19.00722313  145.22599792    1.41999996    2.80999994
   19.00944519  140.12899780    1.41999996    2.80999994
   19.01083374  148.88600159    1.44000006    2.78999996
   19.01416588  140.66299438    1.44000006    2.78999996
   19.01749992  141.91000366    1.44000006    2.78999996
   19.02305603  141.91000366    1.44000006    2.80999994
   19.02722168  137.25900269    1.44000006    2.80999994
   19.03027725  140.41700745    1.46000004    2.78999996
   19.03361130  141.53599548    1.44000006    2.78999996
   19.03694344  145.27200317    1.44000006    2.78999996
   19.03999901  153.97799683    1.44000006    2.78999996
   19.04277802  145.42399597    1.44000006    2.78999996
   19.04361153  147.83099365    1.46000004    2.78999996
   19.04694366  146.73199463    1.46000004    2.76999998
   19.05027771  137.84399414    1.46000004    2.78999996
   19.05333328  139.09399414    1.46000004    2.78999996
   19.05666542  138.17500305    1.48000002    2.78999996
   19.05999947  139.23800659    1.48000002    2.78999996
   19.07444572  139.23800659    1.48000002    2.78999996
   19.07861137  147.05200195    1.48000002    2.76999998
   19.08194542  140.78500366    1.46000004    2.78999996
   19.08500099  141.43699646    1.46000004    2.78999996
   19.08833313  136.21699524    1.46000004    2.78999996
   19.09166718  145.06399536    1.46000004    2.78999996
   19.09472275  136.02499390    1.46000004    2.78999996
   19.09805679  141.34300232    1.46000004    2.78999996
   19.10138893  131.53999329    1.46000004    2.78999996
   19.10444450  143.44599915    1.46000004    2.78999996
   19.10861206  143.44599915    1.46000004    2.78999996
   19.11277771  140.06100464    1.48000002    2.78999996
   19.11611176  137.30700684    1.50000000    2.78999996
   19.11916733  134.92999268    1.53999996    2.78999996
   19.12249947  141.17300415    1.55999994    2.76999998
   19.12583351  144.71899414    1.55999994    2.76999998
   19.12888908  146.92500305    1.55999994    2.78999996
   19.13222313  146.85800171    1.53999996    2.78999996
   19.13555527  148.80799866    1.53999996    2.78999996
   19.13861084  147.95300293    1.53999996    2.78999996
   19.14194489  143.18299866    1.55999994    2.78999996
   19.14388847  158.38400269    1.58000004    2.78999996
   19.14555550  153.71400452    1.58000004    2.78999996
   19.15166664  153.71400452    1.58000004    2.76999998
   19.15583229  160.78999329    1.58000004    2.76999998
   19.15888786  163.39999390    1.58000004    2.78999996
   19.16222191  161.86500549    1.58000004    2.78999996
   19.17333221  156.97099304    0.00000000    0.00000000
   19.17666626  159.95399475    1.58000004    2.76999998
   19.17722130  162.55999756    1.58000004    2.76999998
   19.18000031  166.83599854    1.60000002    2.76999998
   19.18333244  165.77200317    1.60000002    2.76999998
   19.18638802  168.79800415    1.60000002    2.76999998
   19.18972206  161.37500000    1.60000002    2.78999996
   19.19305420  163.16600037    1.58000004    2.76999998
   19.19610977  172.13299561    1.58000004    2.76999998
   19.21000099  172.13299561    1.58000004    2.76999998
   19.21416664  169.10400391    1.60000002    2.76999998
   19.21750069  175.00300598    1.60000002    2.76999998
   19.22055626  173.11900330    1.60000002    2.78999996
   19.23333359  170.09700012    0.00000000    0.00000000
   19.23638916  178.28700256    1.55999994    2.76999998
   19.23972321  173.08099365    1.53999996    2.76999998
   19.24388885  173.08099365    1.53999996    2.76999998
   19.24805641  177.79200745    1.53999996    2.76999998
   19.24888992  158.26699829    1.51999998    2.78999996
   19.25166702  171.63699341    1.51999998    2.78999996
   19.25499916  172.02900696    1.51999998    2.76999998
   19.25805473  188.87199402    1.51999998    2.76999998
   19.26138878  160.37699890    1.53999996    2.76999998
   19.26444435  176.74200439    1.53999996    2.78999996
   19.26777840  161.51699829    1.53999996    2.76999998
   19.27138901  169.47099304    1.60000002    2.76999998
   19.27444458  171.81500244    1.69000006    2.76999998
   19.27777672  166.91799927    1.66999996    2.76999998
   19.28111076  163.41499329    1.66999996    2.76999998
   19.28222275  177.87699890    1.61000001    2.76999998
   19.28666687  177.87699890    1.58000004    2.76999998
   19.29083252  167.20599365    1.58000004    2.76999998
   19.29416656  161.36199951    1.55999994    2.78999996
   19.29749870  154.80099487    1.55999994    2.78999996
   19.30055428  160.86099243    1.55999994    2.76999998
   19.30388832  156.88600159    1.55999994    2.76999998
   19.30722237  159.74499512    1.55999994    2.76999998
   19.31027794  169.73599243    1.58000004    2.76999998
   19.31361008  161.87500000    1.60000002    2.76999998
   19.31583214  163.18499756    1.55999994    2.76999998
   19.31750107  153.28399658    1.55999994    2.76999998
   19.32083511  144.63699341    1.55999994    2.76999998
   19.32389069  177.47900391    1.55999994    2.76999998
   19.33250046  177.47900391    1.55999994    2.78999996
   19.33666801  142.09399414    1.55999994    2.76999998
   19.33972359  170.63800049    1.55999994    2.76999998
   19.34305573  160.04299927    1.55999994    2.76999998
   19.34611130  167.66099548    1.55999994    2.78999996
   19.34889030  175.37399292    1.55999994    2.76999998
   19.35000038  170.32499695    1.55999994    2.76999998
   19.35333443  173.02000427    1.55999994    2.76999998
   19.35639000  176.47599792    1.55999994    2.76999998
   19.35972214  164.53700256    1.55999994    2.76999998
   19.36305618  173.77200317    1.55999994    2.76999998
   19.36611176  177.31700134    1.53999996    2.76999998
   19.37249947  177.31700134    1.53999996    2.76999998
   19.37666702  163.33299255    1.53999996    2.76999998
   19.37972260  155.25799561    1.53999996    2.76999998
   19.38222313  174.15499878    1.53999996    2.76999998
   19.38333321  169.82099915    1.53999996    2.76999998
   19.38666725  154.56399536    1.53999996    2.76999998
   19.38972282  153.96800232    1.53999996    2.76999998
   19.39305496  144.39700317    1.53999996    2.76999998
   19.39638901  136.80299377    1.53999996    2.76999998
   19.39944458  154.34800720    1.53999996    2.76999998
   19.40277672  144.87100220    1.53999996    2.76999998
   19.40611076  145.36900330    1.53999996    2.78999996
   19.40916634  142.78900146    1.53999996    2.76999998
   19.41527748  142.78900146    1.53999996    2.76999998
   19.41944313  149.04299927    1.51999998    2.76999998
   19.42249870  158.00700378    1.51999998    2.76999998
   19.42583275  164.88999939    1.53999996    2.76999998
   19.42916679  160.12300110    1.55999994    2.75000000
   19.43222237  161.21600342    1.63000000    2.76999998
   19.43555450  151.13499451    1.61000001    2.76999998
   19.43888855  156.24899292    1.64999998    2.76999998
   19.44194412  145.28999329    1.64999998    2.76999998
   19.44527626  152.99899292    1.58000004    2.76999998
   19.44833183  161.49800110    1.55999994    2.76999998
   19.45027924  154.69599915    1.55999994    2.76999998
   19.45222282  161.19500732    1.53999996    2.76999998
   19.45805550  161.19500732    1.51999998    2.76999998
   19.46222305  158.74099731    1.50000000    2.76999998
   19.46555710  169.14999390    1.50000000    2.76999998
   19.46861076  165.12300110    1.48000002    2.76999998
   19.47194481  142.11199951    1.46000004    2.76999998
   19.47527885  161.30400085    1.46000004    2.76999998
   19.47833443  166.95899963    1.46000004    2.76999998
   19.48166656  157.79400635    1.46000004    2.76999998
   19.48361206  166.32699585    1.46000004    2.76999998
   19.48527718  149.85800171    1.48000002    2.76999998
   19.50777817  149.85800171    1.46000004    2.76999998
   19.51194382  166.39300537    1.44000006    2.75000000
   19.51527786  160.07800293    1.46000004    2.75000000
   19.51722145  169.40600586    1.46000004    2.75000000
   19.51861000  162.24600220    1.46000004    2.75000000
   19.52194405  170.17700195    1.48000002    2.76999998
   19.52527809  160.89199829    1.75000000    2.75000000
   19.52833366  172.08299255    1.85000002    2.75000000
   19.53194427  180.13600159    1.73000002    2.76999998
   19.53499985  194.59100342    1.71000004    2.76999998
   19.53833199  170.25700378    1.71000004    2.76999998
   19.54138756  192.68800354    1.66999996    2.75000000
   19.54472160  174.98199463    1.71000004    2.75000000
   19.55055428  174.98199463    1.58000004    2.75000000
   19.55472183  152.83099365    1.55999994    2.75000000
   19.55777740  162.86999512    1.55999994    2.75000000
   19.56110954  173.02999878    1.55999994    2.76999998
   19.56444359  175.02400208    1.55999994    2.75000000
   19.56750107  157.48899841    1.53999996    2.75000000
   19.57083511  175.19500732    1.51999998    2.75000000
   19.57389069  159.97999573    1.51999998    2.75000000
   19.57722282  189.44200134    1.51999998    2.75000000
   19.58055687  164.80799866    1.51999998    2.75000000
   19.58388901  168.05400085    1.50000000    2.75000000
   19.58416748  177.21699524    1.50000000    2.75000000
   19.58750153  179.96400452    1.51999998    2.75000000
   19.59333420  179.96400452    1.50000000    2.75000000
   19.59749985  184.55099487    1.48000002    2.75000000
   19.60083389  184.87199402    1.48000002    2.75000000
   19.60388947  188.10899353    1.48000002    2.75000000
   19.60722351  178.88000488    1.48000002    2.75000000
   19.61027908  182.10200500    1.48000002    2.76999998
   19.61361122  179.09300232    1.51999998    2.75000000
   19.61694527  211.59500122    1.51999998    2.75000000
   19.61750031  209.00500488    1.51999998    2.75000000
   19.62055588  203.95700073    1.50000000    2.75000000
   19.62388992  209.92199707    1.50000000    2.75000000
   19.62722206  206.80799866    1.50000000    2.75000000
   19.63027763  195.16000366    1.50000000    2.75000000
   19.63611031  195.16000366    1.50000000    2.76999998
   19.64027786  183.41299438    1.50000000    2.75000000
   19.64361191  204.44000244    1.50000000    2.75000000
   19.64666748  187.42100525    1.50000000    2.75000000
   19.64999962  182.36000061    1.50000000    2.75000000
   19.65083313  203.38900757    1.51999998    2.75000000
   19.65361023  192.54499817    1.51999998    2.75000000
   19.65694427  180.55999756    1.51999998    2.75000000
   19.66027832  173.64599609    1.55999994    2.75000000
   19.66333389  192.98100281    1.55999994    2.76999998
   19.66666603  192.60499573    1.53999996    2.75000000
   19.67000008  182.28500366    1.53999996    2.75000000
   19.67305565  182.71800232    1.55999994    2.75000000
   19.67916679  182.71800232    1.51999998    2.75000000
   19.68305397  185.58799744    1.51999998    2.75000000
   19.68416595  205.84700012    1.51999998    2.75000000
   19.68666649  207.09500122    1.53999996    2.75000000
   19.68999863  212.29899597    1.53999996    2.75000000
   19.69333267  194.20100403    1.53999996    2.75000000
   19.69638824  181.72999573    1.55999994    2.75000000
   19.69972038  178.09700012    1.55999994    2.75000000
   19.70277786  218.33999634    1.51999998    2.75000000
   19.70611191  187.81799316    1.51999998    2.75000000
   19.70944595  225.35000610    1.50000000    2.75000000
   19.71250153  197.96299744    1.50000000    2.75000000
   19.71583366  201.35899353    1.51999998    2.75000000
   19.71750069  190.91499329    1.50000000    2.75000000
   19.72277832  190.91499329    1.51999998    2.75000000
   19.72694588  191.96099854    1.51999998    2.75000000
   19.73027802  199.96699524    1.51999998    2.75000000
   19.74222183  221.82200623    0.00000000    0.00000000
   19.74555588  213.14500427    1.53999996    2.75000000
   19.74861145  220.08399963    1.51999998    2.75000000
   19.75194359  224.24200439    1.51999998    2.75000000
   19.75499916  213.00799561    1.51999998    2.75000000
   19.75777817  220.01499939    1.51999998    2.75000000
   19.75888824  221.30200195    1.51999998    2.75000000
   19.76194382  186.95700073    1.51999998    2.75000000
   19.76527786  228.02699280    1.51999998    2.75000000
   19.77694511  228.02699280    1.53999996    2.73000002
   19.78111076  205.66099548    1.53999996    2.75000000
   19.78444481  197.78399658    1.53999996    2.75000000
   19.78750038  203.54200745    1.51999998    2.73000002
   19.79083252  209.62500000    1.51999998    2.73000002
   19.79249954  182.92799377    1.51999998    2.73000002
   19.79444313  204.77400208    1.51999998    2.73000002
   19.79777718  204.75500488    1.53999996    2.73000002
   19.80083275  197.65100098    1.55999994    2.75000000
   19.80999947  208.89999390    1.55999994    2.75000000
   19.81416512  208.89999390    1.61000001    2.73000002
   19.81833458  200.58599854    1.63000000    2.73000002
   19.82139015  204.24800110    1.63000000    2.73000002
   19.82472229  193.66099548    1.63000000    2.73000002
   19.82611275  196.22300720    1.63000000    2.73000002
   19.83777809  197.61099243    0.00000000    0.00000000
   19.84111214  186.24099731    1.64999998    2.71000004
   19.85333443  195.66499329    0.00000000    0.00000000
   19.85666656  198.92599487    1.66999996    2.71000004
   19.85944557  203.91999817    1.66999996    2.73000002
   19.86027908  208.35299683    1.66999996    2.73000002
   19.86527824  208.35299683    1.64999998    2.73000002
   19.87888908  210.04299927    0.00000000    0.00000000
   19.88194466  183.11599731    1.60000002    2.71000004
   19.88527679  191.62199402    1.60000002    2.71000004
   19.88861084  183.06100464    1.60000002    2.73000002
   19.89166641  197.85099792    1.60000002    2.73000002
   19.89444351  185.06700134    1.61000001    2.73000002
   19.89555550  207.06500244    1.61000001    2.73000002
   19.89861107  184.01899719    1.61000001    2.73000002
   19.90194321  170.12500000    1.61000001    2.73000002
   19.90999985  170.12500000    1.60000002    2.71000004
   19.91416550  167.76400757    1.58000004    2.73000002
   19.91749954  182.64100647    1.58000004    2.71000004
   19.92055511  176.86199951    1.58000004    2.73000002
   19.92388916  181.80999756    1.58000004    2.71000004
   19.92749977  185.97700500    1.58000004    2.73000002
   19.92805481  175.06399536    1.58000004    2.73000002
   19.93111038  197.87199402    1.58000004    2.73000002
   19.93444443  189.98800659    1.58000004    2.73000002
   19.93750000  202.25399780    1.58000004    2.73000002
   19.94083214  191.26699829    1.58000004    2.73000002
   19.94388771  195.30299377    1.58000004    2.73000002
   19.94722176  175.05299377    1.58000004    2.73000002
   19.95138931  175.05299377    1.58000004    2.71000004
   19.95555687  204.61300659    1.55999994    2.71000004
   19.95888901  182.88200378    1.58000004    2.71000004
   19.96194458  168.53500366    1.58000004    2.71000004
   19.96305656  201.20599365    1.58000004    2.71000004
   19.96638870  187.49200439    1.58000004    2.73000002
   19.96944427  174.59199524    1.58000004    2.71000004
   19.97305679  195.54200745    1.58000004    2.73000002
   19.97638893  185.04400635    1.58000004    2.71000004
   19.97972298  188.37500000    1.58000004    2.71000004
   19.98277855  188.26400757    1.85000002    2.71000004
   19.98638916  183.62699890    2.01999998    2.71000004
   19.98972321  206.35499573    2.15000010    2.69000006
   19.99416733  206.35499573    1.91999996    2.71000004
   19.99833298  155.35600281    1.73000002    2.71000004
   20.00166702  185.06799316    1.66999996    2.71000004
   20.00472260  185.85200500    1.66999996    2.71000004
   20.00805473  191.67700195    1.66999996    2.71000004
   20.01138878  175.29400635    1.64999998    2.71000004
   20.01444435  182.54100037    1.64999998    2.71000004
   20.01777840  184.17799377    1.64999998    2.71000004
   20.02111053  174.91499329    1.66999996    2.71000004
   20.02416611  199.55200195    1.64999998    2.71000004
   20.02750015  186.88999939    1.64999998    2.71000004
   20.02916718  191.23199463    1.64999998    2.71000004
   20.03111076  195.71600342    1.64999998    2.71000004
   20.03722191  195.71600342    1.66999996    2.71000004
   20.04166603  197.06399536    1.66999996    2.71000004
   20.04500008  179.41600037    1.66999996    2.71000004
   20.04805565  156.66400146    1.66999996    2.69000006
   20.05305481  180.50599670    1.66999996    2.69000006
   20.05611038  170.53900146    1.66999996    2.69000006
   20.05944443  186.32099915    1.66999996    2.69000006
   20.06277657  177.01499939    1.66999996    2.71000004
   20.06333351  186.83200073    1.66999996    2.69000006
   20.06666756  177.10699463    1.66999996    2.71000004
   20.06972313  173.01600647    1.64999998    2.69000006
   20.08222389  157.78999329    0.00000000    0.00000000
   20.08638954  157.78999329    1.64999998    2.69000006
   20.09055710  179.04299927    1.64999998    2.71000004
   20.09361267  180.96000671    1.64999998    2.71000004
   20.09694481  175.12199402    1.64999998    2.71000004
   20.09777832  187.49400330    1.64999998    2.71000004
   20.10055542  167.18200684    1.63000000    2.71000004
   20.10361099  174.28399658    1.64999998    2.69000006
   20.10694504  179.99499512    1.64999998    2.69000006
   20.11027908  171.84800720    1.64999998    2.71000004
   20.11333466  163.26800537    1.66999996    2.71000004
   20.11666679  161.72300720    1.66999996    2.71000004
   20.12000084  145.24400330    1.75000000    2.71000004
   20.12333298  154.82400513    1.75000000    2.71000004
   20.12916756  154.82400513    1.76999998    2.71000004
   20.14222145  156.14900208    0.00000000    0.00000000
   20.14527702  160.76600647    1.98000002    2.69000006
   20.14888954  157.75500488    2.01999998    2.71000004
   20.15194321  166.75900269    2.07999992    2.69000006
   20.16444397  164.46699524    0.00000000    0.00000000
   20.16499901  151.88400269    1.98000002    2.67000008
   20.16805458  144.02200317    1.98000002    2.67000008
   20.18361092  144.02200317    1.96000004    2.69000006
   20.18750000  166.86999512    1.86000001    2.69000006
   20.19083214  165.45700073    1.83000004    2.69000006
   20.19416618  167.77600098    1.83000004    2.69000006
   20.19722176  178.49499512    1.83000004    2.69000006
   20.19916534  161.94000244    1.83000004    2.69000006
   20.20111275  172.90699768    1.83000004    2.69000006
   20.20416832  177.95500183    1.83000004    2.69000006
   20.20750046  158.95799255    1.83000004    2.69000006
   20.21083450  171.02499390    1.88000000    2.69000006
   20.21666718  171.02499390    1.91999996    2.67000008
   20.22333336  163.89500427    1.91999996    2.69000006
   20.22638893  151.47000122    1.91999996    2.69000006
   20.22972298  178.37800598    1.89999998    2.67000008
   20.23277855  164.66700745    1.86000001    2.67000008
   20.23333359  174.67500305    1.88000000    2.67000008
   20.23666763  172.74499512    1.88000000    2.67000008
   20.23999977  172.39399719    1.88000000    2.67000008
   20.24305534  169.52999878    1.89999998    2.67000008
   20.24638939  177.28700256    1.91999996    2.67000008
   20.24972153  167.77200317    1.94000006    2.67000008
   20.25277710  162.64399719    1.96000004    2.67000008
   20.25972176  162.64399719    1.98000002    2.67000008
   20.26388931  156.26400757    1.98000002    2.67000008
   20.26611137  152.12300110    2.00000000    2.67000008
   20.26749992  158.61700439    2.00000000    2.67000008
   20.27055550  167.22200012    2.00000000    2.67000008
   20.27388954  169.65199280    2.01999998    2.66000009
   20.27722168  171.37300110    2.01999998    2.66000009
   20.28055573  152.19400024    2.01999998    2.67000008
   20.28361130  168.04200745    2.00000000    2.66000009
   20.28694344  170.60400391    2.01999998    2.67000008
   20.29027748  170.98300171    2.00000000    2.67000008
   20.29333305  171.11500549    2.01999998    2.67000008
   20.29666710  175.51699829    2.00000000    2.66000009
   20.30249977  175.51699829    1.98000002    2.67000008
   20.30666542  161.78399658    2.00000000    2.67000008
   20.30999947  162.80700684    2.00000000    2.66000009
   20.31305504  160.56199646    2.00000000    2.66000009
   20.31638718  161.96800232    2.01999998    2.66000009
   20.31972313  184.79200745    2.01999998    2.66000009
   20.32277870  168.58299255    2.01999998    2.66000009
   20.32611275  162.75100708    2.03999996    2.66000009
   20.32916832  162.63699341    2.03999996    2.66000009
   20.33250046  172.86799622    2.03999996    2.66000009
   20.33333397  170.49400330    2.03999996    2.66000009
   20.33611107  166.98699951    2.03999996    2.67000008
   20.33972359  164.80000305    2.03999996    2.66000009
   20.34527779  164.80000305    2.03999996    2.66000009
   20.34944534  177.84500122    2.03999996    2.67000008
   20.35277748  178.12300110    2.03999996    2.67000008
   20.35611153  178.87899780    2.03999996    2.66000009
   20.35916710  184.85200500    2.03999996    2.66000009
   20.36250114  188.27999878    2.05999994    2.66000009
   20.36555672  168.29699707    2.05999994    2.66000009
   20.36666679  172.55499268    2.07999992    2.66000009
   20.36944389  166.24099731    2.05999994    2.66000009
   20.37249947  171.75999451    2.07999992    2.66000009
   20.37583351  165.21200562    2.07999992    2.66000009
   20.37916756  166.17500305    2.07999992    2.66000009
   20.38222313  172.99400330    2.09999990    2.66000009
   20.38805580  172.99400330    2.11999989    2.66000009
   20.39222145  161.94599915    2.13000011    2.66000009
   20.40444374  168.92700195    0.00000000    0.00000000
   20.40499878  174.13099670    2.17000008    2.64000010
   20.40777779  166.47799683    2.19000006    2.64000010
   20.41110992  163.10200500    2.19000006    2.66000009
   20.41444397  174.28500366    2.21000004    2.64000010
   20.41749954  167.46299744    2.21000004    2.64000010
   20.42083359  158.00399780    2.23000002    2.64000010
   20.42388916  172.40699768    2.23000002    2.64000010
   20.42722130  164.41200256    2.25000000    2.64000010
   20.43194389  164.41200256    2.26999998    2.64000010
   20.43610954  155.38200378    2.28999996    2.64000010
   20.43833160  162.43699646    2.28999996    2.61999989
   20.43999863  175.87399292    2.28999996    2.64000010
   20.44333267  160.35200500    2.30999994    2.64000010
   20.44638824  169.36000061    2.32999992    2.64000010
   20.45888901  171.16900635    0.00000000    0.00000000
   20.46194458  161.14900208    2.30999994    2.64000010
   20.46527863  160.83999634    2.30999994    2.61999989
   20.46861076  168.80799866    2.30999994    2.61999989
   20.49222183  168.80799866    2.34999990    2.64000010
   20.49638939  157.80299377    2.34999990    2.61999989
   20.49972153  160.36199951    2.34999990    2.61999989
   20.50305557  164.25700378    2.34999990    2.61999989
   20.50611115  167.39399719    2.34999990    2.61999989
   20.50805473  164.64999390    2.34999990    2.61999989
   20.50972176  170.48199463    2.34999990    2.61999989
   20.51305580  165.82000732    2.34999990    2.61999989
   20.52000046  165.82000732    2.34999990    2.61999989
   20.52388954  162.79100037    2.36999989    2.61999989
   20.53666687  175.17900085    0.00000000    0.00000000
   20.53972244  169.25000000    2.36999989    2.61999989
   20.54138756  167.77999878    2.36999989    2.61999989
   20.54333305  166.54499817    2.36999989    2.61999989
   20.54666710  157.22799683    2.36999989    2.61999989
   20.54972076  165.84399414    2.36999989    2.61999989
   20.55360985  165.36799622    2.36999989    2.61999989
   20.57416725  165.36799622    2.40000010    2.61999989
   20.57833481  162.92999268    2.42000008    2.61999989
   20.58166695  154.92599487    2.42000008    2.59999990
   20.58555603  164.43400574    2.42000008    2.59999990
   20.58861160  169.86599731    2.44000006    2.59999990
   20.59194565  161.59800720    2.44000006    2.61999989
   20.59527779  167.25500488    2.48000002    2.59999990
   20.59833336  163.51199341    2.48000002    2.59999990
   20.60166740  164.00999451    2.50000000    2.59999990
   20.60472298  164.38099670    2.50000000    2.59999990
   20.60944557  155.60000610    2.51999998    2.59999990
   20.61000061  173.94299316    2.53999996    2.57999992
   20.61277771  164.63400269    2.51999998    2.57999992
   20.61694527  164.63400269    2.53999996    2.59999990
   20.62111092  165.60699463    2.57999992    2.59999990
   20.62444496  166.30200195    2.57999992    2.59999990
   20.62750053  160.19700623    2.59999990    2.59999990
   20.63083267  141.90699768    2.61999989    2.59999990
   20.63416672  173.02900696    2.61999989    2.59999990
   20.63722229  164.39399719    2.64000010    2.57999992
   20.64055634  157.12300110    2.66000009    2.57999992
   20.64333344  155.19099426    2.67000008    2.57999992
   20.64416695  169.14999390    2.66000009    2.57999992
   20.64749908  154.40899658    2.69000006    2.57999992
   20.65083313  159.67999268    2.69000006    2.57999992
   20.65388870  166.12500000    2.71000004    2.59999990
   20.65972137  166.12500000    2.76999998    2.57999992
   20.66388893  161.22200012    2.76999998    2.57999992
   20.66722107  153.97399902    2.76999998    2.57999992
   20.67027664  168.77900696    2.76999998    2.57999992
   20.67361069  161.41000366    2.78999996    2.59999990
   20.67666626  153.41200256    2.76999998    2.57999992
   20.67749977  162.05599976    2.76999998    2.57999992
   20.68055534  151.39900208    2.76999998    2.57999992
   20.68388748  159.42799377    2.76999998    2.57999992
   20.68722153  147.67199707    2.76999998    2.55999994
   20.69027710  168.95700073    2.76999998    2.55999994
   20.69361115  144.19099426    2.78999996    2.55999994
   20.69666672  150.73399353    2.78999996    2.55999994
   20.70277786  150.73399353    2.78999996    2.55999994
   20.70694542  168.00700378    2.80999994    2.55999994
   20.71000099  148.20700073    2.80999994    2.55999994
   20.71055603  156.20199585    2.80999994    2.55999994
   20.71361160  156.02600098    2.84999990    2.55999994
   20.71694565  160.27400208    2.84999990    2.55999994
   20.72027779  144.17999268    2.86999989    2.55999994
   20.72333336  150.27600098    2.86999989    2.55999994
   20.72666740  155.17100525    2.89000010    2.55999994
   20.72972298  164.39599609    2.91000009    2.55999994
   20.73305511  156.31399536    2.93000007    2.55999994
   20.73638916  147.08200073    2.94000006    2.55999994
   20.73944473  157.23800659    2.96000004    2.55999994
   20.74555588  157.23800659    3.00000000    2.55999994
   20.74972153  154.34800720    3.00000000    2.55999994
   20.75277710  139.78999329    3.00000000    2.53999996
   20.75611115  141.45500183    3.01999998    2.53999996
   20.75916672  150.00199890    3.03999996    2.55999994
   20.76250076  152.89599609    3.05999994    2.53999996
   20.76583290  164.26400757    3.05999994    2.53999996
   20.76888847  135.06399536    3.07999992    2.53999996
   20.77222252  153.42300415    3.07999992    2.53999996
   20.77555466  154.91900635    3.09999990    2.53999996
   20.77666664  147.21499634    3.09999990    2.53999996
   20.77916718  159.78199768    3.09999990    2.55999994
   20.78222275  152.28700256    3.11999989    2.53999996
   20.78833199  152.28700256    3.14000010    2.53999996
   20.79249954  165.83099365    3.14000010    2.53999996
   20.79555511  154.47000122    3.16000009    2.53999996
   20.79888916  148.38600159    3.18000007    2.53999996
   20.80222130  166.91400146    3.18000007    2.53999996
   20.80527687  160.92799377    3.21000004    2.53999996
   20.80861092  142.53900146    3.21000004    2.51999998
   20.80999947  140.98399353    3.21000004    2.51999998
   20.81222153  148.22900391    3.23000002    2.51999998
   20.81527710  154.48699951    3.25000000    2.51999998
   20.81861115  151.72200012    3.26999998    2.51999998
   20.82194519  161.32099915    3.28999996    2.53999996
   20.82500076  158.22599792    3.30999994    2.51999998
   20.83111191  158.22599792    3.34999990    2.51999998
   20.83527756  143.09100342    3.36999989    2.51999998
   20.83861160  147.66499329    3.36999989    2.51999998
   20.84166718  144.34899902    3.39000010    2.51999998
   20.84361267  160.30900574    3.41000009    2.51999998
   20.84555626  150.88400269    3.39000010    2.51999998
   20.84861183  139.43299866    3.41000009    2.51999998
   20.85194397  149.04299927    3.43000007    2.51999998
   20.85499954  141.60000610    3.43000007    2.51999998
   20.85833359  138.35299683    3.45000005    2.51999998
   20.86166763  155.10699463    3.45000005    2.51999998
   20.86472321  140.36000061    3.45000005    2.50000000
   20.86805534  157.47099304    3.45000005    2.51999998
   20.87416649  157.47099304    3.46000004    2.50000000
   20.87805557  148.94099426    3.48000002    2.50000000
   20.88138962  148.55799866    3.48000002    2.50000000
   20.88472176  144.00900269    3.50000000    2.50000000
   20.88777733  142.81399536    3.50000000    2.50000000
   20.89111137  134.34100342    3.51999998    2.50000000
   20.89444351  155.27000427    3.51999998    2.51999998
   20.89749908  141.63400269    3.51999998    2.50000000
   20.90083313  141.15100098    3.53999996    2.50000000
   20.90416718  142.55599976    3.55999994    2.50000000
   20.90722275  143.68099976    3.55999994    2.50000000
   20.91027832  142.52200317    3.57999992    2.48000002
   20.91110992  139.71099854    3.57999992    2.50000000
   20.91694450  139.71099854    3.59999990    2.50000000
   20.92111015  135.18499756    3.59999990    2.50000000
   20.92416573  130.54299927    3.61999989    2.50000000
   20.92749977  146.17599487    3.64000010    2.50000000
   20.93055534  144.64399719    3.64000010    2.50000000
   20.93388748  132.98199463    3.68000007    2.50000000
   20.93722153  141.35200500    3.73000002    2.50000000
   20.94027710  140.97599792    3.75000000    2.48000002
   20.94361115  144.05299377    3.70000005    2.48000002
   20.94416618  147.88699341    3.70000005    2.48000002
   20.94722176  142.57099915    3.68000007    2.48000002
   20.95055580  147.52099609    3.68000007    2.48000002
   20.95388985  146.04200745    3.68000007    2.48000002
   20.95972252  146.04200745    3.73000002    2.46000004
   20.96389008  147.51400757    3.75000000    2.46000004
   20.96694565  146.26899719    3.75000000    2.48000002
   20.97027779  150.95199585    3.75000000    2.48000002
   20.97361183  149.19099426    3.76999998    2.48000002
   20.97666740  138.30999756    3.76999998    2.48000002
   20.97722244  145.60800171    3.78999996    2.48000002
   20.98055649  153.42100525    3.78999996    2.46000004
   20.98388863  147.05099487    3.78999996    2.46000004
   20.98694420  139.89900208    3.80999994    2.46000004
   20.99027824  133.21600342    3.80999994    2.46000004
   20.99333382  137.87600708    3.82999992    2.46000004
   20.99666786  133.72900391    3.86999989    2.46000004
   21.00250053  133.72900391    3.93000007    2.46000004
   21.00666618  143.73800659    4.09999990    2.46000004
   21.01000023  141.41099548    4.23999977    2.46000004
   21.01055527  148.06799316    4.23999977    2.46000004
   21.01361084  136.58799744    4.32999992    2.46000004
   21.01694489  145.35499573    4.38999987    2.44000006
   21.02000046  144.88699341    4.44999981    2.46000004
   21.02333260  133.76499939    4.38999987    2.46000004
   21.02638817  133.53900146    4.38999987    2.46000004
   21.02972221  142.42399597    4.42999983    2.46000004
   21.03305435  139.33200073    4.34999990    2.46000004
   21.03610992  138.12199402    4.34999990    2.44000006
   21.03944397  135.00300598    4.32999992    2.46000004
   21.04527664  135.00300598    4.36999989    2.44000006
   21.04944420  137.83999634    4.44999981    2.44000006
   21.05277634  137.69599915    4.48999977    2.44000006
   21.05611038  137.85400391    4.55999994    2.44000006
   21.05916595  138.77699280    4.76000023    2.39000010
   21.06250000  134.10800171    4.90999985    2.42000008
   21.06555557  144.40699768    4.90999985    2.42000008
   21.06888962  143.03199768    4.90999985    2.40000010
   21.07222366  136.84599304    4.90999985    2.40000010
   21.07527924  141.39500427    4.90999985    2.40000010
   21.07722282  138.62399292    4.90999985    2.40000010
   21.07888985  140.21099854    4.90999985    2.40000010
   21.08222389  149.46600342    4.90999985    2.40000010
   21.08833313  149.46600342    4.90999985    2.39000010
   21.09250069  139.44900513    4.90999985    2.39000010
   21.09555626  148.64199829    4.90999985    2.36999989
   21.09889030  151.03199768    4.90999985    2.36999989
   21.10222244  158.67700195    4.90999985    2.36999989
   21.10527802  147.34599304    4.90999985    2.36999989
   21.10861206  178.15199280    4.90999985    2.36999989
   21.11055565  159.06199646    4.90999985    2.39000010
   21.11222267  216.39599609    4.90999985    2.36999989
   21.11555672  223.53199768    4.90999985    2.36999989
   21.11861038  209.29299927    4.90999985    2.36999989
   21.12194443   -1.00000000    4.90999985    2.36999989
   21.12500000   -1.00000000    4.90999985    2.36999989
   21.13527679   -1.00000000    4.90999985    2.36999989
   21.13833237   -1.00000000    4.90999985    2.36999989
   21.14166641   -1.00000000    4.90999985    2.36999989
   21.14527702   -1.00000000    4.90999985    2.36999989
   21.14833260   -1.00000000    4.90999985    2.36999989
   21.15166664   -1.00000000    4.90999985    2.36999989
   21.15499878   -1.00000000    4.90999985    2.36999989
   21.15805435   -1.00000000    4.90999985    2.36999989
   21.16138840   -1.00000000    4.90999985    2.36999989
   21.16444397   -1.00000000    4.90999985    2.36999989
   21.16777802   -1.00000000    4.90999985    2.34999990
   21.17805481   -1.00000000    4.90999985    2.34999990
   21.18111038   -1.00000000    4.90999985    2.36999989
   21.18444443   -1.00000000    4.90999985    2.34999990
   21.18777657   -1.00000000    4.90999985    2.34999990
   21.19083214   -1.00000000    4.90999985    2.34999990
   21.19416618   -1.00000000    4.90999985    2.34999990
   21.19749832   -1.00000000    4.90999985    2.36999989
   21.20055580   -1.00000000    4.90999985    2.34999990
   21.20388985   -1.00000000    4.90999985    2.34999990
   21.20694542   -1.00000000    4.90999985    2.34999990
   21.21027946   -1.00000000    4.90999985    2.36999989
   21.22083473   -1.00000000    4.90999985    2.34999990
