    HOUR (UT)   FLARE FACTOR    SKY TESTER    SUN TESTER
   11.14638901   -1.00000000   -1.00000000   -1.00000000
   11.17472267  170.08500671    4.90999985    2.00000000
   11.17777824  168.00999451    4.90999985    1.98000002
   11.18111134  181.48800659    4.90999985    1.98000002
   11.18444443  157.76300049    4.90999985    1.75000000
   11.18750000  160.81799316    4.90999985    1.98000002
   11.19083309  161.40600586    4.90999985    1.98000002
   11.19499969  161.40600586    4.90999985    1.86000001
   11.19916630  163.92399597    4.90999985    1.96000004
   11.20222187  153.04499817    4.90999985    2.09999990
   11.20555496  162.69099426    4.90999985    2.07999992
   11.20749950  147.31700134    4.90999985    2.03999996
   11.20916653  154.95199585    4.90999985    2.00000000
   11.21249962  162.27400208    4.90999985    2.11999989
   11.21555519  149.99499512    4.90999985    2.09999990
   11.21888828  151.21600342    4.90999985    2.09999990
   11.22222137  152.76600647    4.90999985    2.09999990
   11.22527695  153.89300537    4.90999985    2.11999989
   11.22861099  205.36599731    4.90999985    1.91999996
   11.23166656  145.53599548    4.90999985    0.80000001
   11.23777771  145.53599548    4.90999985    2.07999992
   11.24194431  156.13600159    4.90999985    2.13000011
   11.24499989  156.31599426    4.90999985    2.15000010
   11.24861145  155.69400024    4.90999985    2.17000008
   11.25166702  157.67300415    4.90999985    2.15000010
   11.25500011  152.55000305    4.88999987    2.15000010
   11.25805569  146.96600342    4.15999985    2.17000008
   11.26138878  154.45799255    3.28999996    2.15000010
   11.26472187  151.14999390    2.98000002    2.15000010
   11.26777744  156.15199280    2.44000006    2.15000010
   11.27111053  155.09399414    2.15000010    2.15000010
   11.27416611  154.45300293    2.21000004    2.15000010
   11.27472210  144.36799622    2.32999992    2.15000010
   11.28055573  144.36799622    3.20000005    2.15000010
   11.28472233  147.08299255    1.98000002    2.15000010
   11.28805637  153.32099915    1.60000002    2.17000008
   11.29111195  160.49299622    1.60000002    2.17000008
   11.29444504  153.28599548    1.89999998    2.17000008
   11.29777813  155.32000732    2.61999989    2.17000008
   11.30083370  148.50700378    2.61999989    2.17000008
   11.30416679  152.06700134    3.73000002    2.19000006
   11.30722237  154.56500244    2.25000000    2.19000006
   11.30777836  158.25599670    1.94000006    2.19000006
   11.31111145  148.64599609    1.34000003    2.19000006
   11.31416702  146.46099854    1.26999998    2.19000006
   11.31750011  151.30200195    1.39999998    2.19000006
   11.32333374  151.30200195    1.83000004    2.21000004
   11.32750034  146.01100159    1.75000000    2.19000006
   11.33083344  145.52900696    1.61000001    2.21000004
   11.33416653  144.73100281    1.73000002    2.21000004
   11.33722210  147.18499756    2.84999990    2.21000004
   11.34055519  153.68099976    3.25000000    2.21000004
   11.34111118  152.42300415    4.03999996    2.21000004
   11.34416676  143.90699768    4.90999985    2.21000004
   11.34749985  149.40899658    4.90999985    2.23000002
   11.35055637  148.82899475    4.90999985    2.23000002
   11.35388947  154.21800232    4.90999985    2.25000000
   11.35694504  181.62100220    4.90999985    2.23000002
   11.36027813  178.86099243    4.90999985    2.13000011
   11.36638927  178.86099243    4.90999985    2.05999994
   11.37055588  197.11199951    4.90999985    2.01999998
   11.37361145  221.71899414    4.90999985    2.01999998
   11.37444496  217.53900146    4.90999985    1.98000002
   11.37722206  161.98100281    4.90999985    1.88000000
   11.38055611  168.72000122    4.90999985    2.15000010
   11.38361073  154.91000366    4.90999985    2.19000006
   11.38694477  151.07400513    4.90999985    2.23000002
   11.39000034  150.27499390    4.90999985    2.25000000
   11.39333344  154.24699402    4.90999985    2.25000000
   11.39666653  149.60099792    4.67999983    2.25000000
   11.39972210  146.45100403    4.30999994    2.26999998
   11.40305519  146.32600403    3.97000003    2.26999998
   11.40916634  146.32600403    4.40999985    2.26999998
   11.41333294  150.64799500    4.90999985    2.26999998
   11.41666698  145.99400330    4.90999985    2.26999998
   11.41972256  142.07000732    4.90999985    2.28999996
   11.42305565  147.84800720    4.90999985    2.28999996
   11.42611122  148.78799438    4.90999985    2.30999994
   11.42944431  174.26100159    4.90999985    2.25000000
   11.43277836  138.55700684    4.90999985    1.83000004
   11.43583298   -1.00000000    4.90999985    1.55999994
   11.43916702  260.89999390    4.90999985    1.46000004
   11.44111156  207.61199951    4.90999985    1.69000006
   11.44277763  227.01300049    4.90999985    1.73000002
   11.44611073  181.93800354    4.90999985    2.01999998
   11.45194435  181.93800354    4.90999985    2.13000011
   11.45611095  149.69400024    4.90999985    1.83000004
   11.45944405   -1.00000000    4.90999985    1.51999998
   11.46249962  230.53500366    4.90999985    1.44000006
   11.46583271  207.99800110    4.90999985    1.86000001
   11.46916580  165.95300293    4.90999985    1.98000002
   11.47222137  112.52100372    4.90999985    1.55999994
   11.47444439  160.59100342    4.90999985    1.55999994
   11.47583294  152.22599792    4.90999985    1.63000000
   11.47916603   -1.00000000    4.90999985    1.63000000
   11.48222160   -1.00000000    4.90999985    1.36000001
   11.48555565   -1.00000000    4.90999985    1.03999996
   11.48861122   -1.00000000    4.90999985    0.94000000
   11.49888897   -1.00000000    4.90999985    1.01999998
   11.50222206   -1.00000000    4.90999985    0.86000001
   11.50527763   -1.00000000    4.90999985    0.70999998
   11.50888920   -1.00000000    4.90999985    0.63000000
   11.51194477   -1.00000000    4.90999985    0.58999997
   11.51527786   -1.00000000    4.90999985    0.47999999
   11.51861095   -1.00000000    4.90999985    0.41999999
   11.52166653   -1.00000000    4.90999985    0.31999999
   11.52499962   -1.00000000    4.90999985    0.25000000
   11.52805519   -1.00000000    4.90999985    0.19000000
   11.53138828   -1.00000000    4.90999985    0.20999999
   11.54166698   -1.00000000    4.90999985    0.38000000
   11.54500008   -1.00000000    4.90999985    0.30000001
   11.54833412   -1.00000000    4.90999985    0.23000000
   11.55138874   -1.00000000    4.90999985    0.25999999
   11.55472279   -1.00000000    4.90999985    0.31999999
   11.55805588   -1.00000000    4.90999985    0.28000000
   11.56111145   -1.00000000    4.90999985    0.20999999
   11.56444454   -1.00000000    4.90999985    0.17000000
   11.56750011   -1.00000000    4.90999985    0.17000000
   11.57083321   -1.00000000    4.90999985    0.15000001
   11.57416630   -1.00000000    4.90999985    0.15000001
   11.58472157   -1.00000000    4.90999985    0.09000000
   11.58777714   -1.00000000    4.90999985    0.11000000
   11.59111118   -1.00000000    4.90999985    0.15000001
   11.59444427   -1.00000000    4.90999985    0.44000000
   11.59749985   -1.00000000    4.90999985    0.41999999
   11.60083389   -1.00000000    4.90999985    0.64999998
   11.60388947   -1.00000000    4.90999985    0.98000002
   11.60722256   -1.00000000    4.90999985    1.25000000
   11.60805607   72.36609650    4.90999985    1.30999994
   11.61083412  218.46000671    4.90999985    1.39999998
   11.61416721  277.45098877    4.90999985    1.78999996
   11.61750031  235.24000549    4.90999985    1.85000002
   11.62333393  235.24000549    4.90999985    2.05999994
   11.62750053  251.43099976    4.90999985    2.00000000
   11.63083363  206.16999817    4.90999985    1.89999998
   11.63388920  187.37899780    4.90999985    2.00000000
   11.63722229  177.50500488    4.90999985    2.07999992
   11.64055538  156.86599731    4.90999985    2.13000011
   11.64111137  164.66000366    4.90999985    2.17000008
   11.64388847  161.93499756    4.90999985    2.15000010
   11.64722252  150.75799561    4.90999985    2.21000004
   11.65027714  156.98699951    4.90999985    2.25000000
   11.65361118  154.49699402    4.90999985    2.23000002
   11.65694427  152.08799744    4.90999985    2.23000002
   11.65999985  171.85200500    4.90999985    2.19000006
   11.66611099  171.85200500    4.90999985    2.17000008
   11.67027855  188.60200500    4.90999985    2.11999989
   11.67361164  169.40199280    4.90999985    2.00000000
   11.67444515  188.02699280    4.90999985    2.05999994
   11.67722225  248.56399536    4.90999985    2.05999994
   11.68055630  278.86401367    4.90999985    1.83000004
   11.68361092  292.62799072    4.90999985    1.89999998
   11.68694496  162.98300171    4.90999985    1.88000000
   11.69027805  242.50500488    4.90999985    1.75000000
   11.69333363   -1.00000000    4.90999985    1.48000002
   11.69666672  118.61599731    4.90999985    1.50000000
   11.69972229  171.31700134    4.90999985    1.53999996
   11.70305538   59.35850143    4.90999985    1.80999994
   11.71305561   -1.00000000    4.90999985    1.50000000
   11.71638870   -1.00000000    4.90999985    1.30999994
   11.71972179  234.09300232    4.90999985    1.61000001
   11.72277737  232.61399841    4.90999985    1.89999998
   11.72611046  188.02099609    4.90999985    1.85000002
   11.72944355  143.97300720    4.90999985    2.28999996
   11.73249912  147.84700012    4.90999985    2.40000010
   11.73583317  141.46499634    4.90999985    2.39000010
   11.73888874  143.33000183    4.90999985    2.40000010
   11.74111176  140.05700684    4.90999985    2.39000010
   11.74250031  148.33999634    4.90999985    2.36999989
   11.74583340  139.40499878    4.90999985    2.36999989
   11.75194454  139.40499878    4.90999985    2.34999990
   11.75611115  153.56300354    4.90999985    2.26999998
   11.75916672  152.97300720    4.90999985    2.15000010
   11.76249981  145.67599487    4.90999985    2.25000000
   11.76583290  153.73599243    4.90999985    2.28999996
   11.76916599  145.41000366    4.90999985    2.30999994
   11.77222157  140.66700745    4.90999985    2.36999989
   11.77472210  171.46099854    4.90999985    2.26999998
   11.77583313  155.67799377    4.90999985    2.21000004
   11.77916622  156.34199524    4.90999985    2.19000006
   11.78222179  155.11099243    4.90999985    2.25000000
   11.78555584  155.58900452    4.90999985    2.28999996
   11.78888893  162.32299805    4.90999985    2.32999992
   11.79472256  162.32299805    4.90999985    2.25000000
   11.79888916  152.51800537    4.90999985    2.32999992
   11.80222225  150.39199829    4.90999985    2.30999994
   11.80527782  150.99800110    4.90999985    2.30999994
   11.80777836  148.26300049    4.90999985    2.36999989
   11.80888939  147.03199768    4.90999985    2.36999989
   11.81222248  154.44500732    4.90999985    2.40000010
   11.81527805  156.74499512    4.90999985    2.39000010
   11.81861115  159.36700439    4.90999985    2.30999994
   11.82194424  152.96299744    4.90999985    2.36999989
   11.82499981  164.51400757    4.90999985    2.28999996
   11.82833290  197.94599915    4.90999985    2.13000011
   11.83166695  205.53199768    4.90999985    2.15000010
   11.83749962  205.53199768    4.90999985    2.00000000
   11.84166622  166.25199890    4.90999985    1.98000002
   11.84499931  164.77200317    4.90999985    2.07999992
   11.84805489  212.29499817    4.90999985    2.11999989
   11.85138893  226.18299866    4.90999985    1.91999996
   11.85472298  178.77600098    4.90999985    2.00000000
   11.85777855  178.15199280    4.90999985    2.17000008
   11.86111164  156.38000488    4.90999985    2.21000004
   11.86416721  180.68699646    4.90999985    2.17000008
   11.86750031  177.76199341    4.90999985    2.01999998
   11.87083340  170.08500671    4.90999985    2.09999990
   11.87388897  153.17500305    4.90999985    2.21000004
   11.87472248  155.34599304    4.90999985    2.21000004
   11.88055611  155.34599304    4.90999985    2.21000004
   11.88472176  142.58000183    4.90999985    2.19000006
   11.88777733  153.48100281    4.90999985    2.28999996
   11.89111137  141.25599670    4.90999985    2.30999994
   11.89416695  142.33299255    4.90999985    2.26999998
   11.89750004  145.22799683    4.90999985    2.32999992
   11.90083313  148.75199890    4.90999985    2.32999992
   11.90388870  152.23500061    4.90999985    2.28999996
   11.90722179  144.58999634    4.90999985    2.36999989
   11.90805531  144.17500305    4.90999985    2.39000010
   11.91083336  147.60299683    4.90999985    2.34999990
   11.91416645  145.11999512    4.90999985    2.39000010
   11.91722298  143.81799316    4.90999985    2.39000010
   11.92333412  143.81799316    4.90999985    2.39000010
   11.92750072  139.54800415    4.90999985    2.42000008
   11.93055630  136.58399963    4.90999985    2.36999989
   11.93388939  142.30200195    4.90999985    2.36999989
   11.93722248  135.56399536    4.90999985    2.40000010
   11.94027805  140.39700317    4.90999985    2.42000008
   11.94138908  124.59500122    4.82999992    2.40000010
   11.94388866  133.63699341    4.63999987    2.44000006
   11.94722271  136.88699341    4.61999989    2.39000010
   11.95027733  130.51899719    4.86999989    2.44000006
   11.95361137  137.72099304    4.90999985    2.42000008
   11.95694447  139.49600220    4.90999985    2.42000008
   11.96000004  132.14199829    4.90999985    2.40000010
   11.96611118  132.14199829    4.90999985    2.32999992
   11.97027779  165.14700317    4.90999985    2.30999994
   11.97361088  140.95899963    4.90999985    2.23000002
   11.97472191  141.98599243    4.90999985    2.30999994
   11.97694397  129.94099426    4.90999985    2.34999990
   11.98027706  129.89999390    4.90999985    2.39000010
   11.98333359  125.50800323    4.90999985    2.46000004
   11.98666668  148.78599548    4.53999996    2.40000010
   11.99000072  127.15200043    4.82999992    2.40000010
   11.99305534  141.31700134    4.82999992    2.46000004
   11.99638939  125.82599640    3.99000001    2.42000008
   11.99972248  137.19500732    3.48000002    2.44000006
   12.00277805  135.79100037    3.23000002    2.46000004
   12.00888920  135.79100037    3.75000000    2.46000004
   12.01305580  133.34899902    4.90999985    2.42000008
   12.01638889  136.42300415    4.90999985    2.46000004
   12.01944447  140.75500488    4.90999985    2.36999989
   12.02277756  139.60000610    4.90999985    2.46000004
   12.02611065  139.80900574    4.90999985    2.23000002
   12.02916622  129.60200500    4.90999985    2.32999992
   12.03249931  126.63300323    4.90999985    2.46000004
   12.03555584  129.26800537    4.90999985    2.39000010
   12.03888893  147.79299927    4.90999985    2.28999996
   12.04138947  130.98800659    4.90999985    2.34999990
   12.04250050  126.91699982    4.90999985    2.46000004
   12.04583359  137.12399292    4.90999985    2.44000006
   12.05194473  137.12399292    4.90999985    2.48000002
   12.05583382  140.59199524    4.90999985    2.42000008
   12.05916691  137.48300171    4.90999985    2.40000010
   12.06250000  148.63099670    4.90999985    2.42000008
   12.06555557  143.66099548    4.90999985    2.25000000
   12.06888866  158.33500671    4.90999985    2.25000000
   12.07194424  142.56799316    4.90999985    2.25000000
   12.07472229  139.04299927    4.90999985    2.32999992
   12.07555580  145.23500061    4.90999985    2.32999992
   12.07888889  140.22300720    4.90999985    2.36999989
   12.08194447  145.33799744    4.90999985    2.21000004
   12.08527756  194.65600586    4.90999985    2.09999990
   12.08861065  144.19299316    4.90999985    2.21000004
   12.09472179  144.19299316    4.90999985    2.17000008
   12.09888840  150.21299744    4.90999985    2.13000011
   12.10222244  161.32600403    4.90999985    2.21000004
   12.10527802  139.39399719    4.90999985    2.25000000
   12.10805607  155.07600403    4.90999985    2.34999990
   12.10888958  163.20500183    4.90999985    2.28999996
   12.11222267  164.87600708    4.90999985    2.17000008
   12.11527824  153.27499390    4.90999985    2.17000008
   12.11861134  148.47500610    4.90999985    2.36999989
   12.12194443  140.75599670    4.90999985    2.30999994
   12.12500000  131.11000061    4.90999985    2.39000010
   12.12833309  148.00999451    4.90999985    2.44000006
   12.13166714  146.38800049    4.90999985    2.25000000
   12.13749981  146.38800049    4.90999985    2.42000008
   12.14166641  123.82299805    4.90999985    2.28999996
   12.14472198  149.79499817    4.90999985    2.36999989
   12.14805508  124.72100067    4.90999985    2.46000004
   12.15138817  138.77999878    4.90999985    2.25000000
   12.15444374  151.31300354    4.90999985    2.48000002
   12.15777779  182.02600098    4.90999985    2.15000010
   12.16111088  140.21600342    4.90999985    2.42000008
   12.16416645  141.54100037    4.90999985    2.32999992
   12.16750050  257.95800781    4.90999985    2.28999996
   12.17055607   -1.00000000    4.90999985    1.63000000
   12.17388916  256.62799072    4.90999985    1.26999998
   12.17472267  232.03500366    4.90999985    1.33000004
   12.19944477   -1.00000000    4.90999985    0.55000001
   12.20249939   -1.00000000    4.90999985    1.53999996
   12.20583344   -1.00000000    4.90999985    1.16999996
   12.20805550   65.64559937    4.90999985    1.19000006
   12.20944405   -1.00000000    4.90999985    1.13000000
   12.21277714   -1.00000000    4.90999985    0.75000000
   12.21611118   -1.00000000    4.90999985    0.36000001
   12.21916580   -1.00000000    4.90999985    0.41999999
   12.22249985   -1.00000000    4.90999985    0.61000001
   12.22555542   -1.00000000    4.90999985    0.81999999
   12.22888851   -1.00000000    4.90999985    0.58999997
   12.23222160   -1.00000000    4.90999985    0.44000000
   12.24222279   -1.00000000    4.90999985    0.09000000
   12.24527836   -1.00000000    4.90999985    0.09000000
   12.24861145   -1.00000000    4.90999985    0.11000000
   12.25194454   -1.00000000    4.90999985    0.15000001
   12.25500011   -1.00000000    4.90999985    0.15000001
   12.25833321   -1.00000000    4.90999985    0.15000001
   12.26138878   -1.00000000    4.90999985    0.15000001
   12.26472187   -1.00000000    4.90999985    0.13000000
   12.26805496   -1.00000000    4.90999985    0.15000001
   12.27111053   -1.00000000    4.90999985    0.17000000
   12.27444458   -1.00000000    4.90999985    0.20999999
   12.28083324   -1.00000000    4.90999985    0.73000002
   12.28500080   -1.00000000    4.90999985    1.00000000
   12.28833389  213.87300110    4.90999985    1.16999996
   12.29138947  175.15199280    4.90999985    2.53999996
   12.29472256   -1.00000000    4.90999985    1.91999996
   12.29805565   -1.00000000    4.90999985    0.81999999
   12.30111122   -1.00000000    4.90999985    0.47999999
   12.30444431   -1.00000000    4.90999985    0.50000000
   12.30749989   -1.00000000    4.90999985    0.38000000
   12.31111145   86.07910156    4.90999985    0.75000000
   12.31444454   -1.00000000    4.90999985    1.53999996
   12.31750011   -1.00000000    4.90999985    0.92000002
   12.32777786   -1.00000000    4.90999985    0.69000000
   12.33111095  248.35800171    4.90999985    1.25000000
   12.33416653   -1.00000000    4.90999985    1.94000006
   12.33749962  107.87000275    4.90999985    1.25000000
   12.34083271   -1.00000000    4.90999985    1.09000003
   12.34416676  240.18499756    4.90999985    1.03999996
   12.34749985   -1.00000000    4.90999985    1.44000006
   12.35055637  158.06199646    4.90999985    0.88000000
   12.35388947  291.33898926    4.90999985    1.58000004
   12.35722256   67.10389709    4.90999985    2.09999990
   12.36027813  183.95500183    4.90999985    1.80999994
   12.36666679  183.95500183    4.90999985    2.03999996
   12.37083340   -1.00000000    4.90999985    1.69000006
   12.37388897  257.56100464    4.90999985    1.33000004
   12.37750053   -1.00000000    4.90999985    0.63000000
   12.38083363  174.78700256    4.90999985    0.76999998
   12.38388920   -1.00000000    4.90999985    1.51999998
   12.38722229   -1.00000000    4.90999985    0.69000000
   12.39055538  117.68699646    4.90999985    0.61000001
   12.39361095   98.71739960    4.90999985    1.53999996
   12.39694405  127.76200104    4.90999985    1.63000000
   12.40027714  151.86799622    4.90999985    1.46000004
   12.40333271  135.28799438    4.90999985    1.61000001
   12.41361046  123.93299866    4.90999985    2.13000011
   12.41666698  132.49299622    4.90999985    2.64000010
   12.42000008  130.67999268    4.90999985    2.64000010
   12.42333412  130.17900085    4.90999985    2.55999994
   12.42638874  129.80200195    4.90999985    2.30999994
   12.42972279  129.27999878    4.90999985    2.59999990
   12.43277836  125.73300171    2.19000006    2.57999992
   12.43611145  130.03799438    2.13000011    2.57999992
   12.43944454  129.62300110    2.21000004    2.57999992
   12.44166660  130.42900085    2.34999990    2.55999994
   12.44277763  125.89399719    2.36999989    2.55999994
   12.44611073  127.97799683    2.66000009    2.57999992
   12.45222187  127.97799683    2.89000010    2.53999996
   12.45638847  122.18199921    2.55999994    2.53999996
   12.45972157  122.56600189    2.21000004    2.55999994
   12.46277714  126.44400024    2.03999996    2.55999994
   12.46611118  125.96299744    2.17000008    2.55999994
   12.46944427  127.89199829    2.36999989    2.53999996
   12.47249985  129.95599365    2.51999998    2.51999998
   12.47499943  126.16999817    2.36999989    2.51999998
   12.47611046  135.81100464    2.25000000    2.53999996
   12.47944355  126.44999695    1.98000002    2.55999994
   12.48277760  120.55200195    1.88000000    2.55999994
   12.48583317  127.70800018    1.88000000    2.55999994
   12.48916721  129.56900024    1.69000006    2.55999994
   12.49499989  129.56900024    1.60000002    2.57999992
   12.49916649  127.51100159    1.60000002    2.57999992
   12.50249958  117.86799622    4.90999985    2.59999990
   12.50583363  123.16000366    4.90999985    1.73000002
   12.50833321  124.28199768    4.90999985    2.55999994
   12.50916672  137.66700745    4.90999985    2.55999994
   12.51249981  127.76699829    4.90999985    2.53999996
   12.51583290  124.63099670    4.76000023    2.51999998
   12.51888847  127.48799896    3.82999992    2.46000004
   12.52222157  130.36000061    3.95000005    2.50000000
   12.52555561  129.39599609    4.65999985    2.50000000
   12.52861118  130.77699280    4.88999987    2.46000004
   12.53194427  135.17199707    4.88999987    2.48000002
   12.53805637  135.17199707    4.73999977    2.51999998
   12.54222298  130.93299866    4.32999992    2.53999996
   12.54527855  136.78500366    4.19999981    2.53999996
   12.54861164  121.39800262    3.91000009    2.51999998
   12.55166721  126.79199982    4.53000021    2.53999996
   12.55500031  127.84999847    4.90999985    2.53999996
   12.55833340  129.49099731    4.05999994    2.53999996
   12.56138897  130.42100525    3.53999996    2.51999998
   12.56472206  123.67299652    3.20000005    2.55999994
   12.56805515  122.24800110    2.94000006    2.53999996
   12.57111073  122.09700012    2.86999989    2.53999996
   12.57444477  124.16699982    3.57999992    2.55999994
   12.57499981  125.80300140    3.57999992    2.55999994
   12.58083344  125.80300140    4.26999998    2.55999994
   12.58500004  126.44200134    4.30999994    2.53999996
   12.58805561  123.40000153    2.94000006    2.55999994
   12.59138870  121.50900269    3.05999994    2.55999994
   12.59472179  117.99400330    3.05999994    2.57999992
   12.59777737  127.96499634    3.70000005    2.55999994
   12.60111141  122.78700256    3.39000010    2.57999992
   12.60444450  123.22599792    2.39000010    2.59999990
   12.60750008  120.46299744    3.18000007    2.61999989
   12.60833359  126.98899841    3.18000007    2.61999989
   12.61111164  123.39099884    3.86999989    2.64000010
   12.61416721  119.40000153    3.89000010    2.64000010
   12.61750031  132.23699951    2.28999996    2.59999990
   12.62361145  132.23699951    4.82999992    2.64000010
   12.62777805  126.70999908    1.16999996    2.66000009
   12.63111115  124.80599976    1.55999994    2.64000010
   12.63416672  123.80300140    4.90999985    2.66000009
   12.63749981  119.03800201    4.90999985    2.66000009
   12.64083290  115.82199860    0.81999999    2.64000010
   12.64166641  120.95200348    0.67000002    2.61999989
   12.64444447  121.90399933    0.64999998    2.61999989
   12.64750004  115.01499939    0.61000001    2.61999989
   12.65083313  120.44799805    0.56999999    2.61999989
   12.65416622  119.70200348    0.52999997    2.64000010
   12.65722179  122.53299713    0.52999997    2.64000010
   12.66055489  114.15599823    0.46000001    2.61999989
   12.66638851  114.15599823    0.51999998    2.61999989
   12.67055607  117.16600037    0.52999997    2.61999989
   12.67388916  122.30500031    0.52999997    2.61999989
   12.67500019  117.57199860    0.52999997    2.61999989
   12.67750072  120.72200012    0.52999997    2.61999989
   12.68055630  123.38300323    0.55000001    2.61999989
   12.68388939  121.61699677    0.80000001    2.61999989
   12.68722248  120.66200256    0.80000001    2.61999989
   12.69027805  120.94899750    0.80000001    2.61999989
   12.69361115  126.66300201    0.73000002    2.64000010
   12.69694424  125.11799622    1.11000001    2.59999990
   12.69999981  123.74500275    1.71000004    2.57999992
   12.70333290  124.97899628    1.66999996    2.57999992
   12.70944405  124.97899628    1.03999996    2.61999989
   12.71333313  120.61199951    0.94000000    2.61999989
   12.71666622  114.20200348    0.67000002    2.61999989
   12.71999931  120.15200043    0.63000000    2.61999989
   12.72305489  121.92199707    0.63000000    2.61999989
   12.72638798  119.73999786    0.47999999    2.64000010
   12.72972202  122.27500153    0.46000001    2.61999989
   12.73277760  116.09300232    0.58999997    2.66000009
   12.73611164  116.77400208    0.94000000    2.66000009
   12.73916721  114.04000092    3.39000010    2.67000008
   12.74166679  122.47899628    4.90999985    2.69000006
   12.74305534  109.71800232    4.90999985    2.73000002
   12.74611092  114.37899780    4.90999985    2.76999998
   12.75222206  114.37899780    4.90999985    2.61999989
   12.75638866  283.51901245    4.90999985    1.53999996
   12.75944424  114.77500153    4.90999985    1.50000000
   12.76277733  123.16500092    4.46999979    2.61999989
   12.76611137  121.12100220    3.76999998    2.64000010
   12.76916599  114.18399811    3.30999994    2.61999989
   12.77250004  114.28700256    0.41999999    2.53999996
   12.77499962  115.73899841    0.67000002    2.64000010
   12.77611065  118.73899841    0.52999997    2.64000010
   12.77916622  114.61699677    0.44000000    2.64000010
   12.78249931  120.97000122    0.41999999    2.64000010
   12.78583336  116.25099945    2.44000006    2.66000009
   12.78888893  120.58200073    0.61000001    2.64000010
   12.79500008  120.58200073    0.40000001    2.66000009
   12.79916668  117.51999664    0.40000001    2.64000010
   12.80249977  120.35700226    0.40000001    2.64000010
   12.80555534  116.78399658    0.40000001    2.64000010
   12.80833340  118.24900055    0.38000000    2.66000009
   12.80944443  116.41100311    0.38000000    2.66000009
   12.81250000  122.32199860    0.40000001    2.64000010
   12.81583309  112.50499725    0.38000000    2.66000009
   12.81916618  120.75000000    0.38000000    2.64000010
   12.82222176  115.29100037    0.38000000    2.64000010
   12.82555580  115.85600281    0.38000000    2.64000010
   12.82888889  120.25700378    0.38000000    2.64000010
   12.83194447  120.24900055    0.38000000    2.64000010
   12.83805561  120.24900055    0.38000000    2.64000010
   12.84194374  121.87400055    0.38000000    2.66000009
   12.84527779  117.71600342    0.41999999    2.66000009
   12.84861088  116.26200104    0.46000001    2.64000010
   12.85166740  120.08499908    0.38000000    2.64000010
   12.85500050  115.40599823    0.40000001    2.64000010
   12.85805607  116.74700165    0.40000001    2.66000009
   12.86138916  118.40499878    0.40000001    2.66000009
   12.86472225  111.31300354    0.40000001    2.64000010
   12.86777782  115.35099792    0.40000001    2.64000010
   12.87111092  118.21600342    0.38000000    2.64000010
   12.87444496  118.80200195    0.40000001    2.66000009
   12.87500000  108.71900177    0.40000001    2.66000009
   12.88083363  108.71900177    0.41999999    2.66000009
   12.88500023  116.58000183    0.40000001    2.66000009
   12.88805580  117.67900085    0.40000001    2.66000009
   12.89138889  122.48600006    0.40000001    2.66000009
   12.89444447  118.77500153    0.40000001    2.66000009
   12.89777756  114.96399689    0.40000001    2.66000009
   12.90111065  112.61000061    0.44000000    2.66000009
   12.90416622  114.66600037    1.07000005    2.64000010
   12.90749931  117.01399994    0.50000000    2.66000009
   12.90833282  114.64600372    0.50000000    2.66000009
   12.91111088  120.60600281    0.50000000    2.66000009
   12.91444397  114.68299866    0.40000001    2.64000010
   12.91750050  120.50000000    0.40000001    2.64000010
   12.92361164  120.50000000    0.40000001    2.64000010
   12.92777824  113.70500183    0.40000001    2.66000009
   12.93083382  119.06199646    0.40000001    2.66000009
   12.93416691  118.52400208    0.40000001    2.66000009
   12.93750000  121.88800049    0.40000001    2.64000010
   12.94055557  119.36399841    0.40000001    2.66000009
   12.94166660  119.87999725    0.40000001    2.66000009
   12.94416714  116.69999695    0.40000001    2.66000009
   12.94750023  117.45800018    0.40000001    2.66000009
   12.95055580  123.76499939    0.40000001    2.66000009
   12.95388889  127.57800293    0.40000001    2.66000009
   12.95694447  116.26300049    0.40000001    2.66000009
   12.96027756  117.51599884    0.40000001    2.67000008
   12.96638870  117.51599884    0.40000001    2.66000009
   12.97055531  114.51100159    0.40000001    2.66000009
   12.97388840  116.55500031    0.40000001    2.66000009
   12.97499943  115.87799835    0.40000001    2.66000009
   12.97749996  114.55500031    0.40000001    2.66000009
   12.98055553  110.76999664    0.40000001    2.66000009
   12.98388958  114.30500031    0.40000001    2.66000009
   12.98722267  115.71299744    0.40000001    2.66000009
   12.99027824  112.82399750    0.40000001    2.67000008
   12.99361134  112.12599945    0.40000001    2.67000008
   12.99694443  112.55100250    0.40000001    2.67000008
   13.00000000  117.83200073    0.40000001    2.67000008
   13.00333309  113.51699829    0.40000001    2.66000009
   13.00944424  113.51699829    2.64000010    2.66000009
   13.01333332  117.08499908    0.40000001    2.67000008
   13.01666641  113.83399963    0.40000001    2.64000010
   13.01999950  109.85500336    0.40000001    2.64000010
   13.02305508  112.74800110    0.40000001    2.67000008
   13.02638817  116.00499725    0.52999997    2.66000009
   13.02972221  110.30500031    0.76999998    2.66000009
   13.03277779  110.70400238    0.61000001    2.67000008
   13.03611183  110.71700287    0.41999999    2.67000008
   13.03944492  108.79799652    0.41999999    2.66000009
   13.04166698  112.86900330    0.41999999    2.67000008
   13.04305553  112.15100098    0.41999999    2.67000008
   13.04611111  110.35900116    0.46000001    2.67000008
   13.05222225  110.35900116    0.47999999    2.67000008
   13.05638885  115.72899628    0.47999999    2.67000008
   13.05944443  118.17400360    0.52999997    2.66000009
   13.06277752  114.98300171    0.95999998    2.67000008
   13.06583309  115.23899841    1.89999998    2.57999992
   13.06916618  117.15699768    2.44000006    2.64000010
   13.07250023  116.85199738    1.86000001    2.67000008
   13.07499981  117.64900208    2.78999996    2.67000008
   13.07611084  116.20999908    3.03999996    2.64000010
   13.07916641  115.93099976    3.93000007    2.67000008
   13.08249950  114.77100372    3.39000010    2.67000008
   13.08583260  115.02300262    3.57999992    2.67000008
   13.08888817  128.15699768    4.90999985    2.67000008
   13.09499931  128.15699768    4.90999985    2.59999990
   13.09916592  127.12899780    4.90999985    2.51999998
   13.10222244  143.40699768    4.90999985    2.40000010
   13.10555553  114.49700165    4.90999985    2.21000004
   13.10833359  133.78999329    4.90999985    2.17000008
   13.10916710  152.58399963    4.90999985    1.94000006
   13.11222267  127.83300018    4.90999985    2.07999992
   13.11555576  105.81800079    4.90999985    2.57999992
   13.11888885  114.03900146    4.90999985    2.55999994
   13.12194443  111.95300293    4.90999985    2.55999994
   13.12527752  118.36100006    4.90999985    2.67000008
   13.12861156  116.25000000    4.90999985    2.53999996
   13.13166714  119.68099976    4.90999985    2.61999989
   13.13777733  119.68099976    2.53999996    2.69000006
   13.14194393  114.28199768    3.14000010    2.69000006
   13.14527798  116.90799713    3.89000010    2.61999989
   13.14833355  112.30200195    2.44000006    2.61999989
   13.15166664  116.34300232    4.90999985    2.66000009
   13.15499973  111.35199738    4.90999985    2.55999994
   13.15805531  119.31300354    4.90999985    2.57999992
   13.16138840  111.97799683    4.90999985    2.42000008
   13.16444397  115.60299683    4.90999985    2.03999996
   13.16777802  117.29900360    4.90999985    2.66000009
   13.17111111  115.60500336    3.48000002    2.66000009
   13.17416668  112.30699921    2.94000006    2.67000008
   13.17500019  114.13200378    2.71000004    2.66000009
   13.18083382  114.13200378    2.11999989    2.67000008
   13.18500042  107.84799957    2.51999998    2.67000008
   13.18805599  118.27100372    4.03999996    2.59999990
   13.19138908  112.59100342    4.86999989    2.53999996
   13.20888901  114.86299896    4.59999990    2.67000008
   13.21138859  112.58399963    4.17999983    2.59999990
   13.21444416  114.26100159    4.03999996    2.66000009
   13.21777725  108.23000336    3.66000009    2.64000010
   13.22361088  108.23000336    4.90999985    2.57999992
   13.22777748  115.72799683    3.53999996    2.61999989
   13.23111057  113.07599640    3.66000009    2.61999989
   13.23416710  112.01300049    4.11999989    2.59999990
   13.23750019  110.42900085    4.90999985    2.61999989
   13.24083328  112.76200104    4.90999985    2.59999990
   13.24222279  116.90200043    4.90999985    2.55999994
   13.24416733  114.15100098    4.90999985    2.51999998
   13.24750042  115.47799683    4.90999985    2.51999998
   13.25055599  121.80400085    4.90999985    2.57999992
   13.25388908  116.05300140    4.90999985    2.53999996
   13.25722218  115.28600311    4.90999985    2.50000000
   13.26027775  113.56999969    4.90999985    2.59999990
   13.26638889  113.56999969    4.90999985    2.57999992
   13.27055550  119.06099701    4.90999985    2.42000008
   13.27388859  120.42500305    4.90999985    2.50000000
   13.27555561  117.14700317    4.90999985    2.50000000
   13.27750015  118.53800201    4.90999985    2.46000004
   13.28083324  119.82499695    4.90999985    2.40000010
   13.28388977  118.33200073    4.90999985    2.34999990
   13.28722286  119.15000153    4.90999985    2.40000010
   13.29055595  125.92700195    4.90999985    2.40000010
   13.29388905  118.12400055    4.90999985    2.40000010
   13.29694462  120.46700287    4.90999985    2.44000006
   13.30027771  127.67800140    4.90999985    2.44000006
   13.30361176  116.08200073    4.90999985    2.36999989
   13.30944443  116.08200073    4.90999985    2.42000008
   13.31361103  125.30899811    4.90999985    2.42000008
   13.31666660  115.97000122    4.90999985    2.44000006
   13.31999969  118.98600006    4.90999985    2.57999992
   13.32305527  125.16999817    4.90999985    2.51999998
   13.32638836  124.69999695    4.90999985    2.57999992
   13.32972240  113.09200287    4.90999985    2.59999990
   13.33277798  123.56700134    4.90999985    2.57999992
   13.33611107  129.49899292    4.90999985    2.42000008
   13.33944416  114.17299652    4.90999985    2.55999994
   13.34222221  123.01899719    4.90999985    2.57999992
   13.34277725  113.42199707    4.90999985    2.57999992
   13.34611034  115.73699951    4.90999985    2.64000010
   13.35222244  115.73699951    4.90999985    2.59999990
   13.35638905  125.04499817    4.90999985    2.48000002
   13.35944462  114.68800354    4.90999985    2.61999989
   13.36277771  112.19799805    4.90999985    2.61999989
   13.36611176  119.13600159    4.90999985    2.61999989
   13.36916637  116.90399933    4.90999985    2.61999989
   13.37250042  114.78800201    4.90999985    2.67000008
   13.37555599  112.43000031    4.90999985    2.66000009
   13.37611103  108.83000183    4.90999985    2.64000010
   13.37944412  115.19899750    4.90999985    2.57999992
   13.38249969  114.87799835    4.90999985    2.61999989
   13.38583279  114.01200104    4.90999985    2.61999989
   13.38916683  114.37699890    4.90999985    2.66000009
   13.39499950  114.37699890    3.91000009    2.67000008
   13.39916611  118.58899689    4.90999985    2.66000009
   13.40249920  112.25099945    4.90999985    2.67000008
   13.40555477  114.71700287    4.90999985    2.64000010
   13.40888882  110.20500183    4.90999985    2.61999989
   13.40916634  111.68199921    4.90999985    2.61999989
   13.41249943  111.59200287    4.90999985    2.64000010
   13.41555500  110.73500061    4.90999985    2.66000009
   13.41888905  108.16699982    4.90999985    2.61999989
   13.42222214  112.96199799    4.90999985    2.59999990
   13.42527771  110.96399689    4.90999985    2.48000002
   13.42861176  111.46600342    4.90999985    2.40000010
   13.43194485  118.80000305    4.90999985    2.51999998
   13.43777752  118.80000305    4.90999985    2.32999992
   13.44194412  113.65299988    4.90999985    2.51999998
   13.44250011  134.78599548    4.90999985    2.51999998
   13.44583321  121.49800110    4.90999985    2.25000000
   13.44888878  125.51000214    4.90999985    2.46000004
   13.45222187  138.68600464    4.90999985    2.39000010
   13.45555496  108.28800201    4.90999985    2.39000010
   13.45861053  111.65299988    4.90999985    2.23000002
   13.46194458  162.86099243    4.90999985    1.96000004
   13.46527767  188.87100220    4.90999985    1.76999998
   13.46833324  111.81400299    4.90999985    2.34999990
   13.47166634  151.44700623    4.90999985    2.25000000
   13.47499943  115.04900360    4.90999985    2.07999992
   13.47583294  120.85099792    4.90999985    2.07999992
   13.48083305  120.85099792    4.90999985    2.48000002
   13.48500061  132.66200256    4.90999985    2.03999996
   13.48805618  119.76599884    4.90999985    2.05999994
   13.49138927  114.67500305    4.90999985    2.46000004
   13.49444485  115.99199677    4.90999985    2.28999996
   13.49777794  113.00099945    4.90999985    2.48000002
   13.50111103  111.09300232    4.90999985    2.46000004
   13.50416660  118.48300171    4.90999985    2.40000010
   13.50749969  120.05599976    4.90999985    2.48000002
   13.50916672  114.24299622    4.90999985    2.59999990
   13.51111126  117.64700317    4.90999985    2.66000009
   13.51416683  112.46099854    4.82999992    2.67000008
   13.51749992  129.76100159    4.90999985    2.67000008
   13.52361107  129.76100159    4.90999985    2.30999994
   13.52777767  118.51100159    4.90999985    2.53999996
   13.53083324  125.11699677    4.90999985    2.17000008
   13.53416729  106.44799805    4.90999985    2.55999994
   13.53750038  107.50800323    4.90999985    2.59999990
   13.54055595  118.38899994    4.90999985    2.64000010
   13.54250050  111.20099640    4.90999985    2.61999989
   13.54444504  107.12699890    4.90999985    2.48000002
   13.54750061  101.95899963    4.90999985    2.55999994
   13.55083370  114.83100128    4.90999985    2.50000000
   13.55416679  122.76399994    4.90999985    2.57999992
   13.55722237  111.08100128    4.90999985    2.59999990
   13.56055546  111.45400238    4.90999985    2.59999990
   13.56638908  111.45400238    4.90999985    2.48000002
   13.57055569  111.92299652    4.90999985    2.53999996
   13.57388878  111.68399811    4.90999985    2.53999996
   13.57583332  107.84100342    4.90999985    2.61999989
   13.57750034  121.47200012    4.90999985    2.61999989
   13.58055592  107.94799805    4.90999985    2.66000009
   13.58388901  112.77400208    4.90999985    2.66000009
   13.58722210  115.59300232    4.90999985    2.64000010
   13.59027767  121.72299957    4.76000023    2.66000009
   13.59361076  115.13600159    4.90999985    2.67000008
   13.59694386  111.79199982    4.69999981    2.67000008
   13.60000038  113.27700043    3.86999989    2.67000008
   13.60333347  111.20099640    3.50000000    2.67000008
   13.60916710  111.20099640    2.53999996    2.69000006
   13.61333370  114.89399719    2.59999990    2.67000008
   13.61666679  115.45200348    2.67000008    2.69000006
   13.61999989  111.81400299    2.21000004    2.71000004
   13.62305546  119.46900177    2.26999998    2.69000006
   13.62638855  112.51799774    2.28999996    2.71000004
   13.62972260  110.12400055    2.28999996    2.69000006
   13.63277817  111.62799835    2.36999989    2.69000006
   13.63611126  113.94499969    2.26999998    2.69000006
   13.63916683  108.20899963    1.75000000    2.69000006
   13.64249992  128.37899780    1.51999998    2.71000004
   13.64305496  120.45899963    1.51999998    2.71000004
   13.64611053  122.90499878    1.39999998    2.69000006
   13.65222168  122.90499878    1.58000004    2.69000006
   13.65638828  111.92600250    1.66999996    2.69000006
   13.65944386  114.78500366    2.21000004    2.69000006
   13.66277695  118.15000153    2.40000010    2.69000006
   13.66583252  127.41400146    2.59999990    2.69000006
   13.66916656  127.61699677    3.07999992    2.67000008
   13.67250061  122.14700317    2.82999992    2.67000008
   13.67555618  118.08799744    2.91000009    2.69000006
   13.67611122  121.79900360    2.91000009    2.69000006
   13.67944431  111.63999939    3.39000010    2.66000009
   13.68249989  122.48899841    3.97000003    2.66000009
   13.68583298  118.51999664    4.17999983    2.66000009
   13.68916702  119.13400269    4.65999985    2.61999989
   13.69499969  119.13400269    4.90999985    2.61999989
   13.69916630  110.48899841    4.80000019    2.66000009
   13.70222187  115.28199768    4.59999990    2.64000010
   13.70555496  117.75299835    4.82999992    2.61999989
   13.70888901  117.55100250    4.82999992    2.64000010
   13.70944405  116.10099792    4.82999992    2.64000010
   13.71249962  119.64800262    4.90999985    2.61999989
   13.71583271  115.93499756    4.90999985    2.64000010
   13.71888828  116.46900177    4.63999987    2.66000009
   13.72222137  108.92900085    4.32999992    2.66000009
   13.72527695  124.74900055    4.36999989    2.67000008
   13.72861099  117.34899902    4.44999981    2.66000009
   13.73194408  112.99700165    4.53999996    2.67000008
   13.73777771  112.99700165    4.00000000    2.66000009
   13.74194431  121.28900146    3.78999996    2.66000009
   13.74277782  109.09700012    3.89000010    2.66000009
   13.74555588  114.48200226    3.70000005    2.66000009
   13.74861145  120.25299835    3.57999992    2.66000009
   13.75194454  113.68000031    3.61999989    2.66000009
   13.75527763  114.71700287    3.51999998    2.67000008
   13.75833321  121.02700043    3.14000010    2.67000008
   13.76166630  114.44000244    3.11999989    2.67000008
   13.76500034  117.16999817    3.36999989    2.67000008
   13.76805496  111.73100281    3.51999998    2.64000010
   13.77138901  110.87899780    3.89000010    2.66000009
   13.77444458  118.76300049    4.40999985    2.61999989
   13.77611065  122.61199951    4.76000023    2.61999989
   13.78055573  122.61199951    4.90999985    2.61999989
   13.78472233  124.97899628    4.90999985    2.55999994
   13.78805637  124.17299652    4.90999985    2.59999990
   13.79138947  119.84500122    4.90999985    2.59999990
   13.79444504  117.12799835    4.90999985    2.59999990
   13.79777813  120.60299683    4.90999985    2.61999989
   13.80111122  116.38800049    4.90999985    2.61999989
   13.80416679  115.71499634    4.63999987    2.61999989
   13.80749989  116.09999847    4.26999998    2.66000009
   13.80944443  118.23000336    3.75000000    2.66000009
   13.81111145  118.73899841    3.46000004    2.67000008
   13.81416702  122.07499695    3.26999998    2.66000009
   13.81750011  120.38099670    3.51999998    2.67000008
   13.82361126  120.38099670    3.41000009    2.69000006
   13.82777786  117.37799835    3.80999994    2.67000008
   13.83083344  121.46800232    4.42999983    2.67000008
   13.83416653  121.35800171    4.63999987    2.66000009
   13.83722210  127.89800262    4.76000023    2.66000009
   13.84055519  117.74700165    4.90999985    2.64000010
   13.84277725  123.33499908    4.90999985    2.61999989
   13.84416676  125.78700256    4.90999985    2.64000010
   13.84722233  121.01699829    4.90999985    2.66000009
   13.85055637  124.40499878    4.90999985    2.64000010
   13.85388947  112.27899933    4.69999981    2.66000009
   13.85694504  122.10800171    4.40999985    2.66000009
   13.86027813  115.87100220    4.48999977    2.64000010
   13.86638927  115.87100220    4.13999987    2.64000010
   13.87055588  117.70999908    4.13999987    2.64000010
   13.87361145  118.24199677    3.73000002    2.66000009
   13.87611103  116.18000031    3.30999994    2.67000008
   13.87750053  120.09400177    3.18000007    2.67000008
   13.88055611  122.04599762    3.30999994    2.69000006
   13.88388920  123.03900146    3.34999990    2.67000008
   13.88722229  124.08899689    3.20000005    2.66000009
   13.89027786  121.76599884    2.78999996    2.69000006
   13.89361095  119.65399933    2.28999996    2.69000006
   13.89694405  121.43800354    2.05999994    2.71000004
   13.89999962  119.91899872    2.01999998    2.71000004
   13.90333271  157.82400513    2.32999992    2.71000004
   13.90916634  157.82400513    2.67000008    2.69000006
   13.91333294  128.85600281    2.82999992    2.69000006
   13.91666698  114.03800201    4.01999998    2.67000008
   13.91972256  139.88800049    4.36999989    2.66000009
   13.92305565  151.20899963    4.48999977    2.67000008
   13.92638874  140.98399353    4.21999979    2.66000009
   13.92944431  129.63600159    4.23999977    2.66000009
   13.93277836  162.52499390    3.68000007    2.69000006
   13.93583298  141.99099731    4.07999992    2.66000009
   13.93916702  142.13299561    4.03999996    2.67000008
   13.94250011  116.80200195    3.68000007    2.69000006
   13.94416714  125.83100128    3.84999990    2.67000008
   13.94611073  153.17500305    3.82999992    2.66000009
   13.95222187  153.17500305    3.41000009    2.66000009
   13.95611095  134.31500244    3.07999992    2.67000008
   13.95944405  151.24800110    2.76999998    2.67000008
   13.96277714  146.47200012    2.57999992    2.69000006
   13.96583271  143.21800232    2.80999994    2.69000006
   13.96916580  156.92700195    2.93000007    2.69000006
   13.97249985  147.34300232    2.69000006    2.69000006
   13.97555542  192.55000305    2.69000006    2.69000006
   13.97749996  148.72799683    2.80999994    2.69000006
   13.97916603  153.55200195    2.76999998    2.67000008
   13.98249912  150.32899475    2.94000006    2.69000006
   13.98555565  145.19299316    3.41000009    2.67000008
   13.98888874  164.80200195    3.95000005    2.64000010
   13.99499989  164.80200195    4.67999983    2.64000010
   13.99916649  137.23899841    4.90999985    2.61999989
   14.00222206  134.57899475    4.90999985    2.64000010
   14.00555515  151.66700745    4.90999985    2.59999990
   14.00861073  160.87199402    4.90999985    2.57999992
   14.01111126  124.80300140    4.90999985    2.57999992
   14.01249981  117.81300354    4.90999985    2.57999992
   14.01555538  152.60200500    4.90999985    2.55999994
   14.01888847  136.97500610    4.90999985    2.55999994
   14.02194405  139.70599365    4.90999985    2.53999996
   14.02527714  143.35099792    4.90999985    2.53999996
   14.02861118  154.57899475    4.90999985    2.53999996
   14.03166676  141.48800659    4.90999985    2.50000000
   14.03777790  141.48800659    4.90999985    2.46000004
   14.04194450  144.84599304    4.90999985    2.48000002
   14.04444504  133.76800537    4.90999985    2.46000004
   14.04555607  141.19999695    4.90999985    2.44000006
   14.04861164  156.74499512    4.90999985    2.40000010
   14.05194473  172.78599548    4.90999985    2.39000010
   14.05500031  154.92100525    4.90999985    2.34999990
   14.05833340  159.88600159    4.90999985    2.30999994
   14.06166649  170.58599854    4.90999985    2.28999996
   14.06472206  181.84100342    4.90999985    2.28999996
   14.06805515  170.18899536    4.90999985    2.25000000
   14.07138920  138.82800293    4.90999985    2.25000000
   14.07444477  164.88000488    4.90999985    2.21000004
   14.08055592  164.88000488    4.90999985    2.19000006
   14.08472157  177.67399597    4.90999985    2.07999992
   14.08805561  244.36399841    4.90999985    1.96000004
   14.09111118  218.59599304    4.90999985    1.96000004
   14.09444427  269.39801025    4.90999985    1.94000006
   14.09777737  388.50100708    4.90999985    1.91999996
   14.10083389  407.54000854    4.90999985    1.88000000
   14.10277843  427.20001221    4.90999985    1.86000001
   14.10416698  415.35000610    4.90999985    1.85000002
   14.10555553  425.45498657    4.90999985    1.83000004
   14.10694504  495.45098877    4.90999985    1.78999996
   14.10833359  468.00201416    4.90999985    1.80999994
   14.10972214  405.00100708    4.90999985    1.78999996
   14.11111164  336.78698730    4.90999985    1.80999994
   14.11111164  244.36399841    4.90999985    1.96000004
   14.11138916  218.59599304    4.90999985    1.96000004
   14.11138916  269.39801025    4.90999985    1.94000006
   14.11138916  388.50100708    4.90999985    1.91999996
   14.11138916  407.54000854    4.90999985    1.88000000
   14.11138916  170.18899536    4.90999985    2.25000000
   14.11166668  138.82800293    4.90999985    2.25000000
   14.11166668  164.88000488    4.90999985    2.21000004
   14.11166668  177.67399597    4.90999985    2.07999992
   14.11222267  354.71499634    4.90999985    1.80999994
   14.11555576  333.04199219    4.90999985    1.83000004
   14.11861134  403.56900024    4.90999985    1.86000001
   14.12055588  355.63699341    4.90999985    1.80999994
   14.12194443  387.73199463    4.90999985    1.83000004
   14.12333393  394.64300537    4.90999985    1.85000002
   14.12472248  447.84600830    4.90999985    1.83000004
   14.12611103  414.67898560    4.90999985    1.80999994
   14.12750053  323.96301270    4.90999985    1.85000002
   14.12750053  354.71499634    4.90999985    1.80999994
   14.12777805  333.04199219    4.90999985    1.83000004
   14.12777805  403.56900024    4.90999985    1.86000001
   14.12833309  459.62200928    4.90999985    1.85000002
   14.13027763  371.58499146    4.90999985    1.86000001
   14.13166714  434.73901367    4.90999985    1.85000002
   14.13305569  318.11700439    4.90999985    1.78999996
   14.13305569  459.62200928    4.90999985    1.85000002
   14.13361073  359.14300537    4.90999985    1.83000004
   14.13694477  321.08700562    4.90999985    1.88000000
   14.14000034  212.11700439    4.90999985    2.00000000
   14.14333344  208.24299622    4.90999985    2.05999994
   14.14638901  189.60699463    4.90999985    2.13000011
   14.14972210  172.12500000    4.90999985    2.19000006
   14.15388870  172.12500000    4.90999985    2.17000008
   14.15805531  150.51300049    4.90999985    2.26999998
   14.16111088  135.77000427    4.90999985    2.28999996
   14.16444397  193.53300476    4.90999985    2.32999992
   14.16666698  159.77600098    4.90999985    2.36999989
   14.16805553  148.47200012    4.90999985    2.39000010
   14.17138958  132.33200073    4.90999985    2.40000010
   14.17444515  151.78500366    4.90999985    2.40000010
   14.17777824  148.02400208    4.90999985    2.34999990
   14.18111134  150.20300293    4.90999985    2.26999998
   14.18416691  167.76100159    4.90999985    2.25000000
   14.18750000  155.93499756    4.90999985    2.17000008
   14.19083309  135.67900085    4.90999985    2.15000010
   14.19666672  135.67900085    4.90999985    2.30999994
   14.20083332  121.82599640    4.90999985    2.50000000
   14.20416641  121.03600311    4.90999985    2.53999996
   14.20722198  115.70400238    4.90999985    2.55999994
   14.22694397  144.03999329    4.90999985    2.40000010
   14.22999954  150.93899536    4.90999985    2.36999989
   14.23333359  139.31500244    4.90999985    2.39000010
   14.23388958  129.83200073    4.90999985    2.39000010
   14.23972225  129.83200073    4.90999985    2.30999994
   14.24388885  129.71000671    4.90999985    2.26999998
   14.24722290  145.72500610    4.90999985    2.26999998
   14.25027752  163.32200623    4.90999985    2.26999998
   14.25361156  160.28599548    4.90999985    2.25000000
   14.25666714  158.27600098    4.90999985    2.19000006
   14.26000023  155.84599304    4.90999985    2.11999989
   14.26333332  159.53700256    4.90999985    2.17000008
   14.26638889  205.36199951    4.90999985    2.13000011
   14.26722240  197.41499329    4.90999985    2.13000011
   14.26999950  215.13999939    4.90999985    2.09999990
   14.27333355  237.63699341    4.90999985    1.98000002
   14.27666664  294.06298828    4.90999985    2.01999998
   14.28249931  294.06298828    4.90999985    1.80999994
   14.28666687  299.96701050    4.90999985    1.85000002
   14.29000092  320.81100464    4.90999985    1.83000004
   14.29305553  410.78298950    4.90999985    1.78999996
   14.29527855  335.91699219    4.90999985    1.78999996
   14.29527855  155.84599304    4.90999985    2.11999989
   14.29527855  159.53700256    4.90999985    2.17000008
   14.29527855  205.36199951    4.90999985    2.13000011
   14.29527855  215.13999939    4.90999985    2.09999990
   14.29527855  237.63699341    4.90999985    1.98000002
   14.29555607  294.06298828    4.90999985    2.01999998
   14.29555607  299.96701050    4.90999985    1.85000002
   14.29555607  320.81100464    4.90999985    1.83000004
   14.29750061  260.86700439    4.90999985    1.76999998
   14.30083370  163.98300171    4.90999985    1.69000006
   14.30388927  170.56399536    4.90999985    1.63000000
   14.30722237  189.19700623    4.90999985    1.63000000
   14.31055546  213.14399719    4.90999985    1.69000006
   14.31583309  213.14399719    4.90999985    1.69000006
   14.31999969   73.55010223    4.90999985    1.69000006
   14.32333374  104.26699829    4.90999985    1.58000004
   14.32638836   -1.00000000    4.90999985    1.55999994
   14.32888889   37.23680115    4.90999985    1.50000000
   14.32999992   38.47790146    4.90999985    1.55999994
   14.33333302   -1.00000000    4.90999985    1.50000000
   14.33638859   -1.00000000    4.90999985    1.41999996
   14.33972168   -1.00000000    4.90999985    1.50000000
   14.34305477   -1.00000000    4.90999985    1.44000006
   14.34611034   -1.00000000    4.90999985    1.48000002
   14.34944439   -1.00000000    4.90999985    1.44000006
   14.35249996   -1.00000000    4.90999985    1.51999998
   14.35888958   -1.00000000    4.90999985    1.36000001
   14.36277771   -1.00000000    4.90999985    1.36000001
   14.36611176   -1.00000000    4.90999985    1.33000004
   14.36944485   -1.00000000    4.90999985    1.44000006
   14.37250042   -1.00000000    4.90999985    1.38000000
   14.37583351   -1.00000000    4.90999985    1.34000003
   14.37916660   -1.00000000    4.90999985    1.34000003
   14.38222218   -1.00000000    4.90999985    1.41999996
   14.38555527   -1.00000000    4.90999985    1.46000004
   14.38888836   -1.00000000    4.90999985    1.44000006
   14.39194393   -1.00000000    4.90999985    1.50000000
   14.39527798   -1.00000000    4.90999985    1.50000000
   14.39583302   23.57019997    4.90999985    1.48000002
   14.40166664   23.57019997    4.90999985    1.53999996
   14.40583324   -1.00000000    4.90999985    1.51999998
   14.40888882   -1.00000000    4.90999985    1.51999998
   14.41222191   -1.00000000    4.90999985    1.41999996
   14.41555500   -1.00000000    4.90999985    1.41999996
   14.41861153   -1.00000000    4.90999985    1.41999996
   14.42194462   -1.00000000    4.90999985    1.38000000
   14.42500019   -1.00000000    4.90999985    1.41999996
   14.42833328   -1.00000000    4.90999985    1.38000000
   14.43194485   -1.00000000    4.90999985    1.36000001
   14.43527794   -1.00000000    4.90999985    1.44000006
   14.43833351   -1.00000000   -1.00000000   -1.00000000
   14.44444466   -1.00000000   -1.00000000   -1.00000000
   14.44861126   23.57019997    4.90999985    1.48000002
   14.45194435   47.81930161    4.90999985    1.53999996
   14.45499992  115.57900238    4.90999985    1.60000002
   14.45833302   57.46530151    4.90999985    1.63000000
   14.46138859  127.20099640    4.90999985    1.61000001
   14.46249962   41.21820068    4.90999985    1.64999998
   14.46500015   63.46770096    4.90999985    1.58000004
   14.46833324   -1.00000000    4.90999985    1.60000002
   14.47166634   44.16419983    4.90999985    1.55999994
   14.47472191   -1.00000000   -1.00000000   -1.00000000
   14.47805500   64.88249969    4.90999985    1.48000002
   14.48111057   72.41459656    4.90999985    1.55999994
   14.48722267   72.41459656    4.90999985    1.64999998
   14.49138927  309.98498535    4.90999985    1.73000002
   14.49472237  289.52099609    4.90999985    1.71000004
   14.49583340  305.96499634    4.90999985    1.71000004
   14.49805546  240.00500488    4.90999985    1.73000002
   14.50138855  398.25299072    4.90999985    1.73000002
   14.50472260  397.46398926    4.90999985    1.80999994
   14.50777817  412.99700928    4.90999985    1.83000004
   14.50972176  434.81600952    4.90999985    1.85000002
   14.51111126  387.38900757    4.90999985    1.86000001
   14.51249981  306.49798584    4.90999985    1.88000000
   14.51249981  412.99700928    4.90999985    1.83000004
   14.51249981   -1.00000000   -1.00000000   -1.00000000
   14.51277733   64.88249969    4.90999985    1.48000002
   14.51277733   72.41459656    4.90999985    1.55999994
   14.51277733  309.98498535    4.90999985    1.73000002
   14.51277733  289.52099609    4.90999985    1.71000004
   14.51305580  240.00500488    4.90999985    1.73000002
   14.51305580  398.25299072    4.90999985    1.73000002
   14.51305580  397.46398926    4.90999985    1.80999994
   14.51361084  366.53698730    4.90999985    1.91999996
   14.51694393  319.58200073    4.90999985    1.89999998
   14.51999950  258.54000854    4.90999985    2.00000000
   14.52333355  252.03300476    4.90999985    2.03999996
   14.52666664  262.30899048    4.90999985    2.01999998
   14.53333378  262.30899048    4.90999985    2.13000011
   14.53750038  248.20700073    4.90999985    2.11999989
   14.54055595  269.12600708    4.90999985    2.03999996
   14.54388905  369.39300537    4.90999985    1.98000002
   14.54638958  390.76599121    4.90999985    1.80999994
   14.54750061  346.39199829    4.90999985    1.80999994
   14.55055618  307.62701416    4.90999985    1.96000004
   14.55388927  308.10101318    4.90999985    1.98000002
   14.55694485  310.19299316    4.90999985    1.88000000
   14.56027794  278.99600220    4.90999985    1.91999996
   14.56361103  268.78399658    4.90999985    2.00000000
   14.56666660  356.47000122    4.90999985    2.00000000
   14.56999969  247.26600647    4.90999985    1.96000004
   14.57611084  247.26600647    4.90999985    2.03999996
   14.58027744  203.36900330    4.90999985    2.11999989
   14.58361053  163.15899658    4.90999985    2.11999989
   14.58666611  239.76499939    4.90999985    2.15000010
   14.59000015  176.42700195    4.90999985    2.21000004
   14.59333324  143.97700500    4.90999985    2.23000002
   14.59638882  168.16799927    4.90999985    2.25000000
   14.59972191  177.01800537    4.90999985    2.21000004
   14.60305595  188.91000366    4.90999985    2.25000000
   14.60611153  173.42700195    4.90999985    2.21000004
   14.60944462  208.38600159    4.90999985    2.21000004
   14.61250019  185.88400269    4.90999985    2.11999989
   14.61305618  216.88999939    4.90999985    2.09999990
   14.61888885  216.88999939    4.90999985    2.07999992
   14.62305546  264.13500977    4.90999985    2.01999998
   14.62638855  340.01199341    4.90999985    1.96000004
   14.62944412   -1.00000000    4.90999985    1.73000002
   14.63277817   -1.00000000    4.90999985    1.34000003
   14.63611126  372.58801270    4.90999985    1.14999998
   14.63916683  338.16799927    4.90999985    2.03999996
   14.64249992  217.10899353    4.90999985    2.00000000
   14.64583302  226.08099365    4.90999985    2.05999994
   14.64638901  241.44400024    4.90999985    2.05999994
   14.64944458  317.78100586    4.90999985    2.00000000
   14.65249920  320.17599487    4.90999985    1.98000002
   14.65583324  274.14700317    4.90999985    1.83000004
   14.66194439  274.14700317    4.90999985    2.09999990
   14.66611099  203.01400757    4.90999985    2.09999990
   14.66916656  352.71301270    4.90999985    2.09999990
   14.67250061  273.70800781    4.90999985    1.94000006
   14.67555618  160.52999878    4.90999985    1.86000001
   14.67888927  136.71800232    4.90999985    2.15000010
   14.67972279  173.98800659    4.90999985    2.17000008
   14.68249989  180.10899353    4.90999985    2.21000004
   14.68583298  149.26199341    4.90999985    2.17000008
   14.68888855  191.78999329    4.90999985    2.25000000
   14.69222260  161.91700745    4.90999985    2.25000000
   14.69527817  176.42300415    4.90999985    2.15000010
   14.69861126  142.54899597    4.90999985    2.25000000
   14.70472240  142.54899597    4.90999985    2.13000011
   14.70888901  159.82400513    4.90999985    2.26999998
   14.71194458  186.35600281    4.90999985    2.09999990
   14.71305561  220.99400330    4.90999985    2.13000011
   14.71555519  210.71699524    4.90999985    2.09999990
   14.71888828  157.51400757    4.90999985    2.19000006
   14.72194386  144.11099243    4.90999985    2.23000002
   14.72527695  166.82000732    4.90999985    2.23000002
   14.72833252  162.39799500    4.90999985    2.21000004
   14.73166656  169.29100037    4.90999985    2.19000006
   14.73500061  176.08599854    4.90999985    2.17000008
   14.73805618  178.43099976    4.90999985    2.01999998
   14.74138927  179.88200378    4.90999985    2.07999992
   14.74750042  179.88200378    4.90999985    2.03999996
   14.75166702  213.21800232    4.90999985    2.01999998
   14.75500011  196.32000732    4.90999985    1.98000002
   14.75805569  226.00199890    4.90999985    2.00000000
   14.76138878  187.79299927    4.90999985    1.94000006
   14.76472187  315.39599609    4.90999985    1.86000001
   14.76805496  262.36199951    4.90999985    1.94000006
   14.77111053  261.93701172    4.90999985    1.94000006
   14.77444458  239.53199768    4.90999985    1.85000002
   14.77750015  223.72999573    4.90999985    1.83000004
   14.77972221  215.19500732    4.90999985    1.94000006
   14.78111076  239.14900208    4.90999985    1.96000004
   14.78444481  203.77499390    4.90999985    1.91999996
   14.79027843  203.77499390    4.90999985    2.00000000
   14.79444504  211.07699585    4.90999985    1.94000006
   14.79777813  204.88699341    4.90999985    1.94000006
   14.80083370  175.36099243    4.90999985    2.01999998
   14.80416679  169.09800720    4.90999985    2.03999996
   14.80749989  190.81100464    4.90999985    2.05999994
   14.81055546  154.31100464    4.90999985    2.07999992
   14.81305599  158.38299561    4.90999985    2.11999989
   14.81416702  152.44400024    4.90999985    2.17000008
   14.81750011  135.81599426    4.90999985    2.25000000
   14.82055569  135.19999695    4.90999985    2.25000000
   14.82388878  229.86500549    4.90999985    2.30999994
   14.82694435  133.63999939    4.90999985    2.09999990
   14.83333302  133.63999939    4.90999985    2.28999996
   14.83722210  132.50799561    4.90999985    2.28999996
   14.84055519  162.58700562    4.90999985    2.44000006
   14.84388828  144.87899780    4.90999985    2.17000008
   14.84638882  124.17400360    4.90999985    2.19000006
   14.84749985  126.45099640    4.90999985    2.26999998
   14.85083389  143.02999878    4.90999985    2.40000010
   14.85388947  138.92399597    4.90999985    2.28999996
   14.85722256  133.93200684    4.90999985    2.30999994
   14.86027813  130.73399353    4.90999985    2.30999994
   14.86361122  139.50199890    4.90999985    2.11999989
   14.86694431  143.39399719    4.90999985    2.39000010
   14.86999989  133.70700073    4.90999985    2.44000006
   14.87611103  133.70700073    4.90999985    2.53999996
   14.88027763  172.80499268    4.90999985    2.21000004
   14.88333321  247.84700012    4.90999985    2.09999990
   14.88666630  137.37399292    4.90999985    2.42000008
   14.89000034  120.49099731    4.90999985    2.55999994
   14.89305496  131.14199829    4.90999985    2.59999990
   14.89638901  138.69799805    4.90999985    2.71000004
   14.89944458  133.54400635    4.90999985    2.61999989
   14.90277767  161.21499634    4.90999985    2.30999994
   14.90611076  143.82699585    4.90999985    2.19000006
   14.90916634  120.28099823    4.90999985    2.61999989
   14.91249943  114.52899933    4.90999985    2.71000004
   14.91305542  122.37200165    4.90999985    2.73000002
   14.91888905  122.37200165    4.90999985    2.69000006
   14.92305565  120.71600342    4.90999985    2.67000008
   14.92638874  118.09600067    4.90999985    2.67000008
   14.92944431  118.07900238    4.90999985    2.67000008
   14.93277836  125.84999847    4.90999985    2.64000010
   14.93583298  124.17900085    4.90999985    2.67000008
   14.93916702  123.67299652    4.61999989    2.67000008
   14.94250011  123.68599701    4.90999985    2.64000010
   14.94555569  146.66999817    4.90999985    2.66000009
   14.94638920  125.81999969    4.90999985    2.55999994
   14.94916630  134.18400574    4.90999985    2.64000010
   14.95249939  150.23199463    4.90999985    2.67000008
   14.95555496  129.68299866    4.90999985    2.66000009
   14.96166611  129.68299866    4.90999985    1.78999996
   14.96583271  149.08299255    3.95000005    2.73000002
   14.96916580  132.35600281    4.51000023    2.69000006
   14.97222137  126.22899628    4.90999985    2.71000004
   14.97555542  115.04199982    4.28999996    2.71000004
   14.97888851  113.60500336    3.09999990    2.75000000
   14.97972202  121.13500214    3.45000005    2.75000000
   14.98249912  109.63800049    3.28999996    2.71000004
   14.98583317  117.07399750    3.26999998    2.75000000
   14.98888874  114.12200165    3.75000000    2.71000004
   14.99222279  117.68099976    4.38999987    2.66000009
   14.99527836  117.60299683    4.61999989    2.69000006
   14.99861145  133.58799744    4.69999981    2.71000004
   15.00472260  133.58799744    4.90999985    2.73000002
   15.00861073  204.51600647    4.90999985    2.76999998
   15.01194477  162.65100098    4.90999985    2.53999996
   15.01305580  214.31500244    4.90999985    2.13000011
   15.01555538  112.21900177    4.90999985    1.88000000
   15.01888847  120.64199829    4.90999985    1.86000001
   15.02194405  143.72500610    4.90999985    1.89999998
   15.02527714  116.97499847    4.90999985    2.30999994
   15.02861118  119.51499939    4.90999985    2.75000000
   15.03166676  124.78600311    4.90999985    2.51999998
   15.03500080  207.84599304    4.90999985    2.39000010
   15.03833389  122.39399719    4.90999985    1.61000001
   15.04138947  127.12799835    4.90999985    2.75000000
   15.04750061  127.12799835    4.90999985    2.73000002
   15.05166721  127.69200134    4.90999985    2.75000000
   15.05472279  145.06500244    4.90999985    2.67000008
   15.05805588  126.69200134    4.90999985    2.57999992
   15.06111145  119.90499878    4.90999985    2.51999998
   15.06444454  113.99900055    4.90999985    2.69000006
   15.06777763  159.30400085    4.90999985    2.50000000
   15.07083321  126.56300354    4.90999985    1.91999996
   15.07416630  121.03800201    4.90999985    2.64000010
   15.17777824   -1.00000000   -1.00000000   -1.00000000
   15.29833412   -1.00000000   -1.00000000   -1.00000000
   15.40861034   -1.00000000   -1.00000000   -1.00000000
   15.45916653  374.58700562    4.90999985    1.61000001
   15.46222210  197.11500549    4.90999985    1.66999996
   15.46555519  242.89399719    4.90999985    2.09999990
   15.46888828   -1.00000000   -1.00000000   -1.00000000
   15.47194386   -1.00000000    4.90999985    1.48000002
   15.47611046   -1.00000000    4.90999985    1.91999996
   15.48027706  260.39898682    4.90999985    2.32999992
   15.48361111  190.04899597    4.90999985    1.71000004
   15.48666668  167.47399902    4.90999985    2.39000010
   15.48916721  366.58599854    4.90999985    2.40000010
   15.49055576  319.97500610    4.90999985    2.03999996
   15.49361134  214.07899475    4.90999985    2.05999994
   15.49694443  165.42900085    4.90999985    2.34999990
   15.50000000  167.93800354    4.90999985    2.36999989
   15.50333309  170.82499695    4.90999985    2.39000010
   15.50666714  328.96701050    4.90999985    1.88000000
   15.50972176  111.98500061    4.90999985    2.34999990
   15.51305580  260.85400391    4.90999985    2.00000000
   15.51888847  260.85400391    4.90999985    2.53999996
   15.52305508  305.64401245    4.90999985    2.21000004
   15.52638817  223.26600647    4.90999985    1.69000006
   15.52944374  182.52799988    4.90999985    2.39000010
   15.53277779  223.73800659    4.90999985    2.32999992
   15.53611183  128.93499756    4.90999985    2.57999992
   15.53916740  157.58500671    4.90999985    2.46000004
   15.54250050  130.22599792    4.90999985    2.50000000
   15.54583359  116.22200012    4.90999985    2.71000004
   15.54888916  134.28999329    4.90999985    2.71000004
   15.55222225  122.79499817    4.90999985    2.46000004
   15.55555534  118.43699646    4.90999985    2.69000006
   15.55583382  119.04599762    4.90999985    2.69000006
   15.56194496  119.04599762    4.38999987    2.73000002
   15.56583309  119.41200256    4.61999989    2.75000000
   15.56916618  146.22700500    4.90999985    2.55999994
   15.57250023  183.41799927    4.90999985    2.44000006
   15.57555580   23.57019997    4.90999985    2.05999994
   15.57888889  263.02398682    4.90999985    1.85000002
   15.58222198  196.21400452    4.90999985    2.17000008
   15.58527756  165.29800415    4.90999985    2.13000011
   15.58861065  123.55000305    4.90999985    1.71000004
   15.58916664   64.64099884    4.90999985    1.76999998
   15.59222221  274.44500732    4.90999985    1.61000001
   15.59555531  248.37800598    4.90999985    2.09999990
   15.59861088  150.25900269    4.90999985    2.11999989
   15.60472298  150.25900269    4.90999985    2.57999992
   15.60888958  138.64500427    4.90999985    2.66000009
   15.61194515  145.88099670    4.90999985    2.57999992
   15.61527824  188.62300110    4.90999985    2.44000006
   15.61833382  139.44599915    4.90999985    2.11999989
   15.62166691  262.92199707    4.90999985    2.21000004
   15.62250042  291.83999634    4.90999985    2.21000004
   15.62527752  151.96499634    4.90999985    2.03999996
   15.62861156  155.87600708    4.90999985    2.64000010
   15.63166714  323.27499390    4.90999985    2.32999992
   15.63500023  159.88600159    4.90999985    2.21000004
   15.63833332  177.05799866    4.90999985    2.42000008
   15.64138889  163.34300232    4.90999985    2.19000006
   15.64750004  163.34300232    4.90999985    2.26999998
   15.65166664  149.41999817    4.90999985    2.26999998
   15.65472221  184.19500732    4.90999985    2.17000008
   15.65583324  181.02400208    4.90999985    2.05999994
   15.65833282  155.38999939    4.90999985    2.13000011
   15.66166592  142.25500488    4.90999985    2.30999994
   15.66472149  139.60499573    4.90999985    2.32999992
   15.66805553  145.93499756    4.90999985    2.40000010
   15.67138958  140.03399658    4.90999985    2.26999998
   15.67444515  188.16000366    4.90999985    2.23000002
   15.67777824  143.73599243    4.90999985    2.17000008
   15.68083382  149.50300598    4.90999985    2.28999996
   15.68416691  144.59899902    4.90999985    2.28999996
   15.69027805  144.59899902    4.90999985    2.32999992
   15.69444466  152.25300598    4.90999985    2.17000008
   15.69777775  180.23399353    4.90999985    2.19000006
   15.70111084  157.92199707    4.90999985    2.15000010
   15.70416641  163.99699402    4.90999985    2.15000010
   15.70749950  155.84500122    4.90999985    2.07999992
   15.71055508  149.34599304    4.90999985    2.23000002
   15.71388912  146.86700439    4.90999985    2.19000006
   15.71722221  147.69200134    4.90999985    2.25000000
   15.72027779  135.15400696    4.90999985    2.25000000
   15.72249985  140.04200745    4.90999985    2.26999998
   15.72388840  138.77699280    4.90999985    2.28999996
   15.72722149  141.95799255    4.90999985    2.26999998
   15.73333359  141.95799255    4.90999985    2.15000010
   15.73722267  143.10699463    4.90999985    2.26999998
   15.74055576  159.82600403    4.90999985    2.30999994
   15.74388885  161.63099670    4.90999985    2.21000004
   15.74694443  142.48100281    4.90999985    2.25000000
   15.75027752  146.99299622    4.90999985    2.15000010
   15.75333309  156.07600403    4.90999985    2.19000006
   15.75583363  168.11099243    4.90999985    2.19000006
   15.75694466  182.72200012    4.90999985    2.17000008
   15.76027775  148.17599487    4.90999985    2.19000006
   15.76333332  133.79299927    4.90999985    2.26999998
   15.76666641  144.35800171    4.90999985    2.36999989
   15.76999950  126.29799652    4.90999985    2.34999990
   15.77611065  126.29799652    4.90999985    2.34999990
   15.78027725  135.21499634    4.90999985    2.39000010
   15.78333378  134.30499268    4.90999985    2.30999994
   15.78666687  143.02400208    4.90999985    2.32999992
   15.78916740  143.62199402    4.90999985    2.34999990
   15.79027843  139.79800415    4.90999985    2.32999992
   15.79361153  144.93600464    4.90999985    2.26999998
   15.79666710  145.65100098    4.90999985    2.28999996
   15.80000019  146.38800049    4.90999985    2.23000002
   15.80333328  161.71400452    4.90999985    2.19000006
   15.80638885  191.71600342    4.90999985    2.13000011
   15.80972195  318.13198853    4.90999985    1.96000004
   15.81277752  266.21200562    4.90999985    1.91999996
   15.81888866  266.21200562    4.90999985    2.01999998
   15.82305527  226.89999390    4.90999985    2.00000000
   15.82611084  243.77600098    4.90999985    1.94000006
   15.82944393  238.21699524    4.90999985    1.94000006
   15.83277798  180.28399658    4.90999985    1.89999998
   15.83583260  220.27400208    4.90999985    1.86000001
   15.83916664  143.96200562    4.90999985    1.83000004
   15.84249973  106.92800140    4.90999985    1.66999996
   15.84555531  127.54900360    4.90999985    1.66999996
   15.84888840   -1.00000000    4.90999985    1.69000006
   15.85194492   -1.00000000    4.90999985    1.60000002
   15.85527802   51.76259995    4.90999985    1.55999994
   15.85611153   85.74939728    4.90999985    1.55999994
   15.86166668   85.74939728    4.90999985    1.73000002
   15.86583328  188.17399597    4.90999985    1.71000004
   15.86916637   -1.00000000    4.90999985    1.76999998
   15.87250042  280.32598877    4.90999985    1.78999996
   15.87555599  226.69099426    4.90999985    1.91999996
   15.87888908  258.26599121    4.90999985    2.00000000
   15.88222218  283.82598877    4.90999985    1.98000002
   15.88527775  307.46301270    4.90999985    1.85000002
   15.88861084  246.27099609    4.90999985    1.85000002
   15.88944435  322.28500366    4.90999985    1.85000002
   15.89222240  294.94400024    4.90999985    1.83000004
   15.89555550  235.70399475    4.90999985    1.83000004
   15.89861107  333.23800659    4.90999985    1.94000006
   15.90472221  333.23800659    4.90999985    1.80999994
   15.90861034  192.91200256    4.90999985    1.71000004
   15.91194439   83.98390198    4.90999985    1.78999996
   15.91527748   98.31909943    4.90999985    1.63000000
   15.91833401   78.46369934    4.90999985    1.73000002
   15.92166710   -1.00000000   -1.00000000   -1.00000000
   15.92527771   -1.00000000   -1.00000000   -1.00000000
   15.92861176   -1.00000000    4.90999985    1.63000000
   15.93166733   -1.00000000    4.90999985    1.60000002
   15.93500042   -1.00000000    4.90999985    1.60000002
   15.93805599   -1.00000000    4.90999985    1.41999996
   15.94138908   64.99559784    4.90999985    1.55999994
   15.94750023   64.99559784    4.90999985    1.66999996
   15.95166683   -1.00000000    4.90999985    1.69000006
   15.95472240   97.54389954    4.90999985    1.61000001
   15.95833302   -1.00000000    4.90999985    1.50000000
   15.96166611   -1.00000000    4.90999985    1.36000001
   15.96472168   23.57019997    4.90999985    1.53999996
   15.96805477   -1.00000000    4.90999985    1.63000000
   15.97111034   -1.00000000    4.90999985    1.63000000
   15.97444439   -1.00000000    4.90999985    1.51999998
   15.97777748   -1.00000000    4.90999985    1.46000004
   15.98083305   -1.00000000    4.90999985    1.26999998
   15.98416710   -1.00000000    4.90999985    1.26999998
   15.99444485   -1.00000000    4.90999985    1.23000002
   15.99750042   -1.00000000    4.90999985    0.80000001
   16.00083351   -1.00000000    4.90999985    1.26999998
   16.00416756   -1.00000000    4.90999985    1.25000000
   16.00722313   -1.00000000    4.90999985    0.95999998
   16.01055527   -1.00000000    4.90999985    0.75000000
   16.01361084   -1.00000000    4.90999985    0.61000001
   16.01694489   -1.00000000    4.90999985    1.03999996
   16.02027702   -1.00000000    4.90999985    0.67000002
   16.02361107   -1.00000000    4.90999985    1.46000004
   16.02694511   -1.00000000    4.90999985    1.09000003
   16.03722191   -1.00000000    4.90999985    1.00000000
   16.04055595   -1.00000000    4.90999985    1.14999998
   16.04361153   -1.00000000    4.90999985    1.38000000
   16.04694366   -1.00000000    4.90999985    1.36000001
   16.04999924   -1.00000000    4.90999985    0.95999998
   16.05333328   -1.00000000    4.90999985    0.86000001
   16.05694389   -1.00000000    4.90999985    0.98000002
   16.06027794   -1.00000000    4.90999985    0.81999999
   16.06333351   -1.00000000    4.90999985    0.98000002
   16.06666756   -1.00000000    4.90999985    1.05999994
   16.06972313   -1.00000000    4.90999985    0.83999997
   16.08000183   -1.00000000    4.90999985    0.75000000
   16.08333397   -1.00000000    4.90999985    1.14999998
   16.08638954   -1.00000000    4.90999985    1.16999996
   16.09000015   -1.00000000    4.90999985    1.23000002
   16.09333420   -1.00000000    4.90999985    1.05999994
   16.09638977   -1.00000000    4.90999985    1.21000004
   16.09972191   -1.00000000    4.90999985    1.53999996
   16.10277748   60.51190186    4.90999985    1.60000002
   16.10611153   85.47010040    4.90999985    1.66999996
   16.10944557  115.48400116    4.90999985    1.66999996
   16.11250114  127.52300262    4.90999985    1.73000002
   16.11888885  127.52300262    4.90999985    1.63000000
   16.12305641   -1.00000000    4.90999985    1.55999994
   16.12611198   -1.00000000    4.90999985    1.23000002
   16.12944412   -1.00000000    4.90999985    1.19000006
   16.13249969   -1.00000000    4.90999985    0.88000000
   16.13583374   -1.00000000    4.90999985    0.94000000
   16.13916588   -1.00000000    4.90999985    1.16999996
   16.14222145   -1.00000000    4.90999985    1.55999994
   16.14555550   -1.00000000    4.90999985    1.39999998
   16.14888954   -1.00000000    4.90999985    1.38000000
   16.15194321   -1.00000000    4.90999985    1.19000006
   16.15527725   -1.00000000    4.90999985    0.76999998
   16.16166687   -1.00000000    4.90999985    0.64999998
   16.16583252   -1.00000000    4.90999985    1.46000004
   16.16888809   -1.00000000    4.90999985    1.64999998
   16.17222214   -1.00000000    4.90999985    1.41999996
   16.17555428  113.36299896    4.90999985    1.51999998
   16.17860985   87.74669647    4.90999985    1.64999998
   16.18194389   -1.00000000    4.90999985    1.69000006
   16.18527603   -1.00000000    4.90999985    1.16999996
   16.18833160   -1.00000000    4.90999985    1.11000001
   16.19194412   -1.00000000    4.90999985    0.92000002
   16.19527626   -1.00000000    4.90999985    0.63000000
   16.19833183   -1.00000000    4.90999985    0.73000002
   16.20444489   -1.00000000    4.90999985    1.69000006
   16.20861244   27.35549927    4.90999985    1.75000000
   16.21194458   35.92110062    4.90999985    1.71000004
   16.21500015   -1.00000000   -1.00000000   -1.00000000
   16.21833420   -1.00000000    4.90999985    1.66999996
   16.22166634   70.91699982    4.90999985    1.63000000
   16.22500038   85.77850342    4.90999985    1.61000001
   16.22833443   -1.00000000    4.90999985    1.63000000
   16.23139000   -1.00000000    4.90999985    1.61000001
   16.23472214   -1.00000000    4.90999985    1.61000001
   16.23805618   -1.00000000    4.90999985    1.60000002
   16.24111176   -1.00000000    4.90999985    1.38000000
   16.25138855   -1.00000000    4.90999985    0.58999997
   16.25472260   -1.00000000    4.90999985    0.95999998
   16.25805473   -1.00000000    4.90999985    0.83999997
   16.26138878   -1.00000000    4.90999985    0.98000002
   16.26444435   -1.00000000    4.90999985    1.28999996
   16.26777840   -1.00000000    4.90999985    1.36000001
   16.27111053   -1.00000000    4.90999985    1.34000003
   16.27416611   -1.00000000    4.90999985    1.09000003
   16.27750015   -1.00000000    4.90999985    1.46000004
   16.28083229   -1.00000000    4.90999985    1.50000000
   16.28388786   -1.00000000    4.90999985    1.53999996
   16.29027748   -1.00000000    4.90999985    1.39999998
   16.29444313   -1.00000000    4.90999985    0.70999998
   16.29749870   -1.00000000    4.90999985    0.67000002
   16.30083275   -1.00000000    4.90999985    0.81999999
   16.30388832   -1.00000000    4.90999985    0.47999999
   16.30722237   -1.00000000    4.90999985    0.58999997
   16.31055450   -1.00000000    4.90999985    0.55000001
   16.31361008   -1.00000000    4.90999985    0.51999998
   16.31694603   -1.00000000    4.90999985    0.52999997
   16.32027817   -1.00000000    4.90999985    0.58999997
   16.32361221   -1.00000000    4.90999985    0.40000001
   16.32694626   -1.00000000    4.90999985    0.38000000
   16.33722305   -1.00000000    4.90999985    0.80000001
   16.34027863   -1.00000000    4.90999985    1.09000003
   16.34361267   -1.00000000    4.90999985    0.92000002
   16.34694481   -1.00000000    4.90999985    1.13000000
   16.35000038   -1.00000000    4.90999985    1.19000006
   16.35333443   -1.00000000    4.90999985    1.11000001
   16.35666656   -1.00000000    4.90999985    0.95999998
   16.36000061   -1.00000000    4.90999985    0.79000002
   16.36305618   -1.00000000    4.90999985    0.75000000
   16.36638832   -1.00000000    4.90999985    0.64999998
   16.36972237   -1.00000000    4.90999985    0.34000000
   16.38000107   -1.00000000    4.90999985    0.09000000
   16.38333321   -1.00000000    4.90999985    0.11000000
   16.38638878   -1.00000000    4.90999985    0.11000000
   16.38999939   -1.00000000    4.90999985    0.36000001
   16.39333344   -1.00000000    4.90999985    0.17000000
   16.39638901   -1.00000000    4.90999985    0.13000000
   16.39972115   -1.00000000    4.90999985    0.20999999
   16.40305519   -1.00000000    4.90999985    0.31999999
   16.40611076   -1.00000000    4.90999985    0.15000001
   16.40944481   -1.00000000    4.90999985    0.25999999
   16.41250038   -1.00000000    4.90999985    0.47999999
   16.42277718   -1.00000000    4.90999985    0.38000000
   16.42611122   -1.00000000    4.90999985    0.67000002
   16.42916679   -1.00000000    4.90999985    0.69000000
   16.43249893   -1.00000000    4.90999985    0.76999998
   16.43583298   -1.00000000    4.90999985    0.50000000
   16.43888855   -1.00000000    4.90999985    0.86000001
   16.44222069   -1.00000000    4.90999985    1.25000000
   16.44555473   -1.00000000    4.90999985    0.55000001
   16.44861031   -1.00000000    4.90999985    0.47999999
   16.45194435   -1.00000000    4.90999985    0.64999998
   16.45499992   -1.00000000    4.90999985    1.03999996
   16.48083305   -1.00000000    4.90999985    0.79000002
   16.48388863   -1.00000000    4.90999985    0.44000000
   16.48722267   -1.00000000    4.90999985    0.76999998
   16.49055672   -1.00000000    4.90999985    0.80000001
   16.49388885   -1.00000000    4.90999985    0.55000001
   16.49694443   -1.00000000    4.90999985    0.98000002
   16.50027847   -1.00000000    4.90999985    1.25000000
   16.50361061   -1.00000000    4.90999985    1.03999996
   16.50666618   -1.00000000    4.90999985    0.63000000
   16.51000023   -1.00000000    4.90999985    0.40000001
   16.51333427   -1.00000000    4.90999985    1.26999998
   16.52361107   -1.00000000    4.90999985    1.03999996
   16.52666664   -1.00000000    4.90999985    1.36000001
   16.53000069   -1.00000000    4.90999985    1.23000002
   16.53305435   -1.00000000    4.90999985    1.39999998
   16.53638840   -1.00000000    4.90999985    1.60000002
   16.53972244   -1.00000000    4.90999985    1.00000000
   16.54277802   -1.00000000    4.90999985    0.64999998
   16.54611015   -1.00000000    4.90999985    0.80000001
   16.54944420   -1.00000000    4.90999985    0.75000000
   16.55249977   -1.00000000    4.90999985    0.50000000
   16.55583191   -1.00000000    4.90999985    0.28000000
   16.56222153   -1.00000000    4.90999985    1.07000005
   16.56638718   -1.00000000    4.90999985    1.58000004
   16.56972313   -1.00000000    4.90999985    1.16999996
   16.57277870   -1.00000000    4.90999985    1.03999996
   16.57611275   -1.00000000    4.90999985    1.00000000
   16.57916832   -1.00000000    4.90999985    0.31999999
   16.58250046   -1.00000000    4.90999985    0.34000000
   16.58583450   -1.00000000    4.90999985    0.38000000
   16.58889008   -1.00000000    4.90999985    0.79000002
   16.59250069   -1.00000000    4.90999985    0.76999998
   16.59583473   -1.00000000    4.90999985    0.63000000
   16.59889030   -1.00000000    4.90999985    0.61000001
   16.60916710   -1.00000000    4.90999985    0.73000002
   16.61277771   -1.00000000    4.90999985    0.56999999
   16.61583328   -1.00000000    4.90999985    1.14999998
   16.61916733   -1.00000000    4.90999985    1.05999994
   16.62249947   -1.00000000    4.90999985    0.58999997
   16.62583351   -1.00000000    4.90999985    0.30000001
   16.62916756   -1.00000000    4.90999985    0.13000000
   16.63222313   -1.00000000    4.90999985    1.23000002
   16.63555527   75.98750305    4.90999985    1.23000002
   16.63888931   85.30670166    4.90999985    1.60000002
   16.64194489   -1.00000000    4.90999985    1.66999996
   16.65194321   -1.00000000    4.90999985    0.81999999
   16.65555573   -1.00000000    4.90999985    0.83999997
   16.65916634   -1.00000000    4.90999985    0.38000000
   16.66250038   -1.00000000    4.90999985    0.31999999
   16.66555595   -1.00000000    4.90999985    0.34000000
   16.66888809   -1.00000000    4.90999985    0.34000000
   16.67222214   -1.00000000    4.90999985    0.13000000
   16.67527771   -1.00000000    4.90999985    0.19000000
   16.67860985   -1.00000000    4.90999985    0.56999999
   16.68166542   -1.00000000    4.90999985    0.46000001
   16.68499947   -1.00000000    4.90999985    0.50000000
   16.69499969   -1.00000000    4.90999985    0.79000002
   16.69805527   -1.00000000    4.90999985    0.86000001
   16.70138931   -1.00000000    4.90999985    1.25000000
   16.70444489   -1.00000000    4.90999985    0.88000000
   16.70777893   -1.00000000    4.90999985    0.44000000
   16.71111107   -1.00000000    4.90999985    0.47999999
   16.71416664   -1.00000000    4.90999985    0.56999999
   16.71750069   -1.00000000    4.90999985    0.58999997
   16.72083473   -1.00000000    4.90999985    0.58999997
   16.72416687   -1.00000000    4.90999985    0.34000000
   16.72750092   -1.00000000    4.90999985    0.23000000
   16.73777771   -1.00000000    4.90999985    0.19000000
   16.74083328   -1.00000000    4.90999985    0.28000000
   16.74416733   -1.00000000    4.90999985    0.36000001
   16.74749947   -1.00000000    4.90999985    0.51999998
   16.75055504   -1.00000000    4.90999985    0.98000002
   16.75388908   -1.00000000    4.90999985    1.13000000
   16.75749969   -1.00000000    4.90999985    1.09000003
   16.76083374   -1.00000000    4.90999985    0.58999997
   16.76388931   -1.00000000    4.90999985    0.34000000
   16.76722145   -1.00000000    4.90999985    0.28000000
   16.77055550   -1.00000000    4.90999985    0.11000000
   16.78055573   -1.00000000    4.90999985    0.56999999
   16.78388786   -1.00000000    4.90999985    0.89999998
   16.78694344   -1.00000000    4.90999985    1.00000000
   16.79055595   -1.00000000    4.90999985    0.79000002
   16.79388809   -1.00000000    4.90999985    0.61000001
   16.79694366   -1.00000000    4.90999985    0.36000001
   16.80027771   -1.00000000    4.90999985    0.36000001
   16.80360985   -1.00000000    4.90999985    1.28999996
   16.80666542   -1.00000000    4.90999985    1.25000000
   16.80999947   -1.00000000    4.90999985    1.09000003
   16.81305504   -1.00000000    4.90999985    0.80000001
   16.82333374   -1.00000000    4.90999985    0.11000000
   16.82666779   -1.00000000    4.90999985    0.46000001
   16.83000183   -1.00000000    4.90999985    0.46000001
   16.83305550   -1.00000000    4.90999985    0.76999998
   16.83638954   82.95439911    4.90999985    1.53999996
   16.83944511  166.23100281    4.90999985    1.80999994
   16.84277916   96.01170349    4.90999985    1.73000002
   16.84611130   -1.00000000    4.90999985    1.64999998
   16.84916687   -1.00000000    4.90999985    1.14999998
   16.85250092   -1.00000000    4.90999985    1.23000002
   16.85583305   -1.00000000    4.90999985    0.63000000
   16.86638832   -1.00000000    4.90999985    1.19000006
   16.86944389   -1.00000000    4.90999985    0.50000000
   16.87277794   -1.00000000    4.90999985    0.38000000
   16.87583351   -1.00000000    4.90999985    0.83999997
   16.87916756   -1.00000000    4.90999985    1.30999994
   16.88249969   -1.00000000    4.90999985    1.34000003
   16.88555527   -1.00000000    4.90999985    1.11000001
   16.88888931   -1.00000000    4.90999985    1.25000000
   16.89222145   -1.00000000    4.90999985    1.13000000
   16.89555550   -1.00000000    4.90999985    1.23000002
   16.89861107   -1.00000000    4.90999985    1.33000004
   16.90499878   -1.00000000    4.90999985    1.63000000
   16.90916634   -1.00000000    4.90999985    1.64999998
   16.91222191   -1.00000000    4.90999985    0.80000001
   16.91555595   -1.00000000    4.90999985    0.13000000
   16.91888809   -1.00000000    4.90999985    0.09000000
   16.92194366   -1.00000000    4.90999985    0.55000001
   16.92555428   -1.00000000    4.90999985    0.38000000
   16.92888832   -1.00000000    4.90999985    0.11000000
   16.93194389   -1.00000000    4.90999985    0.30000001
   16.93527603   -1.00000000    4.90999985    1.33000004
   16.93861008   -1.00000000    4.90999985    0.95999998
   16.94166565   -1.00000000    4.90999985    0.41999999
   16.95194435   -1.00000000    4.90999985    0.88000000
   16.95527840  335.53100586    4.90999985    1.69000006
   16.95639038  240.27600098    4.90999985    1.76999998
   16.95861244  253.41200256    4.90999985    1.78999996
   16.96194458  229.96899414    4.90999985    1.88000000
   16.96527863  171.08399963    4.90999985    2.05999994
   16.96833420  171.98599243    4.90999985    2.17000008
   16.97166634  342.09799194    4.90999985    2.15000010
   16.97472191   -1.00000000    4.90999985    1.76999998
   16.97805595  188.55599976    4.90999985    1.38000000
   16.98139000  292.98901367    4.90999985    1.78999996
   16.98444557   -1.00000000    4.90999985    1.60000002
   16.99472237   -1.00000000    4.90999985    0.38000000
   16.99805641   -1.00000000    4.90999985    0.30000001
   17.00138855   -1.00000000    4.90999985    0.17000000
   17.00444412   -1.00000000    4.90999985    0.19000000
   17.00777817   -1.00000000    4.90999985    0.17000000
   17.01083374   -1.00000000    4.90999985    0.17000000
   17.01416588   -1.00000000    4.90999985    0.13000000
   17.01749992   -1.00000000    4.90999985    0.58999997
   17.02055550   -1.00000000    4.90999985    0.17000000
   17.02416611   -1.00000000    4.90999985    0.34000000
   17.02750015   -1.00000000    4.90999985    0.83999997
   17.03361130   -1.00000000    4.90999985    1.69000006
   17.03777695   -1.00000000    4.90999985    0.61000001
   17.04083252   -1.00000000    4.90999985    0.83999997
   17.04416656   -1.00000000    4.90999985    1.01999998
   17.04749870   -1.00000000    4.90999985    0.51999998
   17.05055428   -1.00000000    4.90999985    0.34000000
   17.05388832   -1.00000000    4.90999985    0.80000001
   17.05722237   -1.00000000    4.90999985    0.88000000
   17.06055450   -1.00000000    4.90999985    0.80000001
   17.06361008   -1.00000000    4.90999985    0.98000002
   17.06694603  314.26501465    4.90999985    1.44000006
   17.07027817  196.50700378    4.90999985    1.76999998
   17.07638931  196.50700378    4.90999985    1.83000004
   17.08055687  105.62599945    4.90999985    1.88000000
   17.08388901   -1.00000000    4.90999985    1.76999998
   17.08694458   -1.00000000    4.90999985    0.92000002
   17.09055710   -1.00000000    4.90999985    0.79000002
   17.09388924   -1.00000000    4.90999985    0.70999998
   17.09694481   -1.00000000    4.90999985    0.40000001
   17.10027885   -1.00000000    4.90999985    0.47999999
   17.10361099   -1.00000000    4.90999985    0.20999999
   17.10666656   -1.00000000    4.90999985    0.52999997
   17.11000061   -1.00000000    4.90999985    0.51999998
   17.11333466   -1.00000000    4.90999985    0.56999999
   17.12333298   -1.00000000    4.90999985    1.09000003
   17.12666702   -1.00000000    4.90999985    1.30999994
   17.12972260   -1.00000000    4.90999985    1.53999996
   17.13305473   -1.00000000    4.90999985    0.55000001
   17.13638878   -1.00000000    4.90999985    0.63000000
   17.13944435   -1.00000000    4.90999985    0.76999998
   17.14277840   -1.00000000    4.90999985    0.70999998
   17.14583397   -1.00000000    4.90999985    0.94000000
   17.14916611   -1.00000000    4.90999985    0.92000002
   17.15250015  315.94500732    4.90999985    1.76999998
   17.15555573  196.12399292    4.90999985    1.88000000
   17.15638924   53.46500015    4.90999985    1.88000000
   17.16611099   -1.00000000    4.90999985    0.67000002
   17.16944313   -1.00000000    4.90999985    0.51999998
   17.17277718   -1.00000000    4.90999985    0.52999997
   17.17583275   -1.00000000    4.90999985    0.34000000
   17.17916679   -1.00000000    4.90999985    0.36000001
   17.18222237   -1.00000000    4.90999985    0.75000000
   17.18555450   -1.00000000    4.90999985    1.09000003
   17.18888855   -1.00000000    4.90999985    0.75000000
   17.19222069   -1.00000000    4.90999985    0.47999999
   17.19555473   -1.00000000    4.90999985    0.31999999
   17.19888878   -1.00000000    4.90999985    0.51999998
   17.20499992   -1.00000000    4.90999985    0.86000001
   17.20916748  270.02099609    4.21999979    0.34000000
   17.21222305  326.48498535    3.14000010    0.20999999
   17.21555710  313.09100342    2.26999998    0.03000000
   17.21888924   -1.00000000    2.26999998    0.03000000
   17.22194481   -1.00000000    2.26999998    0.03000000
   17.22555542   -1.00000000    2.26999998    0.03000000
   17.22888947   -1.00000000    2.26999998    0.03000000
   17.23222351   -1.00000000    2.26999998    0.03000000
   17.23527718   -1.00000000    2.26999998    0.03000000
   17.23861122   -1.00000000    2.26999998    0.03000000
   17.24166679   -1.00000000    2.26999998    0.03000000
   17.25194359   28.69820023    2.26999998    0.03000000
   17.25499916  191.68899536    2.26999998    0.03000000
   17.25638962  330.79699707    2.26999998    0.03000000
   17.25888824  284.69100952    2.26999998    0.03000000
   17.26194382  263.82400513    2.26999998    0.03000000
   17.26527786   -1.00000000    2.26999998    0.03000000
   17.26833344   -1.00000000    2.26999998    0.03000000
   17.27166557   -1.00000000    2.26999998    0.03000000
   17.27499962   -1.00000000    2.26999998    0.03000000
   17.27805519   -1.00000000    2.26999998    0.03000000
   17.28138924   -1.00000000    2.26999998    0.03000000
   17.28472137   -1.00000000    2.26999998    0.03000000
   17.29055595   -1.00000000    2.26999998    0.03000000
   17.29472160   -1.00000000    2.26999998    0.03000000
   17.29805565   -1.00000000    2.26999998    0.03000000
   17.30111122   -1.00000000    2.26999998    0.03000000
   17.30444336   -1.00000000    2.26999998    0.03000000
   17.30777740   -1.00000000    2.26999998    0.03000000
   17.31110954   -1.00000000    2.26999998    0.03000000
   17.31416512   -1.00000000    2.26999998    0.03000000
   17.31750107   -1.00000000    2.26999998    0.03000000
   17.32055664   -1.00000000    2.26999998    0.03000000
   17.32416725   -1.00000000    2.26999998    0.03000000
   17.32750130   -1.00000000    2.26999998    0.03000000
   17.33750153   -1.00000000    2.26999998    0.03000000
   17.34083366   -1.00000000    2.26999998    0.03000000
