    HOUR (UT)   FLARE FACTOR    SKY TESTER    SUN TESTER
   11.74694443   -1.00000000   -1.00000000   -1.00000000
   11.78527832  422.41799927    4.90999985    2.07999992
   11.78972244  426.19400024    4.90999985    2.07999992
   11.79166698  448.95700073    4.90999985    2.07999992
   11.79305553  444.71099854    4.90999985    2.07999992
   11.79527855  436.91900635    4.90999985    2.07999992
   11.79583359  473.77999878    4.90999985    2.07999992
   11.79722309  460.68600464    4.90999985    2.07999992
   11.79861164  451.95300293    4.90999985    2.07999992
   11.80000019  425.79098511    4.90999985    2.07999992
   11.80138874  422.63500977    4.90999985    2.07999992
   11.80277824  453.77398682    4.90999985    2.07999992
   11.80416679  457.26300049    4.90999985    2.07999992
   11.80555534  463.04299927    4.90999985    2.07999992
   11.80694485  448.46099854    4.90999985    2.07999992
   11.80833340  440.10000610    4.90999985    2.07999992
   11.80972195  427.83099365    4.90999985    2.09999990
   11.81111145  431.44198608    4.90999985    2.09999990
   11.81250000  461.53298950    4.90999985    2.07999992
   11.81388950  461.18600464    4.90999985    2.07999992
   11.81527805  419.18798828    4.90999985    2.07999992
   11.81666660  426.80499268    4.90999985    2.07999992
   11.81805515  456.34698486    4.90999985    2.07999992
   11.81944466  449.65899658    4.90999985    2.09999990
   11.82083321  447.02099609    4.90999985    2.09999990
   11.82222176  422.44299316    4.90999985    2.09999990
   11.82361126  406.11199951    4.90999985    2.09999990
   11.82499981  447.38000488    4.90999985    2.09999990
   11.82638836  417.42098999    4.90999985    2.09999990
   11.82777786  439.33499146    4.90999985    2.09999990
   11.82916641  436.43301392    4.90999985    2.09999990
   11.83055592  456.81600952    4.90999985    2.09999990
   11.83194447  453.84600830    4.90999985    2.09999990
   11.83333302  417.95401001    4.90999985    2.09999990
   11.83472157  434.78201294    4.90999985    2.09999990
   11.83611107  423.67199707    4.90999985    2.09999990
   11.83749962  429.02301025    4.90999985    2.09999990
   11.83888817  457.50601196    4.90999985    2.11999989
   11.84027767  423.06900024    4.90999985    2.09999990
   11.84166622  429.28100586    4.90999985    2.11999989
   11.84305477  428.66699219    4.90999985    2.11999989
   11.84444427  439.60299683    4.90999985    2.09999990
   11.84583282  392.31698608    4.90999985    2.09999990
   11.84722233  399.43099976    4.90999985    2.11999989
   11.84861088  415.96099854    4.90999985    2.11999989
   11.85000038  417.44400024    4.90999985    2.11999989
   11.85138893  402.80801392    4.90999985    2.11999989
   11.85277843  410.63800049    4.90999985    2.11999989
   11.85416698  426.48599243    4.90999985    2.11999989
   11.85555553  437.41400146    4.90999985    2.09999990
   11.85694504  419.78799438    4.90999985    2.09999990
   11.85833359  410.20999146    4.90999985    2.11999989
   11.85972214  419.61599731    4.90999985    2.11999989
   11.86111164  421.28601074    4.90999985    2.11999989
   11.86250019  409.30801392    4.90999985    2.11999989
   11.86388969  404.11700439    4.90999985    2.11999989
   11.86527824  412.67001343    4.90999985    2.11999989
   11.86666679  402.15899658    4.90999985    2.11999989
   11.86805534  388.11599731    4.90999985    2.11999989
   11.86944485  434.89498901    4.90999985    2.11999989
   11.87083340  384.40600586    4.90999985    2.11999989
   11.87222195  405.50900269    4.90999985    2.13000011
   11.87361145  417.24700928    4.90999985    2.11999989
   11.87500000  384.20700073    4.90999985    2.11999989
   11.87638855  398.75100708    4.90999985    2.13000011
   11.87777805  424.12298584    4.90999985    2.11999989
   11.87916660  388.02499390    4.90999985    2.11999989
   11.88055611  401.97799683    4.90999985    2.13000011
   11.88194466  407.01400757    4.90999985    2.13000011
   11.88333321  437.29901123    4.90999985    2.13000011
   11.88472176  399.76599121    4.90999985    2.11999989
   11.88611126  371.86499023    4.90999985    2.11999989
   11.88749981  390.55200195    4.90999985    2.13000011
   11.88888836  387.64801025    4.90999985    2.13000011
   11.89027786  384.91598511    4.90999985    2.13000011
   11.89166641  388.53298950    4.90999985    2.11999989
   11.89305496  396.91799927    4.90999985    2.13000011
   11.89444447  385.07901001    4.90999985    2.13000011
   11.89583302  405.54998779    4.90999985    2.13000011
   11.89722252  410.02899170    4.90999985    2.13000011
   11.89861107  391.64300537    4.90999985    2.13000011
   11.89999962  403.04098511    4.90999985    2.13000011
   11.90138817  380.21301270    4.90999985    2.13000011
   11.90277767  377.54098511    4.90999985    2.13000011
   11.90416622  380.17898560    4.90999985    2.13000011
   11.90555477  379.54998779    4.90999985    2.13000011
   11.90694427  390.17999268    4.90999985    2.13000011
   11.90833282  324.44400024    4.90999985    2.13000011
   11.90861034  426.19400024    4.90999985    2.07999992
   11.90916634  393.11499023    4.90999985    2.13000011
   11.91222191  384.17199707    4.90999985    2.13000011
   11.91555500  373.26098633    4.90999985    2.15000010
   11.91888905  356.38500977    4.90999985    2.13000011
   11.92194462  376.20800781    4.90999985    2.13000011
   11.92527771  368.05099487    4.90999985    2.13000011
   11.92944431  368.05099487    4.90999985    2.13000011
   11.93361092  379.68899536    4.90999985    2.13000011
   11.93666649  360.07101440    4.90999985    2.15000010
   11.94000053  354.54400635    4.90999985    2.13000011
   11.94222260  353.97198486    4.90999985    2.15000010
   11.94361115  385.02801514    4.90999985    2.15000010
   11.94694424  355.93899536    4.90999985    2.15000010
   11.94999981  374.70300293    4.90999985    2.17000008
   11.95333290  368.72000122    4.90999985    2.15000010
   11.95638847  359.98498535    4.90999985    2.17000008
   11.95972157  373.02999878    4.90999985    2.15000010
   11.96305561  347.78799438    4.90999985    2.15000010
   11.96611118  325.80398560    4.90999985    2.15000010
   11.97222137  325.80398560    4.90999985    2.15000010
   11.97638798  350.55499268    4.90999985    2.17000008
   11.97972202  338.81900024    4.90999985    2.17000008
   11.98277760  316.63900757    4.90999985    2.17000008
   11.98611164  360.85800171    4.90999985    2.17000008
   11.98916721  346.96600342    4.90999985    2.17000008
   11.99250031  315.57901001    4.90999985    2.17000008
   11.99583340  355.36300659    4.90999985    2.17000008
   11.99888897  369.64801025    4.90999985    2.17000008
   12.00222206  347.30899048    4.90999985    2.17000008
   12.00555515  305.34899902    4.90999985    2.17000008
   12.00861073  343.84899902    4.90999985    2.19000006
   12.00916672  310.44198608    4.90999985    2.19000006
   12.01500034  310.44198608    4.90999985    2.19000006
   12.01916599  314.19100952    4.90999985    2.19000006
   12.02250004  324.17199707    4.90999985    2.21000004
   12.02555561  320.01599121    4.90999985    2.19000006
   12.02888870  344.58401489    4.90999985    2.19000006
   12.03222179  324.48498535    4.90999985    2.21000004
   12.03527832  364.83801270    4.90999985    2.19000006
   12.03861141  321.92098999    4.90999985    2.19000006
   12.04194450  326.00201416    4.90999985    2.19000006
   12.04250050  306.43600464    4.90999985    2.19000006
   12.04555607  325.17098999    4.90999985    2.19000006
   12.04861164  343.21200562    4.90999985    2.21000004
   12.05194473  326.13500977    4.90999985    2.21000004
   12.05805588  326.13500977    4.90999985    2.21000004
   12.06194496  294.35400391    4.90999985    2.21000004
   12.06527805  273.85000610    4.90999985    2.21000004
   12.06861115  282.22399902    4.90999985    2.21000004
   12.07166672  273.39401245    4.90999985    2.23000002
   12.07499981  319.00500488    4.90999985    2.21000004
   12.07583332  290.88198853    4.90999985    2.21000004
   12.07861137  273.68200684    4.90999985    2.23000002
   12.08166695  298.37100220    4.90999985    2.21000004
   12.08500004  288.19400024    4.90999985    2.23000002
   12.08833313  295.31600952    4.90999985    2.23000002
   12.09138870  293.57400513    4.90999985    2.23000002
   12.09472179  302.92001343    4.90999985    2.23000002
   12.10083389  302.92001343    4.90999985    2.23000002
   12.10500050  294.99301147    4.90999985    2.23000002
   12.10805607  253.20199585    4.90999985    2.23000002
   12.10916710  269.91598511    4.90999985    2.25000000
   12.11194515  267.60400391    4.90999985    2.23000002
   12.11500072  264.61099243    4.90999985    2.23000002
   12.11833382  287.50201416    4.90999985    2.23000002
   12.12166691  343.94198608    4.90999985    2.23000002
   12.12472248  279.14199829    4.90999985    2.23000002
   12.12805557  292.10598755    4.90999985    2.23000002
   12.13138866  308.38800049    4.90999985    2.25000000
   12.13444424  311.06600952    4.90999985    2.25000000
   12.13777733  312.72601318    4.90999985    2.25000000
   12.14361095  312.72601318    4.90999985    2.25000000
   12.14777756  281.76000977    4.90999985    2.25000000
   12.15111065  272.29299927    4.90999985    2.25000000
   12.15416622  335.61700439    4.90999985    2.25000000
   12.15749931  272.28698730    4.90999985    2.25000000
   12.16055489  261.35299683    4.90999985    2.25000000
   12.16388893  274.22299194    4.90999985    2.25000000
   12.16722298  263.92300415    4.90999985    2.26999998
   12.17027855  309.04098511    4.90999985    2.26999998
   12.17361164  301.29699707    4.90999985    2.26999998
   12.17583370  297.19000244    4.90999985    2.26999998
   12.17722225  292.12899780    4.90999985    2.26999998
   12.18027782  279.35900879    4.90999985    2.25000000
   12.18638897  279.35900879    4.90999985    2.26999998
   12.19055557  299.02398682    4.90999985    2.26999998
   12.19388866  311.38500977    4.90999985    2.26999998
   12.19694424  270.92098999    4.90999985    2.26999998
   12.20027733  297.07000732    4.90999985    2.26999998
   12.20361137  343.60998535    4.90999985    2.26999998
   12.20666695  289.84799194    4.90999985    2.28999996
   12.20916653  282.97000122    4.90999985    2.28999996
   12.21055508  317.35299683    4.90999985    2.28999996
   12.21361065  320.67401123    4.90999985    2.26999998
   12.21694374  317.24600220    4.90999985    2.28999996
   12.22027779  317.17999268    4.90999985    2.28999996
   12.22333336  281.60998535    4.90999985    2.28999996
   12.22944355  281.60998535    4.90999985    2.28999996
   12.23333359  312.85501099    4.90999985    2.28999996
   12.23666668  201.51800537    4.90999985    2.26999998
   12.24000072  277.83898926    4.90999985    2.28999996
   12.24250031  322.58499146    4.90999985    2.28999996
   12.24361134  314.62298584    4.90999985    2.30999994
   12.24666691  303.44601440    4.90999985    2.26999998
   12.25000000  296.90301514    4.90999985    2.28999996
   12.25333309  318.97500610    4.90999985    2.28999996
   12.25638866  316.72500610    4.90999985    2.30999994
   12.25972176  312.17898560    4.90999985    2.28999996
   12.26305580  305.63900757    4.90999985    2.28999996
   12.26611137  257.00500488    4.90999985    2.28999996
   12.27222157  257.00500488    4.90999985    2.30999994
   12.27638817  278.48400879    4.90999985    2.30999994
   12.27944374  281.77200317    4.90999985    2.30999994
   12.28277779  271.84298706    4.90999985    2.32999992
   12.28611183  282.17199707    4.90999985    2.30999994
   12.28916740  269.42599487    4.90999985    2.30999994
   12.29250050  251.61500549    4.90999985    2.30999994
   12.29555607  276.14801025    4.90999985    2.30999994
   12.29888916  249.12600708    4.90999985    2.30999994
   12.30222225  245.87500000    4.90999985    2.30999994
   12.30527782  260.74200439    4.90999985    2.30999994
   12.30861092  276.49200439    4.90999985    2.30999994
   12.30916691  256.68701172    4.90999985    2.30999994
   12.31500053  256.68701172    4.90999985    2.30999994
   12.31916618  281.55499268    4.90999985    2.32999992
   12.32250023  266.32199097    4.90999985    2.30999994
   12.32555580  247.90699768    4.90999985    2.34999990
   12.32888889  254.21200562    4.90999985    2.32999992
   12.33194447  286.36599731    4.90999985    2.32999992
   12.33527756  274.80899048    4.90999985    2.30999994
   12.33861065  263.00900269    4.90999985    2.32999992
   12.34166622  257.88299561    4.90999985    2.32999992
   12.34249973  256.31799316    4.90999985    2.32999992
   12.34527779  280.03100586    4.90999985    2.32999992
   12.34861088  274.36999512    4.90999985    2.32999992
   12.35166740  234.92100525    4.90999985    2.32999992
   12.35777855  234.92100525    4.90999985    2.32999992
   12.36194515  257.40499878    4.90999985    2.32999992
   12.36527824  269.04299927    4.90999985    2.34999990
   12.36861134  258.92599487    4.90999985    2.32999992
   12.37166691  263.99099731    4.90999985    2.32999992
   12.37500000  270.09500122    4.90999985    2.32999992
   12.37583351  229.78900146    4.90999985    2.32999992
   12.37861156  258.63299561    4.90999985    2.34999990
   12.38194466  247.96099854    4.90999985    2.34999990
   12.38500023  283.85800171    4.90999985    2.34999990
   12.38833332  269.37701416    4.90999985    2.34999990
   12.39138889  281.63900757    4.90999985    2.34999990
   12.39472198  287.76400757    4.90999985    2.34999990
   12.40083313  287.76400757    4.90999985    2.36999989
   12.40499973  271.61199951    4.90999985    2.34999990
   12.40805531  270.22198486    4.90999985    2.34999990
   12.40916634  275.97601318    4.90999985    2.34999990
   12.41166592  277.11199951    4.90999985    2.34999990
   12.41499996  270.42599487    4.90999985    2.34999990
   12.41805553  279.50399780    4.90999985    2.34999990
   12.42138958  275.41500854    4.90999985    2.34999990
   12.42444515  276.66101074    4.90999985    2.34999990
   12.42777824  283.03298950    4.90999985    2.36999989
   12.43111134  274.92401123    4.90999985    2.34999990
   12.43416691  276.32000732    4.90999985    2.36999989
   12.43750000  283.13400269    4.90999985    2.34999990
   12.44361115  283.13400269    4.90999985    2.36999989
   12.44777775  273.63101196    4.90999985    2.36999989
   12.45083332  290.61401367    4.90999985    2.36999989
   12.45416641  281.16101074    4.90999985    2.34999990
   12.45749950  280.71899414    4.90999985    2.34999990
   12.46055508  253.95599365    4.90999985    2.34999990
   12.46388912  255.21099854    4.90999985    2.36999989
   12.46722221  280.60299683    4.90999985    2.36999989
   12.47027779  242.36399841    4.90999985    2.34999990
   12.47361088  265.48800659    4.90999985    2.36999989
   12.47583294  268.29598999    4.90999985    2.34999990
   12.47722149  264.14498901    4.90999985    2.34999990
   12.48055553  241.63800049    4.90999985    2.36999989
   12.48638916  241.63800049    4.90999985    2.36999989
   12.49055576  242.51699829    4.90999985    2.36999989
   12.49388885  265.46398926    4.90999985    2.36999989
   12.49694443  257.93499756    4.90999985    2.39000010
   12.50027752  257.61499023    4.90999985    2.36999989
   12.50361156  236.12199402    4.90999985    2.39000010
   12.50666714  232.43200684    4.90999985    2.36999989
   12.50916672  246.64199829    4.90999985    2.36999989
   12.51027775  271.99700928    4.90999985    2.36999989
   12.51361084  250.72900391    4.90999985    2.36999989
   12.51666641  272.86700439    4.90999985    2.36999989
   12.51999950  279.27999878    4.90999985    2.39000010
   12.52305508  267.22399902    4.90999985    2.39000010
   12.52916622  267.22399902    4.90999985    2.39000010
   12.53333378  261.81298828    4.90999985    2.39000010
   12.53666687  262.48498535    4.90999985    2.39000010
   12.53972244  259.17098999    4.90999985    2.39000010
   12.54250050  272.40301514    4.90999985    2.39000010
   12.54361153  267.75100708    4.90999985    2.39000010
   12.54694462  259.73199463    4.90999985    2.39000010
   12.55000019  265.41799927    4.90999985    2.39000010
   12.55333328  268.82800293    4.90999985    2.39000010
   12.55638885  239.51899719    4.90999985    2.39000010
   12.55972195  249.77900696    4.90999985    2.39000010
   12.56305599  261.06399536    4.90999985    2.39000010
   12.56611156  276.45001221    4.90999985    2.39000010
   12.57222176  276.45001221    4.90999985    2.39000010
   12.57611084  259.35800171    4.90999985    2.40000010
   12.57944393  261.94000244    4.90999985    2.40000010
   12.58277798  272.01300049    4.90999985    2.39000010
   12.58583260  261.67300415    4.90999985    2.39000010
   12.58916664  264.00799561    4.90999985    2.39000010
   12.59249973  273.17498779    4.90999985    2.39000010
   12.59555531  268.61300659    4.90999985    2.40000010
   12.59888840  261.23498535    4.90999985    2.40000010
   12.60194492  280.62799072    4.90999985    2.40000010
   12.60527802  294.14199829    4.90999985    2.40000010
   12.60861111  271.72100830    4.90999985    2.40000010
   12.60916710  274.40100098    4.90999985    2.40000010
   12.61500072  274.40100098    4.90999985    2.40000010
   12.61916637  267.56100464    4.90999985    2.40000010
   12.62222195  264.06799316    4.90999985    2.40000010
   12.62555599  274.41198730    4.90999985    2.39000010
   12.62888908  272.57901001    4.90999985    2.40000010
   12.63194466  253.13099670    4.90999985    2.40000010
   12.63527775  280.98498535    4.90999985    2.40000010
   12.63833332  261.06100464    4.90999985    2.40000010
   12.64166641  263.24600220    4.90999985    2.40000010
   12.64249992  254.42700195    4.90999985    2.40000010
   12.64527798  271.69000244    4.90999985    2.42000008
   12.64861107  250.83000183    4.90999985    2.40000010
   12.65166664  263.50601196    4.90999985    2.42000008
   12.65777779  263.50601196    4.90999985    2.42000008
   12.66194439  272.84899902    4.90999985    2.42000008
   12.66527748  253.24299622    4.90999985    2.40000010
   12.66833401  260.35198975    4.90999985    2.40000010
   12.67166710  256.56900024    4.90999985    2.42000008
   12.67472267  261.45401001    4.90999985    2.40000010
   12.67583370  259.25100708    4.90999985    2.42000008
   12.67833328  255.86000061    4.90999985    2.42000008
   12.68166733  253.40199280    4.90999985    2.42000008
   12.68472195  268.90301514    4.90999985    2.44000006
   12.68805599  262.45999146    4.90999985    2.44000006
   12.69138908  269.79699707    4.90999985    2.42000008
   12.69444466  252.16099548    4.90999985    2.42000008
   12.70055580  252.16099548    4.90999985    2.44000006
   12.70472240  275.26000977    4.90999985    2.42000008
   12.70805550  257.26599121    4.90999985    2.44000006
   12.70916653  272.04501343    4.90999985    2.44000006
   12.71166611  267.64801025    4.90999985    2.42000008
   12.71500015  274.94198608    4.90999985    2.44000006
   12.71805477  267.60699463    4.90999985    2.44000006
   12.72138882  273.71301270    4.90999985    2.44000006
   12.72472191  274.25000000    4.90999985    2.44000006
   12.72777748  274.58200073    4.90999985    2.44000006
   12.73111057  274.57501221    4.90999985    2.42000008
   12.73416710  257.33599854    4.90999985    2.44000006
   12.73750019  261.58099365    4.90999985    2.44000006
   12.74361134  261.58099365    4.90999985    2.42000008
   12.74750042  257.95999146    4.90999985    2.44000006
   12.75083351  273.68200684    4.90999985    2.42000008
   12.75416660  270.43399048    4.90999985    2.44000006
   12.75722218  258.18701172    4.90999985    2.44000006
   12.76055527  264.51800537    4.90999985    2.44000006
   12.76388931  272.57400513    4.90999985    2.44000006
   12.76694393  261.82598877    4.90999985    2.46000004
   12.77027798  261.30899048    4.90999985    2.46000004
   12.77333355  273.32699585    4.90999985    2.46000004
   12.77583313  255.33000183    4.90999985    2.44000006
   12.77694416  258.49700928    4.90999985    2.46000004
   12.78027725  248.39999390    4.90999985    2.46000004
   12.80277824  244.72999573    4.90999985    2.46000004
   12.80305576  229.55599976    4.90999985    2.46000004
   12.80638885  245.26600647    4.90999985    2.44000006
   12.80944443  252.46299744    4.90999985    2.46000004
   12.81000042  223.71499634    4.90999985    2.44000006
   12.81333351  229.03700256    4.90999985    2.46000004
   12.81666660  249.88200378    4.90999985    2.46000004
   12.81972218  231.36799622    4.90999985    2.46000004
   12.82305527  235.44000244    4.90999985    2.46000004
   12.82916641  235.44000244    4.90999985    2.46000004
   12.83333302  214.64100647    4.90999985    2.46000004
   12.83666611  237.01899719    4.90999985    2.46000004
   12.83972168  223.03399658    4.90999985    2.46000004
   12.84277725  208.58900452    4.90999985    2.46000004
   12.84333324  215.00300598    4.90999985    2.46000004
   12.84666634  206.52099609    4.90999985    2.46000004
   12.85000038  217.18400574    4.90999985    2.46000004
   12.85305595  223.42900085    4.90999985    2.46000004
   12.85638905  213.80700684    4.90999985    2.46000004
   12.85944462  217.97999573    4.90999985    2.46000004
   12.86277771  226.92500305    4.90999985    2.46000004
   12.86611176  225.38400269    4.90999985    2.48000002
   12.87194443  225.38400269    4.90999985    2.46000004
   12.87611103  246.19799805    4.90999985    2.48000002
   12.87944412  242.31199646    4.90999985    2.46000004
   12.88277817  237.90800476    4.90999985    2.48000002
   12.88583279  261.02398682    4.90999985    2.46000004
   12.88916683  244.17500305    4.90999985    2.48000002
   12.89222240  238.65499878    4.90999985    2.48000002
   12.89555550  263.56900024    4.90999985    2.48000002
   12.89888859  268.94198608    4.90999985    2.48000002
   12.90194416  242.28900146    4.90999985    2.48000002
   12.90527725  238.39199829    4.90999985    2.48000002
   12.90861034  262.72698975    4.90999985    2.48000002
   12.90944386  255.88099670    4.90999985    2.48000002
   12.91499996  255.88099670    4.90999985    2.50000000
   12.91916656  284.15200806    4.90999985    2.48000002
   12.92222214  271.23300171    4.90999985    2.48000002
   12.92555618  255.38099670    4.90999985    2.48000002
   12.92861176  269.43600464    4.90999985    2.50000000
   12.93194485  273.39001465    4.90999985    2.48000002
   12.93527794  257.29000854    4.90999985    2.50000000
   12.93833351  262.35400391    4.90999985    2.48000002
   12.94166660  257.47299194    4.90999985    2.48000002
   12.94277763  257.61700439    4.90999985    2.48000002
   12.94527817  258.24700928    4.90999985    2.48000002
   12.94861126  261.38299561    4.90999985    2.48000002
   12.95194435  270.03698730    4.90999985    2.48000002
   12.95777798  270.03698730    4.90999985    2.50000000
   12.96194458  268.39801025    4.90999985    2.50000000
   12.96500015  270.77200317    4.90999985    2.48000002
   12.96833324  266.14599609    4.90999985    2.48000002
   12.97166634  270.72000122    4.90999985    2.48000002
   12.97472191  264.19900513    4.90999985    2.48000002
   12.97611046  253.52699280    4.90999985    2.50000000
   12.97833252  254.27699280    4.90999985    2.48000002
   12.98166656  252.19299316    4.90999985    2.50000000
   12.98500061  257.86499023    4.90999985    2.48000002
   12.98805618  266.04800415    4.90999985    2.50000000
   12.99138927  242.43200684    4.90999985    2.48000002
   12.99472237  255.96400452    4.90999985    2.48000002
   13.00055599  255.96400452    4.90999985    2.48000002
   13.00472260  246.74600220    4.90999985    2.50000000
   13.00805569  252.18200684    4.90999985    2.50000000
   13.00944424  252.75799561    4.90999985    2.48000002
   13.01138878  245.95300293    4.90999985    2.48000002
   13.01472187  247.49000549    4.90999985    2.50000000
   13.01805496  247.64399719    4.90999985    2.50000000
   13.02111053  256.78100586    4.90999985    2.50000000
   13.02444458  252.59800720    4.90999985    2.50000000
   13.02777767  259.94500732    4.90999985    2.50000000
   13.03083324  261.48498535    4.90999985    2.50000000
   13.03416729  245.53999329    4.90999985    2.50000000
   13.03722286  252.98699951    4.90999985    2.50000000
   13.04333401  252.98699951    4.90999985    2.50000000
   13.04750061  264.60501099    4.90999985    2.50000000
   13.05083370  241.18200684    4.90999985    2.51999998
   13.05416679  258.94100952    4.90999985    2.50000000
   13.05722237  260.83300781    4.90999985    2.50000000
   13.06055546  274.61499023    4.90999985    2.50000000
   13.06361103  265.82598877    4.90999985    2.50000000
   13.06694412  249.30400085    4.90999985    2.50000000
   13.07027817  260.00900269    4.90999985    2.51999998
   13.07333374  263.10299683    4.90999985    2.50000000
   13.07611084  277.74600220    4.90999985    2.50000000
   13.07694435  282.12899780    4.90999985    2.51999998
   13.08027744  254.47900391    4.90999985    2.50000000
   13.08638859  254.47900391    4.90999985    2.51999998
   13.09055519  264.23199463    4.90999985    2.51999998
   13.09361076  265.42498779    4.90999985    2.51999998
   13.09694386  287.59799194    4.90999985    2.51999998
   13.10000038  279.63900757    4.90999985    2.50000000
   13.10333347  275.45700073    4.90999985    2.50000000
   13.10666752  286.26800537    4.90999985    2.50000000
   13.10944462  270.76199341    4.90999985    2.50000000
   13.11000061  282.60598755    4.90999985    2.51999998
   13.11333370  277.20498657    4.90999985    2.51999998
   13.11666679  277.22399902    4.90999985    2.51999998
   13.11972237  275.75201416    4.90999985    2.51999998
   13.12305546  288.55999756    4.90999985    2.51999998
   13.12916660  288.55999756    4.90999985    2.51999998
   13.13333321  285.69198608    4.90999985    2.51999998
   13.13638878  293.59201050    4.90999985    2.51999998
   13.13972187  281.58499146    4.90999985    2.51999998
   13.14277744  263.39801025    4.90999985    2.51999998
   13.14333344  279.52499390    4.90999985    2.51999998
   13.14666653  279.76800537    4.90999985    2.51999998
   13.14999962  259.98498535    4.90999985    2.51999998
   13.15305519  297.68099976    4.90999985    2.51999998
   13.15638828  292.47900391    4.90999985    2.51999998
   13.15972137  259.09399414    4.90999985    2.51999998
   13.16277695  292.63101196    4.90999985    2.51999998
   13.16611099  290.64700317    4.90999985    2.53999996
   13.17194462  290.64700317    4.90999985    2.51999998
   13.17611122  255.24099731    4.90999985    2.51999998
   13.17944431  260.23599243    4.90999985    2.53999996
   13.18249989  268.21099854    4.90999985    2.53999996
   13.18583298  282.62799072    4.90999985    2.53999996
   13.18916702  259.96798706    4.90999985    2.53999996
   13.19222260  262.47299194    4.90999985    2.53999996
   13.19555569  265.43600464    4.90999985    2.51999998
   13.19888878  254.85299683    4.90999985    2.53999996
   13.20194435  273.74398804    4.90999985    2.53999996
   13.20527744  279.45098877    4.90999985    2.53999996
   13.20861053  262.60900879    4.90999985    2.53999996
   13.20944405  263.21499634    4.90999985    2.53999996
   13.21472168  263.21499634    4.90999985    2.51999998
   13.21888828  271.99700928    4.90999985    2.51999998
   13.22222137  283.44299316    4.90999985    2.53999996
   13.22555542  271.42599487    4.90999985    2.53999996
   13.22861099  263.11499023    4.90999985    2.53999996
   13.23194408  264.71398926    4.90999985    2.53999996
   13.23500061  265.11898804    4.90999985    2.53999996
   13.23833370  257.76000977    4.90999985    2.53999996
   13.24166679  282.61199951    4.90999985    2.53999996
   13.24277782  265.62500000    4.90999985    2.53999996
   13.24527836  283.88500977    4.90999985    2.53999996
   13.24833393  296.20999146    4.90999985    2.53999996
   13.25166702  279.09500122    4.90999985    2.53999996
   13.25777817  279.09500122    4.90999985    2.53999996
   13.26194477  295.49301147    4.90999985    2.53999996
   13.26500034  278.19601440    4.90999985    2.53999996
   13.26833344  272.40798950    4.90999985    2.53999996
   13.27138901  259.42098999    4.90999985    2.55999994
   13.27472210  270.32800293    4.90999985    2.55999994
   13.27611065  263.05200195    4.90999985    2.53999996
   13.27861118  251.59500122    4.90999985    2.55999994
   13.28166676  273.30499268    4.90999985    2.53999996
   13.28500080  262.12600708    4.90999985    2.53999996
   13.28805637  262.48599243    4.90999985    2.53999996
   13.29138947  265.23999023    4.90999985    2.53999996
   13.29472256  260.37701416    4.90999985    2.53999996
   13.30055618  260.37701416    4.90999985    2.53999996
   13.30472279  244.10899353    4.90999985    2.55999994
   13.30777836  235.77200317    4.90999985    2.55999994
   13.30944443  243.88200378    4.90999985    2.55999994
   13.31166649  243.36399841    4.90999985    2.53999996
   13.31472206  240.50599670    4.90999985    2.53999996
   13.31805515  240.89999390    4.90999985    2.53999996
   13.32111073  229.44999695    4.90999985    2.53999996
   13.32444477  243.63600159    4.90999985    2.53999996
   13.32777786  229.19599915    4.90999985    2.53999996
   13.33083344  236.98599243    4.90999985    2.55999994
   13.33416653  227.42399597    4.90999985    2.55999994
   13.33749962  230.72599792    4.90999985    2.55999994
   13.34333324  230.72599792    4.90999985    2.55999994
   13.34749985  216.32099915    4.90999985    2.55999994
   13.35083389  227.87699890    4.90999985    2.55999994
   13.35388947  200.69700623    4.90999985    2.55999994
   13.35722256  192.12800598    4.90999985    2.53999996
   13.36055565  210.17500305    4.90999985    2.55999994
   13.36361122  198.28300476    4.90999985    2.53999996
   13.36694431  211.29800415    4.90999985    2.55999994
   13.36999989  197.35899353    4.90999985    2.55999994
   13.37333393  222.49400330    4.90999985    2.55999994
   13.37611103  204.69099426    4.90999985    2.55999994
   13.37722206  209.30799866    4.90999985    2.55999994
   13.38027763  209.66200256    4.90999985    2.55999994
   13.38611126  209.66200256    4.90999985    2.55999994
   13.39027786  209.25300598    4.90999985    2.55999994
   13.39361095  217.36799622    4.90999985    2.55999994
   13.39694405  210.27699280    4.90999985    2.55999994
   13.39999962  234.20300293    4.90999985    2.57999992
   13.40333271  216.75999451    4.90999985    2.57999992
   13.40638828  243.32899475    4.90999985    2.57999992
   13.40944386  224.99600220    4.90999985    2.55999994
   13.41027737  234.22399902    4.90999985    2.55999994
   13.41333294  207.88999939    4.90999985    2.57999992
   13.41666698  217.95599365    4.90999985    2.55999994
   13.41972256  234.08200073    4.90999985    2.55999994
   13.42305565  241.87800598    4.90999985    2.57999992
   13.42916679  241.87800598    4.90999985    2.57999992
   13.43333340  225.58000183    4.90999985    2.57999992
   13.43638897  256.89001465    4.90999985    2.57999992
   13.43972206  218.35299683    4.90999985    2.57999992
   13.44277763  258.52700806    4.90999985    2.57999992
   13.44333363  238.14100647    4.90999985    2.57999992
   13.44638920  253.51100159    4.90999985    2.57999992
   13.44972229  248.73800659    4.90999985    2.55999994
   13.45277786  245.04499817    4.90999985    2.57999992
   13.45611095  228.47599792    4.90999985    2.57999992
   13.45944405  253.91900635    4.90999985    2.57999992
   13.46249962  249.02799988    4.90999985    2.57999992
   13.46583271  231.17399597    4.90999985    2.57999992
   13.47194386  231.17399597    4.90999985    2.55999994
   13.47611046  241.01300049    4.90999985    2.57999992
   13.47666645  233.15400696    4.90999985    2.57999992
   13.47972202  254.28999329    4.90999985    2.57999992
   13.48305511  236.65100098    4.90999985    2.57999992
   13.48611164  252.79400635    4.90999985    2.55999994
   13.48944473  250.90299988    4.90999985    2.57999992
   13.49277782  226.91600037    4.90999985    2.57999992
   13.49583340  225.47399902    4.90999985    2.57999992
   13.49916649  244.50100708    4.90999985    2.57999992
   13.50249958  232.05700684    4.90999985    2.57999992
   13.50555515  225.20300293    4.90999985    2.57999992
   13.50888920  258.75601196    4.90999985    2.57999992
   13.51000023  211.58000183    4.90999985    2.57999992
   13.51472187  211.58000183    4.90999985    2.57999992
   13.51888847  217.06700134    4.90999985    2.59999990
   13.52222157  215.60400391    4.90999985    2.59999990
   13.52527714  234.19500732    4.90999985    2.59999990
   13.52861118  226.52999878    4.90999985    2.59999990
   13.53166676  201.71099854    4.90999985    2.59999990
   13.53500080  216.03900146    4.90999985    2.59999990
   13.53833389  216.87199402    4.90999985    2.59999990
   13.54138947  226.53100586    4.90999985    2.61999989
   13.54333401  244.97900391    4.90999985    2.61999989
   13.54500008  246.54899597    4.90999985    2.59999990
   13.54833412  238.39599609    4.90999985    2.59999990
   13.55166721  229.42700195    4.90999985    2.57999992
   13.55749989  229.42700195    4.90999985    2.59999990
   13.56166649  218.70199585    4.90999985    2.59999990
   13.56500053  218.92799377    4.90999985    2.59999990
   13.56805515  211.92100525    4.90999985    2.59999990
   13.57138920  234.97000122    4.90999985    2.59999990
   13.57472229  237.82800293    4.90999985    2.59999990
   13.57666683  224.43299866    4.90999985    2.59999990
   13.57833290  229.53700256    4.90999985    2.59999990
   13.58166695  208.60899353    4.90999985    2.61999989
   13.58500004  210.52200317    4.90999985    2.59999990
   13.58805561  205.74400330    4.90999985    2.61999989
   13.59138870  209.93499756    4.90999985    2.59999990
   13.59444427  214.56700134    4.90999985    2.59999990
   13.60055637  214.56700134    4.90999985    2.61999989
   13.60444450  203.89199829    4.90999985    2.61999989
   13.60777855  214.90600586    4.90999985    2.61999989
   13.61000061  228.94000244    4.90999985    2.59999990
   13.61138916  203.53799438    4.90999985    2.61999989
   13.61472225  216.75799561    4.90999985    2.61999989
   13.61805534  238.74299622    4.90999985    2.61999989
   13.62111092  214.34500122    4.90999985    2.59999990
   13.62444496  226.50900269    4.90999985    2.61999989
   13.62750053  226.96000671    4.90999985    2.61999989
   13.63083363  221.43499756    4.90999985    2.61999989
   13.63416672  238.03700256    4.90999985    2.61999989
   13.63722229  210.97000122    4.90999985    2.64000010
   13.64333344  210.97000122    4.90999985    2.59999990
   13.64750004  217.53399658    4.90999985    2.61999989
   13.65055561  224.54499817    4.90999985    2.61999989
   13.65388870  218.91299438    4.90999985    2.61999989
   13.65722179  226.01199341    4.90999985    2.61999989
   13.66027737  223.61999512    4.90999985    2.61999989
   13.66361046  225.78199768    4.90999985    2.61999989
   13.66666698  215.31900024    4.90999985    2.61999989
   13.67000008  226.64599609    4.90999985    2.61999989
   13.67333412  229.70399475    4.90999985    2.59999990
   13.67638874  203.01100159    4.90999985    2.61999989
   13.67694473  221.99899292    4.90999985    2.61999989
   13.68027782  203.35200500    4.90999985    2.61999989
   13.68611145  203.35200500    4.90999985    2.61999989
   13.69027805  228.36900330    4.90999985    2.61999989
   13.69361115  219.20399475    4.90999985    2.61999989
   13.69666672  233.50599670    4.90999985    2.59999990
   13.69999981  224.44700623    4.90999985    2.61999989
   13.70305538  237.80099487    4.90999985    2.61999989
   13.70638847  210.64399719    4.90999985    2.59999990
   13.70972157  222.10499573    4.90999985    2.61999989
   13.71027756  215.75500488    4.90999985    2.61999989
   13.71333313  229.53700256    4.90999985    2.61999989
   13.71666622  216.35099792    4.90999985    2.59999990
   13.71972179  223.78900146    4.90999985    2.61999989
   13.72305489  218.47200012    4.90999985    2.59999990
   13.72888851  218.47200012    4.90999985    2.61999989
   13.73305511  219.74800110    4.90999985    2.61999989
   13.73638916  230.15699768    4.90999985    2.61999989
   13.73944473  243.91299438    4.90999985    2.61999989
   13.74277782  222.80000305    4.90999985    2.61999989
   13.74361134  234.91999817    4.90999985    2.61999989
   13.74638939  228.24899292    4.90999985    2.64000010
   13.74972248  221.63299561    4.90999985    2.64000010
   13.75277805  212.02200317    4.90999985    2.64000010
   13.75611115  224.60000610    4.90999985    2.61999989
   13.75916672  217.30700684    4.90999985    2.61999989
   13.76249981  223.44200134    4.90999985    2.61999989
   13.76583290  232.02200317    4.90999985    2.61999989
   13.77166653  232.02200317    4.90999985    2.61999989
   13.77583313  215.97200012    4.90999985    2.64000010
   13.77694416  221.52799988    4.90999985    2.61999989
   13.77972221  239.72099304    4.90999985    2.61999989
   13.78305531  209.68600464    4.90999985    2.61999989
   13.78611183  220.60099792    4.90999985    2.64000010
   13.78944492  207.52699280    4.90999985    2.61999989
   13.79250050  214.88900757    4.90999985    2.64000010
   13.79583359  210.47599792    4.90999985    2.61999989
   13.79916668  216.65400696    4.90999985    2.64000010
   13.80222225  218.08099365    4.90999985    2.61999989
   13.81972218  213.54400635    4.90999985    2.64000010
   13.82388878  213.54400635    4.90999985    2.64000010
   13.82805538  215.39599609    4.90999985    2.61999989
   13.83111095  207.34700012    4.90999985    2.64000010
   13.83444405  199.94999695    4.90999985    2.64000010
   13.83777714  198.96499634    4.90999985    2.61999989
   13.84083271  211.29200745    4.90999985    2.64000010
   13.84416676  204.87399292    4.90999985    2.64000010
   13.84749985  209.13000488    4.90999985    2.61999989
   13.85055637  214.12699890    4.90999985    2.64000010
   13.85305595  209.03199768    4.90999985    2.64000010
   13.85416698  207.51899719    4.90999985    2.64000010
   13.85750008  200.20599365    4.90999985    2.66000009
   13.86083412  223.80999756    4.90999985    2.64000010
   13.86666679  223.80999756    4.90999985    2.64000010
   13.87083340  220.58500671    4.90999985    2.64000010
   13.87416649  224.65800476    4.90999985    2.64000010
   13.87722206  218.88299561    4.90999985    2.64000010
   13.88055611  207.02299500    4.90999985    2.64000010
   13.88361073  215.70100403    4.90999985    2.64000010
   13.88638878  223.10200500    4.90999985    2.64000010
   13.88722229  199.38999939    4.90999985    2.64000010
   13.89055538  226.45399475    4.90999985    2.64000010
   13.89361095  208.56199646    4.90999985    2.66000009
   13.89694405  210.42900085    4.90999985    2.64000010
   13.90027714  208.41700745    4.90999985    2.64000010
   13.90333271  221.52200317    4.90999985    2.64000010
   13.90944386  221.52200317    4.90999985    2.67000008
   13.91361046  220.56700134    4.90999985    2.64000010
   13.91694450  218.40199280    4.90999985    2.64000010
   13.91972256  215.67500305    4.90999985    2.64000010
   13.92055607  206.76400757    4.90999985    2.66000009
   13.92388916  221.30000305    4.90999985    2.64000010
   13.92694473  227.16299438    4.90999985    2.64000010
   13.93027782  229.87600708    4.90999985    2.64000010
   13.93361092  233.36599731    4.90999985    2.64000010
   13.93666649  237.40600586    4.90999985    2.64000010
   13.94000053  223.72500610    4.90999985    2.64000010
   13.94333363  221.42599487    4.90999985    2.66000009
   13.94638920  236.00500488    4.90999985    2.64000010
   13.95249939  236.00500488    4.90999985    2.66000009
   13.95666695  232.40800476    4.90999985    2.64000010
   13.95972157  203.65600586    4.90999985    2.64000010
   13.96305561  237.08399963    4.90999985    2.64000010
   13.96611118  196.23199463    4.90999985    2.66000009
   13.96944427  191.74299622    4.90999985    2.64000010
   13.97277737  202.94200134    4.90999985    2.64000010
   13.97583294  219.27400208    4.90999985    2.64000010
   13.97916603  220.49699402    4.90999985    2.66000009
   13.98222160  208.61900330    4.90999985    2.66000009
   13.98555565  204.40699768    4.90999985    2.66000009
   13.98750019  219.72900391    4.90999985    2.64000010
   13.98916721  214.56300354    4.90999985    2.66000009
   13.99527836  214.56300354    4.90999985    2.66000009
   13.99944496  219.80099487    4.90999985    2.66000009
   14.00249958  210.27499390    4.90999985    2.66000009
   14.00583363  187.69999695    4.90999985    2.64000010
   14.00888920  212.27299500    4.90999985    2.66000009
   14.01222229  220.84300232    4.90999985    2.64000010
   14.01555538  225.98699951    4.90999985    2.66000009
   14.01861095  219.85800171    4.90999985    2.67000008
   14.02083302  204.87800598    4.90999985    2.66000009
   14.02222157  191.01199341    4.90999985    2.66000009
   14.02555561  192.33900452    4.90999985    2.64000010
   14.02888870  210.60600281    4.90999985    2.66000009
   14.03194427  200.41499329    4.90999985    2.66000009
   14.03805637  200.41499329    4.90999985    2.66000009
   14.04222298  204.51600647    4.90999985    2.66000009
   14.04527855  203.56500244    4.90999985    2.66000009
   14.04861164  186.69099426    4.90999985    2.66000009
   14.05194473  189.25599670    4.90999985    2.66000009
   14.05416679  200.89500427    4.90999985    2.66000009
   14.05555534  179.33500671    4.90999985    2.66000009
   14.05888939  191.16999817    4.90999985    2.66000009
   14.06194496  191.02999878    4.90999985    2.66000009
   14.06527805  203.30999756    4.90999985    2.67000008
   14.06861115  190.36099243    4.90999985    2.64000010
   14.07166672  204.49000549    4.90999985    2.67000008
   14.07499981  213.28999329    4.90999985    2.66000009
   14.08083344  213.28999329    4.90999985    2.66000009
   14.08500004  221.68699646    4.90999985    2.67000008
   14.08749962  223.09700012    4.90999985    2.66000009
   14.08861065  224.92900085    4.90999985    2.66000009
   14.09194374  215.88200378    4.90999985    2.67000008
   14.09499931  222.55299377    4.90999985    2.66000009
   14.09833336  206.30400085    4.90999985    2.66000009
   14.10166740  235.00500488    4.90999985    2.66000009
   14.10472298  221.53199768    4.90999985    2.66000009
   14.10805607  223.06300354    4.90999985    2.66000009
   14.11111164  213.38000488    4.90999985    2.66000009
   14.11444473  222.23899841    4.90999985    2.67000008
   14.11777782  219.45700073    4.90999985    2.67000008
   14.12388897  219.45700073    4.90999985    2.67000008
   14.12777805  222.31500244    4.90999985    2.66000009
   14.13111115  215.24600220    4.90999985    2.66000009
   14.13444424  213.51699829    4.90999985    2.67000008
   14.13749981  213.18400574    4.90999985    2.66000009
   14.14083290  192.55900574    4.90999985    2.66000009
   14.14416695  216.17500305    4.90999985    2.67000008
   14.14722252  203.83399963    4.90999985    2.67000008
   14.15055561  213.69599915    4.90999985    2.67000008
   14.15388870  199.37600708    4.90999985    2.67000008
   14.15472221  210.46400452    4.90999985    2.67000008
   14.15722179  215.88900757    4.90999985    2.66000009
   14.16055489  202.49600220    4.90999985    2.66000009
   14.16666698  202.49600220    4.90999985    2.67000008
   14.17083359  199.46200562    4.90999985    2.67000008
   14.17388916  199.86000061    4.90999985    2.67000008
   14.17722225  202.02400208    4.90999985    2.67000008
   14.18055630  211.44099426    4.90999985    2.66000009
   14.18361092  197.94700623    4.90999985    2.66000009
   14.18694496  203.00300598    4.90999985    2.67000008
   14.18805599  203.39900208    4.90999985    2.66000009
   14.19055557  202.81399536    4.90999985    2.67000008
   14.19361115  212.58200073    4.90999985    2.67000008
   14.19694424  217.36500549    4.90999985    2.67000008
   14.19999981  214.66099548    4.90999985    2.66000009
   14.20333290  208.86900330    4.90999985    2.67000008
   14.20944405  208.86900330    4.90999985    2.69000006
   14.21361065  201.80999756    4.90999985    2.67000008
   14.21666622  216.54499817    4.90999985    2.67000008
   14.21999931  203.45799255    4.90999985    2.67000008
   14.22166634  209.69799805    4.90999985    2.66000009
   14.22361088  193.63900757    4.90999985    2.69000006
   14.22694397  195.00300598    4.90999985    2.67000008
   14.23027706  190.56399536    4.90999985    2.67000008
   14.23333359  201.63600159    4.90999985    2.67000008
   14.23666668  202.68299866    4.90999985    2.67000008
   14.23972225  222.89199829    4.90999985    2.67000008
   14.24305534  222.89100647    4.90999985    2.67000008
   14.24638939  205.47099304    4.90999985    2.67000008
   14.25222206  205.47099304    4.90999985    2.67000008
   14.25638866  209.21000671    4.90999985    2.67000008
   14.25972176  213.75700378    4.90999985    2.67000008
   14.26277733  205.19099426    4.90999985    2.67000008
   14.26611137  204.12399292    4.90999985    2.67000008
   14.26944447  206.91799927    4.90999985    2.67000008
   14.27250004  228.66799927    4.90999985    2.69000006
   14.27583313  211.26199341    4.90999985    2.67000008
   14.27888870  207.83399963    4.90999985    2.69000006
   14.28222179  207.61900330    4.90999985    2.69000006
   14.28555584  191.16299438    4.90999985    2.66000009
   14.28833389  208.51800537    4.90999985    2.67000008
   14.28916740  203.23399353    4.90999985    2.67000008
   14.29527855  203.23399353    4.90999985    2.69000006
   14.29916668  186.97399902    4.90999985    2.67000008
   14.30249977  205.58900452    4.90999985    2.69000006
   14.30583382  201.26600647    4.90999985    2.67000008
   14.30888939  201.98699951    4.90999985    2.67000008
   14.31222248  207.66499329    4.90999985    2.67000008
   14.31527805  193.79400635    4.90999985    2.67000008
   14.31861115  213.87800598    4.90999985    2.69000006
   14.32166672  211.88699341    4.90999985    2.67000008
   14.32222176  219.33900452    4.90999985    2.67000008
   14.32555580  214.75300598    4.90999985    2.67000008
   14.32861137  214.48899841    4.90999985    2.67000008
   14.33194447  214.33099365    4.90999985    2.67000008
   14.45749950   -1.00000000   -1.00000000   -1.00000000
   14.55888939   -1.00000000   -1.00000000   -1.00000000
   14.66472149   -1.00000000   -1.00000000   -1.00000000
   14.69638920  101.02500153    4.90999985    2.71000004
   14.69944477  209.86700439    4.90999985    2.71000004
   14.70277786  214.80200195    4.90999985    2.71000004
   14.70611095  201.92500305    4.90999985    2.71000004
   14.70916653  209.41999817    4.90999985    2.69000006
   14.71249962  207.75900269    4.90999985    2.69000006
   14.71666622  207.75900269    4.90999985    2.71000004
   14.72083282  209.45799255    4.90999985    2.69000006
   14.72388840  204.92799377    4.90999985    2.69000006
   14.72722149  218.79699707    4.90999985    2.69000006
   14.72944355  215.16700745    4.90999985    2.71000004
   14.73083305  205.80299377    4.90999985    2.71000004
   14.73416710  207.03300476    4.90999985    2.71000004
   14.73722267  206.48199463    4.90999985    2.71000004
   14.74055576  220.25799561    4.90999985    2.71000004
   14.74388885  231.39900208    4.90999985    2.71000004
   14.74694443  234.33299255    4.90999985    2.73000002
   14.75027752  232.55099487    4.90999985    2.71000004
   14.75333309  245.29600525    4.90999985    2.71000004
   14.75944424  245.29600525    4.90999985    2.71000004
   14.76361084  231.00999451    4.90999985    2.69000006
   14.76694393  244.27000427    4.90999985    2.71000004
   14.76999950  240.97099304    4.90999985    2.71000004
   14.77333355  216.43400574    4.90999985    2.71000004
   14.77638817  233.29699707    4.90999985    2.71000004
   14.77972221  233.85000610    4.90999985    2.71000004
   14.78305531  261.18701172    4.90999985    2.71000004
   14.78611183  234.05900574    4.90999985    2.71000004
   14.78944492  247.73599243    4.90999985    2.71000004
   14.79277802  254.76400757    4.90999985    2.71000004
   14.79583359  256.64001465    4.90999985    2.71000004
   14.79638958  248.31599426    4.90999985    2.71000004
   14.80222225  248.31599426    4.90999985    2.71000004
   14.80638885  290.96499634    4.90999985    2.71000004
   14.80972195  314.60998535    4.90999985    2.71000004
   14.81277752  265.25399780    4.90999985    2.71000004
   14.81611156  284.34100342    4.90999985    2.71000004
   14.81944466  289.40200806    4.90999985    2.71000004
   14.82250023  278.74398804    4.90999985    2.71000004
   14.82583332  276.99899292    4.90999985    2.71000004
   14.82916641  312.52700806    4.90999985    2.71000004
   14.82972240  305.08599854    4.90999985    2.71000004
   14.83277798  287.85299683    4.90999985    2.71000004
   14.83583260  254.67599487    4.90999985    2.71000004
   14.83916664  282.48699951    4.90999985    2.71000004
   14.84527779  282.48699951    4.90999985    2.71000004
   14.84916592  279.94299316    4.90999985    2.71000004
   14.85249996  272.69100952    4.90999985    2.71000004
   14.85583401  291.09899902    4.90999985    2.71000004
   14.85888958  260.98498535    4.90999985    2.71000004
   14.86222267  254.05799866    4.90999985    2.71000004
   14.86305618  262.05200195    4.90999985    2.71000004
   14.86583328  293.53500366    4.90999985    2.71000004
   14.86888885  275.90499878    4.90999985    2.71000004
   14.87222195  251.92599487    4.90999985    2.71000004
   14.87555599  230.78100586    4.90999985    2.71000004
   14.87861156  267.07699585    4.90999985    2.71000004
   14.88194466  237.83900452    4.90999985    2.71000004
   14.88805580  237.83900452    4.90999985    2.71000004
   14.89222240  243.83999634    4.90999985    2.73000002
   14.89527798  244.16799927    4.90999985    2.73000002
   14.89638901  224.82400513    4.90999985    2.71000004
   14.89916611  249.97099304    4.90999985    2.73000002
   14.90222168  229.47900391    4.90999985    2.73000002
   14.90555477  263.93301392    4.90999985    2.71000004
   14.90888882  235.82400513    4.90999985    2.71000004
   14.91194439  202.59500122    4.90999985    2.73000002
   14.91527748  250.85600281    4.90999985    2.71000004
   14.91861153  267.23300171    4.90999985    2.73000002
   14.92166710  257.81399536    4.90999985    2.71000004
   14.92500019  236.48199463    4.90999985    2.71000004
   14.93083382  236.48199463    4.90999985    2.71000004
   14.93500042  252.44500732    4.90999985    2.71000004
   14.93833351  231.09700012    4.90999985    2.71000004
   14.94138908  225.44700623    4.90999985    2.73000002
   14.94472218  230.89799500    4.90999985    2.73000002
   14.94777775  257.10101318    4.90999985    2.71000004
   14.95111084  224.63900757    4.90999985    2.71000004
   14.95444393  259.29699707    4.90999985    2.73000002
   14.95749950  238.43600464    4.90999985    2.71000004
   14.96083355  273.92999268    4.90999985    2.71000004
   14.96305561  258.19198608    4.90999985    2.71000004
   14.96444416  229.79499817    4.90999985    2.71000004
   14.96749973  259.76901245    4.90999985    2.73000002
   14.97361088  259.76901245    4.90999985    2.71000004
   14.97777748  254.20899963    4.90999985    2.73000002
   14.98111057  230.33999634    4.90999985    2.73000002
   14.98416710  231.26699829    4.90999985    2.73000002
   14.98750019  242.63800049    4.90999985    2.71000004
   14.99083328  221.73500061    4.90999985    2.73000002
   14.99388885  222.73500061    4.90999985    2.73000002
   14.99638939  212.56599426    4.90999985    2.73000002
   14.99777794  203.56100464    4.90999985    2.73000002
   15.00083351  202.85299683    4.90999985    2.73000002
   15.00416660  198.21299744    4.90999985    2.73000002
   15.00749969  196.16799927    4.90999985    2.73000002
   15.01055527  191.86900330    4.90999985    2.73000002
   15.01666641  191.86900330    4.90999985    2.73000002
   15.02055550  199.98100281    4.90999985    2.73000002
   15.02388859  191.27799988    4.90999985    2.73000002
   15.02722168  194.34899902    4.90999985    2.73000002
   15.02972221  208.87800598    4.90999985    2.73000002
   15.03083324  200.02400208    4.90999985    2.73000002
   15.03388977  194.82400513    4.90999985    2.71000004
   15.03722286  184.32299805    4.90999985    2.73000002
   15.04055595  209.34700012    4.90999985    2.73000002
   15.04361153  191.45700073    4.90999985    2.73000002
   15.04694462  190.02000427    4.90999985    2.71000004
   15.05027771  195.76300049    4.90999985    2.75000000
   15.05333328  213.87199402    4.90999985    2.73000002
   15.05944443  213.87199402    4.90999985    2.75000000
   15.06361103  206.90499878    4.90999985    2.73000002
   15.06666660  215.03100586    4.90999985    2.73000002
   15.06999969  208.73100281    4.90999985    2.73000002
   15.07333374  224.30799866    4.90999985    2.73000002
   15.07638836  224.37199402    4.90999985    2.73000002
   15.07972240  208.41900635    4.90999985    2.73000002
   15.08277798  229.39399719    4.90999985    2.73000002
   15.08611107  233.22900391    4.90999985    2.73000002
   15.08944416  218.70399475    4.90999985    2.73000002
   15.09249973  223.03700256    4.90999985    2.73000002
   15.09583282  231.71000671    4.90999985    2.73000002
   15.09638882  233.58900452    4.90999985    2.73000002
   15.10222244  233.58900452    4.90999985    2.73000002
   15.10638905  230.81700134    4.90999985    2.73000002
   15.10972214  205.44000244    4.90999985    2.75000000
   15.11277771  231.07600403    4.90999985    2.73000002
   15.11611176  234.06300354    4.90999985    2.73000002
   15.11916637  235.47500610    4.90999985    2.73000002
   15.12250042  233.54899597    4.90999985    2.75000000
   15.12583351  231.32600403    4.90999985    2.73000002
   15.12888908  247.44599915    4.90999985    2.71000004
   15.12972260  253.16700745    4.90999985    2.73000002
   15.13249969  231.27699280    4.90999985    2.73000002
   15.13583279  229.46899414    4.90999985    2.73000002
   15.13888836  214.60600281    4.90999985    2.73000002
   15.14499950  214.60600281    4.90999985    2.73000002
   15.14916611  229.04299927    4.90999985    2.75000000
   15.15249920  237.67900085    4.90999985    2.73000002
   15.15583324  258.32699585    4.90999985    2.73000002
   15.15888882  238.51499939    4.90999985    2.75000000
   15.16222191  216.19999695    4.90999985    2.75000000
   15.16305542  232.57299805    4.90999985    2.73000002
   15.16583252  210.50500488    4.90999985    2.73000002
   15.16916656  219.35899353    4.90999985    2.73000002
   15.17222214  216.29100037    4.90999985    2.73000002
   15.17555618  216.81100464    4.90999985    2.75000000
   15.17861176  241.80099487    4.90999985    2.73000002
   15.18194485  263.98001099    4.90999985    2.75000000
   15.18805599  263.98001099    4.90999985    2.75000000
   15.19222260  253.44599915    4.90999985    2.75000000
   15.19527817  267.37701416    4.90999985    2.75000000
   15.19638920  266.46200562    4.90999985    2.75000000
   15.19916630  250.96800232    4.90999985    2.73000002
   15.20249939  265.59799194    4.90999985    2.75000000
   15.20555496  230.08299255    4.90999985    2.75000000
   15.20888901  247.64199829    4.90999985    2.75000000
   15.21194458  235.50399780    4.90999985    2.75000000
   15.21527767  241.20399475    4.90999985    2.75000000
   15.21861076  252.53599548    4.90999985    2.75000000
   15.22166634  219.95300293    4.90999985    2.75000000
   15.22499943  239.32800293    4.90999985    2.75000000
   15.23083305  239.32800293    4.90999985    2.75000000
   15.23500061  226.68699646    4.90999985    2.75000000
   15.23805618  247.35400391    4.90999985    2.75000000
   15.24138927  236.28700256    4.90999985    2.75000000
   15.24472237  247.65699768    4.90999985    2.73000002
   15.24777794  216.31900024    4.90999985    2.75000000
   15.25111103  222.72700500    4.90999985    2.75000000
   15.25416660  224.31199646    4.90999985    2.75000000
   15.25749969  217.84199524    4.90999985    2.75000000
   15.26083374  232.91600037    4.90999985    2.75000000
   15.26305580  229.40699768    4.90999985    2.75000000
   15.26444435  226.45199585    4.90999985    2.75000000
   15.26777744  221.95399475    4.90999985    2.73000002
   15.27361107  221.95399475    4.90999985    2.73000002
   15.27777767  203.26699829    4.90999985    2.75000000
   15.28111076  219.47200012    4.90999985    2.75000000
   15.28416729  230.96899414    4.90999985    2.75000000
   15.28750038  216.48699951    4.90999985    2.75000000
   15.29055595  235.14799500    4.90999985    2.75000000
   15.29388905  214.56399536    4.90999985    2.75000000
   15.29638958  217.79200745    4.90999985    2.75000000
   15.29750061  212.28199768    4.90999985    2.73000002
   15.30083370  224.00500488    4.90999985    2.73000002
   15.30388927  220.47300720    4.90999985    2.75000000
   15.30722237  217.63000488    4.90999985    2.75000000
   15.31027794  225.70500183    4.90999985    2.75000000
   15.31638908  225.70500183    4.90999985    2.75000000
   15.32055569  235.57499695    4.90999985    2.75000000
   15.32388878  227.46600342    4.90999985    2.75000000
   15.32694435  253.32699585    4.90999985    2.75000000
   15.32972240  202.98399353    4.90999985    2.75000000
   15.33083344  216.13400269    4.90999985    2.75000000
   15.33416653  224.09100342    4.90999985    2.75000000
   15.33722210  230.81799316    4.90999985    2.76999998
   15.34055519  239.17300415    4.90999985    2.75000000
   15.34361076  239.33799744    4.90999985    2.75000000
   15.34694386  265.99301147    4.90999985    2.75000000
   15.35027790  243.46600342    4.90999985    2.75000000
   15.35333347  231.25700378    4.90999985    2.75000000
   15.35944462  231.25700378    4.90999985    2.75000000
   15.36333370  229.02999878    4.90999985    2.75000000
   15.36666679  245.01400757    4.90999985    2.75000000
   15.36999989  258.01300049    4.90999985    2.75000000
   15.37305546  244.54299927    4.90999985    2.75000000
   15.37638855  238.75999451    4.90999985    2.75000000
   15.37972260  243.48800659    4.90999985    2.75000000
   15.38277817  216.22399902    4.90999985    2.75000000
   15.38611126  238.73899841    4.90999985    2.75000000
   15.38916683  208.75900269    4.90999985    2.75000000
   15.39249992  224.96800232    4.90999985    2.75000000
   15.39583302  212.19700623    4.90999985    2.75000000
   15.39638901  226.55000305    4.90999985    2.75000000
   15.40222168  226.55000305    4.90999985    2.75000000
   15.40638828  223.40299988    4.90999985    2.75000000
   15.40944386  212.31100464    4.90999985    2.75000000
   15.41277695  204.15800476    4.90999985    2.75000000
   15.41611099  211.74499512    4.90999985    2.75000000
   15.41916656  217.86900330    4.90999985    2.75000000
   15.42250061  198.46800232    4.90999985    2.75000000
   15.42555618  208.29899597    4.90999985    2.75000000
   15.42888927  203.20399475    4.90999985    2.75000000
   15.42972279  191.43499756    4.90999985    2.75000000
   15.43249989  211.52299500    4.90999985    2.75000000
   15.43583298  207.42199707    4.90999985    2.75000000
   15.43888855  195.60299683    4.90999985    2.75000000
   15.44499969  195.60299683    4.90999985    2.75000000
   15.44916630  222.23599243    4.90999985    2.75000000
   15.45249939  223.39500427    4.90999985    2.75000000
   15.45555496  200.24099731    4.90999985    2.75000000
   15.45888901  199.38499451    4.90999985    2.75000000
   15.46222210  201.77099609    4.90999985    2.75000000
   15.46305561  203.32899475    4.90999985    2.75000000
   15.46583271  211.05400085    4.90999985    2.75000000
   15.46916580  198.43200684    4.90999985    2.75000000
   15.47222137  203.72599792    4.90999985    2.75000000
   15.47555542  202.90100098    4.90999985    2.75000000
   15.47888851  200.62199402    4.90999985    2.75000000
   15.48194408  203.10400391    4.90999985    2.75000000
   15.48777771  203.10400391    4.90999985    2.73000002
   15.49194431  186.73500061    4.90999985    2.73000002
   15.49527836  207.87699890    4.90999985    2.75000000
   15.49638939  194.78500366    4.90999985    2.73000002
   15.49888897  211.37800598    4.90999985    2.75000000
   15.50222206  206.39999390    4.90999985    2.73000002
   15.50527763  194.56799316    4.90999985    2.75000000
   15.50861073  215.11900330    4.90999985    2.75000000
   15.51194477  208.26899719    4.90999985    2.73000002
   15.51500034  199.37500000    4.90999985    2.75000000
   15.51833344  216.63999939    4.90999985    2.75000000
   15.52138901  206.31100464    4.90999985    2.75000000
   15.52472210  203.10299683    4.90999985    2.75000000
   15.53083324  203.10299683    4.90999985    2.75000000
   15.53472233  231.38699341    4.90999985    2.75000000
   15.53805637  238.37899780    4.90999985    2.75000000
   15.54138947  234.66600037    4.90999985    2.75000000
   15.54444504  225.46200562    4.90999985    2.76999998
   15.54777813  231.98300171    4.90999985    2.75000000
   15.55111122  244.42100525    4.90999985    2.75000000
   15.55416679  233.46499634    4.90999985    2.75000000
   15.55749989  231.13499451    4.90999985    2.75000000
   15.56055546  232.58299255    4.90999985    2.75000000
   15.56305599  222.56399536    4.90999985    2.75000000
   15.56416702  220.00000000    4.90999985    2.75000000
   15.56750011  232.37800598    4.90999985    2.75000000
   15.57361126  232.37800598    4.90999985    2.75000000
   15.57777786  220.64199829    4.90999985    2.75000000
   15.58083344  208.55999756    4.90999985    2.75000000
   15.58416653  226.94099426    4.90999985    2.76999998
   15.58749962  221.78999329    4.90999985    2.76999998
   15.59055519  216.69099426    4.90999985    2.76999998
   15.59388828  229.80700684    4.90999985    2.75000000
   15.59638882  243.00000000    4.90999985    2.75000000
   15.59749985  230.22500610    4.90999985    2.75000000
   15.60083389  218.29800415    4.90999985    2.75000000
   15.60388947  215.90199280    4.90999985    2.75000000
   15.60722256  232.50799561    4.90999985    2.75000000
   15.61055565  240.08299255    4.90999985    2.75000000
   15.61638927  240.08299255    4.90999985    2.75000000
   15.62055588  223.98699951    4.90999985    2.75000000
   15.62388897  236.80499268    4.90999985    2.75000000
   15.62694454  195.03199768    4.90999985    2.75000000
   15.63000011  213.69099426    4.90999985    2.75000000
   15.63055611  211.73300171    4.90999985    2.75000000
   15.63388920  213.38900757    4.90999985    2.75000000
   15.63694477  210.32899475    4.90999985    2.75000000
   15.64027786  211.55499268    4.90999985    2.75000000
   15.64361095  208.04899597    4.90999985    2.75000000
   15.64666653  193.10600281    4.90999985    2.75000000
   15.64999962  223.71099854    4.90999985    2.75000000
   15.65305519  210.30400085    4.90999985    2.75000000
   15.65916634  210.30400085    4.90999985    2.75000000
   15.66333294  201.16499329    4.90999985    2.75000000
   15.66666698  209.08200073    4.90999985    2.75000000
   15.66972256  227.26300049    4.90999985    2.75000000
   15.67305565  208.86199951    4.90999985    2.75000000
   15.67638874  220.27799988    4.90999985    2.75000000
   15.67944431  259.91400146    4.90999985    2.76999998
   15.68277836  228.38499451    4.90999985    2.75000000
   15.68611145  233.36599731    4.90999985    2.75000000
   15.68916702  231.41499329    4.90999985    2.75000000
   15.69250011  235.57699585    4.90999985    2.75000000
   15.69555569  215.60000610    4.90999985    2.75000000
   15.69666672  225.53799438    4.90999985    2.76999998
   15.71722221  225.53799438    4.90999985    2.75000000
   15.72138882  219.37100220    4.90999985    2.76999998
   15.72472191  213.87100220    4.90999985    2.75000000
   15.72777748  193.37199402    4.90999985    2.76999998
   15.72999954  208.30200195    4.90999985    2.75000000
   15.73138809  215.60200500    4.90999985    2.76999998
   15.73472214  210.44799805    4.90999985    2.78999996
   15.73777771  214.84300232    4.90999985    2.75000000
   15.74111176  206.46299744    4.90999985    2.76999998
   15.74444485  209.47599792    4.90999985    2.76999998
   15.74750042  214.54899597    4.90999985    2.75000000
   15.75083351  191.86599731    4.90999985    2.76999998
   15.75416660  217.83900452    4.90999985    2.75000000
   15.76000023  217.83900452    4.90999985    2.76999998
   15.76416683  214.67799377    4.90999985    2.76999998
   15.76722240  220.94799805    4.90999985    2.76999998
   15.77055550  225.80499268    4.90999985    2.78999996
   15.77388859  217.60600281    4.90999985    2.76999998
   15.77694416  220.24899292    4.90999985    2.76999998
   15.78027725  214.39199829    4.90999985    2.76999998
   15.78361130  215.46099854    4.90999985    2.76999998
   15.78666687  203.20700073    4.90999985    2.76999998
   15.79000092  206.47399902    4.90999985    2.76999998
   15.79305553  198.50799561    4.90999985    2.76999998
   15.79638958  225.02900696    4.90999985    2.76999998
   15.79694462  217.20199585    4.90999985    2.76999998
   15.80277824  217.20199585    4.90999985    2.76999998
   15.80694485  202.50199890    4.90999985    2.76999998
   15.81027794  209.77900696    4.90999985    2.76999998
   15.81333351  221.34500122    4.90999985    2.76999998
   15.81666660  208.38699341    4.90999985    2.76999998
   15.81999969  208.74899292    4.90999985    2.76999998
   15.82305527  204.25900269    4.90999985    2.76999998
   15.82638836  211.05700684    4.90999985    2.76999998
   15.82944393  201.05000305    4.90999985    2.76999998
   15.83027744  201.86799622    4.90999985    2.76999998
   15.83333302  215.56500244    4.90999985    2.76999998
   15.83638859  220.83599854    4.90999985    2.76999998
   15.83972168  205.61599731    4.90999985    2.75000000
   15.84555531  205.61599731    4.90999985    2.78999996
   15.84972191  209.70799255    4.90999985    2.78999996
   15.85305595  209.52799988    4.90999985    2.78999996
   15.85638905  203.56799316    4.90999985    2.76999998
   15.85944462  202.47099304    4.90999985    2.76999998
   15.86277771  214.18499756    4.90999985    2.76999998
   15.86361122  221.38400269    4.90999985    2.76999998
   15.86638927  217.77600098    4.90999985    2.75000000
   15.86944485  206.69900513    4.90999985    2.76999998
   15.87277794  196.06500244    4.90999985    2.78999996
   15.87611103  216.39799500    4.90999985    2.76999998
   15.87916660  221.64300537    4.90999985    2.76999998
   15.88249969  225.15499878    4.90999985    2.76999998
   15.88861084  225.15499878    4.90999985    2.76999998
   15.89277744  204.69900513    4.90999985    2.76999998
   15.89583302  212.35899353    4.90999985    2.76999998
   15.89694405  201.99499512    4.90999985    2.76999998
   15.89972210  204.34700012    4.90999985    2.76999998
   15.90277767  203.55400085    4.90999985    2.75000000
   15.90611076  213.62100220    4.90999985    2.76999998
   15.90944386  196.81500244    4.90999985    2.76999998
   15.91249943  204.76199341    4.90999985    2.76999998
   15.91583252  219.21299744    4.90999985    2.76999998
   15.91888905  205.29699707    4.90999985    2.78999996
   15.92222214  197.36799622    4.90999985    2.78999996
   15.92555618  188.45300293    4.90999985    2.76999998
   15.93138885  188.45300293    4.90999985    2.76999998
   15.93555546  204.37600708    4.90999985    2.76999998
   15.93861103  198.94599915    4.90999985    2.76999998
   15.94194412  198.74699402    4.90999985    2.76999998
   15.94527817  194.76100159    4.90999985    2.76999998
   15.94833374  205.05900574    4.90999985    2.78999996
   15.95166683  197.18200684    4.90999985    2.76999998
   15.95499992  195.34399414    4.90999985    2.76999998
   15.95805550  188.20700073    4.90999985    2.76999998
   15.96138859  181.85099792    4.90999985    2.76999998
   15.96361065  189.95500183    4.90999985    2.76999998
   15.96500015  188.29100037    4.90999985    2.76999998
   15.96805477  205.53199768    4.90999985    2.78999996
   15.97416592  205.53199768    4.90999985    2.76999998
   15.97833252  195.23500061    4.90999985    2.76999998
   15.98166656  199.44599915    4.90999985    2.76999998
   15.98472214  184.82200623    4.90999985    2.76999998
   15.98805618  198.34599304    4.90999985    2.78999996
   15.99138927  195.35899353    4.90999985    2.75000000
   15.99444485  188.36300659    4.90999985    2.76999998
   15.99694443  199.04699707    4.90999985    2.76999998
   15.99833393  203.11799622    4.90999985    2.76999998
   16.00138855  196.48899841    4.90999985    2.75000000
   16.00472260  197.47099304    4.90999985    2.75000000
   16.00805473  211.37800598    4.90999985    2.75000000
   16.01111031  197.40199280    4.90999985    2.73000002
   16.01694489  197.40199280    4.90999985    2.73000002
   16.02111053  199.28399658    4.90999985    2.73000002
   16.02444458  208.77499390    4.90999985    2.75000000
   16.02777672  187.24499512    4.90999985    2.75000000
   16.03027725  199.44200134    4.90999985    2.73000002
   16.03138924  197.91600037    4.90999985    2.73000002
   16.03444481  206.72500610    4.90999985    2.73000002
   16.03777695  227.32600403    4.90999985    2.73000002
   16.04111099  216.74099731    4.90999985    2.71000004
   16.04416656  214.26699829    4.90999985    2.73000002
   16.04749870  216.94200134    4.90999985    2.73000002
   16.05083275  207.02900696    4.90999985    2.73000002
   16.05388832  208.66000366    4.90999985    2.73000002
   16.05999947  208.66000366    4.90999985    2.73000002
   16.06416512  207.88099670    4.90999985    2.71000004
   16.06722260  208.67999268    4.90999985    2.71000004
   16.07055664  211.07099915    4.90999985    2.73000002
   16.07361221  206.74299622    4.90999985    2.71000004
   16.07694626  191.76400757    4.90999985    2.71000004
   16.08027840  209.59199524    4.90999985    2.71000004
   16.08333397  208.45399475    4.90999985    2.71000004
   16.08666801  210.12600708    4.90999985    2.66000009
   16.09000015  217.35200500    4.90999985    2.57999992
   16.09305573  214.17900085    4.90999985    2.42000008
   16.09638977  205.89599609    4.90999985    2.07999992
   16.09694481  204.89900208    4.90999985    2.07999992
   16.10277748  204.89900208    4.90999985    1.41999996
   16.10694504  213.28300476    4.90999985    0.95999998
   16.11000061  198.97999573    4.90999985    0.64999998
   16.11333466  213.78100586    4.90999985    0.38000000
   16.11666679  202.50500488    4.90999985    0.19000000
   16.11972237  197.00799561    4.90999985    0.01000000
   16.12305641  208.05999756    4.90999985    0.01000000
   16.12638855  207.69799805    4.90999985    0.01000000
   16.12944412  213.27000427    4.90999985    0.01000000
   16.13027763  221.38999939    4.90999985    0.01000000
   16.13305473  204.98300171    4.90999985    0.01000000
   16.13638878  204.44400024    4.90999985    0.01000000
   16.13944435  215.34899902    4.90999985    0.01000000
   16.14555550  215.34899902    4.90999985    0.01000000
   16.14972115  206.80999756    4.90999985    0.01000000
   16.15305519  202.39900208    4.90999985    0.01000000
   16.15611076  207.62899780    4.90999985    0.01000000
   16.15944481  197.88099670    4.90999985    0.01000000
   16.16277695  200.61900330    4.90999985    0.01000000
   16.16361046  210.35400391    4.90999985    0.01000000
   16.16638756  216.45799255    4.90999985    0.01000000
   16.16944313  193.19299316    4.90999985    0.01000000
   16.17277718  196.61900330    4.90999985    0.01000000
   16.17611122  192.39199829    4.90999985    0.01000000
   16.17916679  198.63099670    4.90999985    0.01000000
   16.18249893  201.98699951    4.90999985    0.01000000
   16.18833160  201.98699951    4.90999985    0.01000000
   16.19249916  199.65100098    4.90999985    0.01000000
   16.19583321  210.15699768    4.90999985    0.01000000
   16.19694328  190.46000671    4.90999985    0.01000000
   16.19944382  197.72200012    4.90999985    0.01000000
   16.20250130  205.48899841    4.90999985    0.01000000
   16.20583344  211.04200745    4.90999985    0.01000000
   16.20916748  208.03199768    4.90999985    0.01000000
   16.21222305  209.04899597    4.90999985    0.01000000
   16.21555710  207.00999451    4.90999985    0.01000000
   16.21888924  205.23899841    4.90999985    0.01000000
   16.22194481  212.93499756    4.90999985    0.01000000
   16.22527885  221.37800598    4.90999985    0.01000000
   16.23139000  221.37800598    4.90999985    0.01000000
   16.23555565  223.82800293    4.90999985    0.01000000
   16.23861122  224.13800049    4.90999985    0.01000000
   16.24194527  213.72799683    4.90999985    0.01000000
   16.24500084  211.65199280    4.90999985    0.01000000
   16.24833298  210.65199280    4.90999985    0.01000000
   16.25166702  212.50999451    4.90999985    0.01000000
   16.25472260  201.32800293    4.90999985    0.01000000
   16.25805473  195.90299988    4.90999985    0.01000000
   16.26138878  192.41299438    4.90999985    0.01000000
   16.26361084  189.23300171    4.90999985    0.01000000
   16.26499939  193.78700256    4.90999985    0.01000000
   16.26805496  192.43400574    4.90999985    0.01000000
   16.27416611  192.43400574    4.90999985    0.01000000
   16.27833366  196.27000427    4.90999985    0.01000000
   16.28138924  190.61300659    4.90999985    0.01000000
   16.28472137  185.35000610    4.90999985    0.01000000
   16.28805542  185.37199402    4.90999985    0.01000000
   16.29111099  191.52499390    4.90999985    0.01000000
   16.29444313  202.27499390    4.90999985    0.01000000
   16.29694366  194.63400269    4.90999985    0.01000000
   16.29805565  194.35699463    4.90999985    0.01000000
   16.30111122  192.33299255    4.90999985    0.01000000
   16.30444336  208.13600159    4.90999985    0.01000000
   16.30777740  203.47700500    4.90999985    0.01000000
   16.31083298  195.94799805    4.90999985    0.01000000
   16.31694603  195.94799805    4.90999985    0.01000000
   16.32111168  191.49899292    4.90999985    0.01000000
   16.32444572  188.03900146    4.90999985    0.01000000
   16.32750130  197.69200134    4.90999985    0.01000000
   16.33027840  184.47900391    4.90999985    0.01000000
   16.33139038  185.22200012    4.90999985    0.01000000
   16.33444595  184.36300659    4.90999985    0.01000000
   16.33777809  195.66799927    4.90999985    0.01000000
   16.34111214  181.74299622    4.90999985    0.01000000
   16.34416771  182.61599731    4.90999985    0.01000000
   16.34749985  189.25000000    4.90999985    0.01000000
   16.35083389  192.30000305    4.90999985    0.01000000
   16.35388947  199.94599915    4.90999985    0.01000000
   16.35972214  199.94599915    4.90999985    0.01000000
   16.36388969  181.74499512    4.90999985    0.01000000
   16.36722183  181.03399658    4.90999985    0.01000000
   16.37055588  183.31399536    4.90999985    0.01000000
   16.37361145  182.71000671    4.90999985    0.01000000
   16.37694550  190.56900024    4.90999985    0.01000000
   16.38000107  195.14300537    4.90999985    0.01000000
   16.38333321  187.25399780    4.90999985    0.01000000
   16.38666725  196.58299255    4.90999985    0.01000000
   16.38972282  196.95899963    4.90999985    0.01000000
   16.39305496  185.15299988    4.90999985    0.01000000
   16.39638901  192.64799500    4.90999985    0.01000000
   16.39694405  188.15299988    4.90999985    0.01000000
   16.40277672  188.15299988    4.90999985    0.01000000
   16.40666580  198.80900574    4.90999985    0.01000000
   16.40999985  177.53700256    4.90999985    0.01000000
   16.41333389  184.77600098    4.90999985    0.01000000
   16.41638756  176.09399414    4.90999985    0.01000000
   16.41972160  181.64199829    4.90999985    0.01000000
   16.42305565  187.38900757    4.90999985    0.01000000
   16.42611122  180.55400085    4.90999985    0.01000000
   16.42944336  179.23100281    4.90999985    0.01000000
   16.43027687  182.88299561    4.90999985    0.01000000
   16.43305397  192.98500061    4.90999985    0.01000000
   16.43638802  183.55799866    4.90999985    0.01000000
   16.43944359  190.76499939    4.90999985    0.01000000
   16.44555473  190.76499939    4.90999985    0.01000000
   16.44972038  193.23399353    4.90999985    0.01000000
   16.45277786  187.33399963    4.90999985    0.01000000
   16.45611191  192.11700439    4.90999985    0.01000000
   16.45944595  186.41900635    4.90999985    0.01000000
   16.46250153  179.65899658    4.90999985    0.01000000
   16.46361160  190.00700378    4.90999985    0.01000000
   16.46611214  190.24299622    4.90999985    0.01000000
   16.46944427  192.20700073    4.90999985    0.01000000
   16.47249985  205.57800293    4.90999985    0.01000000
   16.47583389  195.31900024    4.90999985    0.01000000
   16.47888947  202.47900391    4.90999985    0.01000000
   16.48222351  191.53700256    4.90999985    0.01000000
   16.48833275  191.53700256    4.90999985    0.01000000
   16.49250031  194.52400208    4.90999985    0.01000000
   16.49583435  198.65400696    4.90999985    0.01000000
   16.49694443  189.58700562    4.90999985    0.01000000
   16.49944496  193.80400085    4.90999985    0.01000000
   16.50277710  198.29299927    4.90999985    0.01000000
   16.50583267  202.59500122    4.90999985    0.01000000
   16.50916672  197.97099304    4.90999985    0.01000000
   16.51222229  199.91200256    4.90999985    0.01000000
   16.51555634  197.53199768    4.90999985    0.01000000
   16.51888847  195.69099426    4.90999985    0.01000000
   16.52194405  197.71899414    4.90999985    0.01000000
   16.52527809  196.45899963    4.90999985    0.01000000
   16.53111076  196.45899963    4.90999985    0.01000000
   16.53527641  195.04100037    4.90999985    0.01000000
   16.53861046  192.10699463    4.90999985    0.01000000
   16.54166603  194.14100647    4.90999985    0.01000000
   16.54500008  195.51100159    4.90999985    0.01000000
   16.54833221  196.66900635    4.90999985    0.01000000
   16.55138779  198.02400208    4.90999985    0.01000000
   16.55472183  191.75100708    4.90999985    0.01000000
   16.55805397  196.35499573    4.90999985    0.01000000
   16.56110954  188.13099670    4.90999985    0.01000000
   16.56361008  189.21899414    4.90999985    0.01000000
   16.56472206  184.19500732    4.90999985    0.01000000
   16.56805611  196.38200378    4.90999985    0.01000000
   16.57416725  196.38200378    4.90999985    0.01000000
   16.57805634  194.85400391    4.90999985    0.01000000
   16.58139038  196.88699341    4.90999985    0.01000000
   16.58472252  195.10000610    4.90999985    0.01000000
   16.58777809  193.24000549    4.90999985    0.01000000
   16.59111214  195.31900024    4.90999985    0.01000000
   16.59444427  191.68800354    4.90999985    0.01000000
   16.59694481  201.24699402    4.90999985    0.01000000
   16.59805679  203.02499390    4.90999985    0.01000000
   16.60138893  195.51100159    4.90999985    0.01000000
   16.60444450  192.69500732    4.90999985    0.01000000
   16.60777855  193.75599670    4.90999985    0.01000000
   16.61111069  193.26699829    4.90999985    0.01000000
   16.61694527  193.26699829    4.90999985    0.01000000
   16.62111092  189.50300598    4.90999985    0.01000000
   16.62416649  191.55200195    4.90999985    0.01000000
   16.62750053  182.39300537    4.90999985    0.01000000
   16.63027763  198.58900452    4.90999985    0.01000000
   16.63111115  197.06199646    4.90999985    0.01000000
   16.63444519  193.57400513    4.90999985    0.01000000
   16.63750076  200.25799561    4.90999985    0.01000000
   16.64083290  200.43099976    4.90999985    0.01000000
   16.64416695  206.51899719    4.90999985    0.01000000
   16.64722252  195.13999939    4.90999985    0.01000000
   16.65055466  188.11099243    4.90999985    0.01000000
   16.65361023  187.84899902    4.90999985    0.01000000
   16.65972137  187.84899902    4.90999985    0.01000000
   16.66388893  188.39399719    4.90999985    0.01000000
   16.66722107  184.95199585    4.90999985    0.01000000
   16.67027664  186.84199524    4.90999985    0.01000000
   16.67361069  190.16999817    4.90999985    0.01000000
   16.67666626  195.12300110    4.90999985    0.01000000
   16.68000031  188.89900208    4.90999985    0.01000000
   16.68333244  192.47399902    4.90999985    0.01000000
   16.68638802  190.30200195    4.90999985    0.01000000
   16.68972206  187.67700195    4.90999985    0.01000000
   16.69305420  196.06500244    4.90999985    0.01000000
   16.69610977  188.19299316    4.90999985    0.01000000
   16.69694328  187.89399719    4.90999985    0.01000000
   16.70250130  187.89399719    4.90999985    0.01000000
   16.70666695  186.17300415    4.90999985    0.01000000
   16.71000099  187.09199524    4.90999985    0.01000000
   16.71305656  188.43499756    4.90999985    0.01000000
   16.73083305  191.83799744    4.90999985    0.01000000
   16.73305511  185.48800659    4.90999985    0.01000000
   16.73638916  181.36399841    4.90999985    0.01000000
   16.73972321  186.65800476    4.90999985    0.01000000
   16.74555588  186.65800476    4.90999985    0.01000000
   16.74972153  186.75900269    4.90999985    0.01000000
   16.75305557  182.27999878    4.90999985    0.01000000
   16.75611115  174.15199280    4.90999985    0.01000000
   16.75944519  180.72900391    4.90999985    0.01000000
   16.76277733  180.06399536    4.90999985    0.01000000
   16.76388931  183.13400269    4.90999985    0.01000000
   16.76638794  175.74499512    4.90999985    0.01000000
   16.76972198  182.26699829    4.90999985    0.01000000
   16.77277756  172.09300232    4.90999985    0.01000000
   16.77611160  178.60899353    4.90999985    0.01000000
   16.77944374  175.13299561    4.90999985    0.01000000
   16.78249931  180.28199768    4.90999985    0.01000000
   16.78833199  180.28199768    4.90999985    0.01000000
   16.79249954  183.82699585    4.90999985    0.01000000
   16.79583359  195.20399475    4.90999985    0.01000000
   16.79722214  176.09100342    4.90999985    0.01000000
   16.79944420  186.14799500    4.90999985    0.01000000
   16.80277634  181.19999695    4.90999985    0.01000000
   16.80583191  179.70799255    4.90999985    0.01000000
   16.80916595  180.56300354    4.90999985    0.01000000
   16.81250000  182.20599365    4.90999985    0.01000000
   16.81555557  174.98699951    4.90999985    0.01000000
   16.81888962  179.27600098    4.90999985    0.01000000
   16.82222366  182.39700317    4.90999985    0.01000000
   16.82527924  188.77499390    4.90999985    0.01000000
   16.83139038  188.77499390    4.90999985    0.01000000
   16.83555603  181.29899597    4.90999985    0.01000000
   16.83861160  189.90600586    4.90999985    0.01000000
   16.84194565  185.69999695    4.90999985    0.01000000
   16.84500122  184.29600525    4.90999985    0.01000000
   16.84833336  188.04400635    4.90999985    0.01000000
   16.85166740  181.39599609    4.90999985    0.01000000
   16.85472298  175.80099487    4.90999985    0.01000000
   16.85805511  176.21400452    4.90999985    0.01000000
   16.86138916  194.64599609    4.90999985    0.01000000
   16.86388969  176.92300415    4.90999985    0.01000000
   16.86499977  179.95500183    4.90999985    0.01000000
   16.86833382  186.14999390    4.90999985    0.01000000
   16.87416649  186.14999390    4.90999985    0.01000000
   16.87833405  182.13699341    4.90999985    0.01000000
   16.88138962  185.73100281    4.90999985    0.01000000
   16.88472176  178.78100586    4.90999985    0.01000000
   16.88805580  185.53799438    4.90999985    0.01000000
   16.89111137  189.20199585    4.90999985    0.01000000
   16.89444351  187.72900391    4.90999985    0.01000000
   16.89749908  195.06300354    4.90999985    0.01000000
   16.89805603  186.81799316    4.90999985    0.01000000
   16.90138817  184.15400696    4.90999985    0.01000000
   16.90444374  180.29499817    4.90999985    0.01000000
   16.90777779  189.17599487    4.90999985    0.01000000
   16.91110992  197.74299622    4.90999985    0.01000000
   16.91694450  197.74299622    4.90999985    0.01000000
   16.92111015  190.77400208    4.90999985    0.01000000
   16.92444420  191.13600159    4.90999985    0.01000000
   16.92749977  182.24899292    4.90999985    0.01000000
   16.93083191  194.61999512    4.90999985    0.01000000
   16.93111038  190.14500427    4.90999985    0.01000000
   16.93444443  193.24099731    4.90999985    0.01000000
   16.93750000  190.15199280    4.90999985    0.01000000
   16.94083214  192.63699341    4.90999985    0.01000000
   16.94416618  191.07099915    4.90999985    0.01000000
   16.94722176  185.95399475    4.90999985    0.01000000
   16.95055580  192.81100464    4.90999985    0.01000000
   16.95388985  193.40499878    4.90999985    0.01000000
   16.95972252  193.40499878    4.90999985    0.01000000
   16.96416664  188.97700500    4.90999985    0.01000000
   16.96444511  193.66299438    4.90999985    0.01000000
   16.96777916  193.10400391    4.90999985    0.01000000
   16.97083473  197.83999634    4.90999985    0.01000000
   16.97416687  190.63699341    4.90999985    0.01000000
   16.97750092  186.68200684    4.90999985    0.01000000
   16.98055649  196.60899353    4.90999985    0.01000000
   16.98388863  198.85200500    4.90999985    0.01000000
   16.98722267  192.85299683    4.90999985    0.01000000
   16.99027824  213.06799316    4.90999985    0.01000000
   16.99361229  201.75799561    4.90999985    0.01000000
   16.99694443  199.35499573    4.90999985    0.01000000
   16.99749947  203.25199890    4.90999985    0.01000000
   17.00277710  203.25199890    4.90999985    0.01000000
   17.00694466  200.50100708    4.90999985    0.01000000
   17.01000023  201.44900513    4.90999985    0.01000000
   17.01333427  195.06199646    4.90999985    0.01000000
   17.01638794  198.66799927    4.90999985    0.01000000
   17.01972198  199.87600708    4.90999985    0.01000000
   17.02305603  205.41299438    4.90999985    0.01000000
   17.02611160  199.80599976    4.90999985    0.01000000
   17.02944374  207.65699768    4.90999985    0.01000000
   17.03083229  194.97000122    4.90999985    0.01000000
   17.03305435  198.69599915    4.90999985    0.01000000
   17.03638840  209.58299255    4.90999985    0.01000000
   17.03972244  208.74299622    4.90999985    0.01000000
   17.04555511  208.74299622    4.90999985    0.01000000
   17.04972076  210.38600159    4.90999985    0.01000000
   17.05277634  219.38600159    4.90999985    0.01000000
   17.05611038  207.22099304    4.90999985    0.01000000
   17.05944443  208.55900574    4.90999985    0.01000000
   17.06250000  205.22900391    4.90999985    0.01000000
   17.06416512  218.78100586    4.90999985    0.01000000
   17.06611061  199.63999939    4.90999985    0.01000000
   17.06944466  215.38499451    4.90999985    0.01000000
   17.07277870  198.30400085    4.90999985    0.01000000
   17.07583427  208.34800720    4.90999985    0.01000000
   17.07916832  195.66099548    4.90999985    0.01000000
   17.08222389  217.49800110    4.90999985    0.01000000
   17.08833313  217.49800110    4.90999985    0.01000000
   17.09250069  191.28599548    4.90999985    0.01000000
   17.09583473  194.90899658    4.90999985    0.01000000
   17.09749985  204.71099854    4.90999985    0.01000000
   17.09944534  201.75300598    4.90999985    0.01000000
   17.10277748  196.58500671    4.90999985    0.01000000
   17.10611153  183.26499939    4.90999985    0.01000000
   17.10916710  202.53700256    4.90999985    0.01000000
   17.11250114  194.02099609    4.90999985    0.01000000
   17.11555672  194.93600464    4.90999985    0.01000000
   17.11888885  201.32299805    4.90999985    0.01000000
   17.12222290  179.58299255    4.90999985    0.01000000
   17.12527847  200.35099792    4.90999985    0.01000000
   17.13111115  200.35099792    4.90999985    0.01000000
   17.13527679  186.45599365    4.90999985    0.01000000
   17.13861084  184.94400024    4.90999985    0.01000000
   17.14194489  196.81700134    4.90999985    0.01000000
   17.14500046  197.71000671    4.90999985    0.01000000
   17.14833260  193.93299866    4.90999985    0.01000000
   17.15166664  212.85499573    4.90999985    0.01000000
   17.15472221  188.00500488    4.90999985    0.01000000
   17.15805435  193.51199341    4.90999985    0.01000000
   17.16110992  193.56900024    4.90999985    0.01000000
   17.16416550  187.41999817    4.90999985    0.01000000
   17.16472244  189.77299500    4.90999985    0.01000000
   17.16805458  185.72999573    4.90999985    0.01000000
   17.17416573  185.72999573    4.90999985    0.01000000
   17.17805481  187.57899475    4.90999985    0.01000000
   17.18138885  189.36799622    4.90999985    0.01000000
   17.18472099  180.02499390    4.90999985    0.01000000
   17.18777657  190.51400757    4.90999985    0.01000000
   17.19111061  193.14999390    4.90999985    0.01000000
   17.19444275  187.33399963    4.90999985    0.01000000
   17.19749832  179.98699951    4.90999985    0.01000000
   17.19777679  187.45799255    4.90999985    0.01000000
   17.20111275  196.41799927    4.90999985    0.01000000
   17.20444489  195.88200378    4.90999985    0.01000000
   17.20750046  187.27299500    4.90999985    0.01000000
   17.21083450  189.37500000    4.90999985    0.01000000
   17.21694565  189.37500000    4.90999985    0.01000000
   17.22111130  180.15499878    4.90999985    0.01000000
   17.22416687  177.01499939    4.90999985    0.01000000
   17.22750092  174.13099670    4.90999985    0.01000000
   17.23083305  183.77699280    4.90999985    0.01000000
   17.23111153  180.85699463    4.90999985    0.01000000
   17.23444557  182.70899963    4.90999985    0.01000000
   17.23777771  182.37600708    4.90999985    0.01000000
   17.24083328  178.73699951    4.90999985    0.01000000
   17.24416733  184.72200012    4.90999985    0.01000000
   17.24722290  174.76100159    4.90999985    0.01000000
   17.25055504  176.76800537    4.90999985    0.01000000
   17.25388908  189.12899780    4.90999985    0.01000000
   17.25972176  189.12899780    4.90999985    0.01000000
   17.26388931  178.77499390    4.90999985    0.01000000
   17.26444435  173.90299988    4.90999985    0.01000000
   17.26777840  183.56799316    4.90999985    0.01000000
   17.27083397  177.83799744    4.90999985    0.01000000
   17.27416611  183.61999512    4.90999985    0.01000000
   17.27722168  174.19000244    4.90999985    0.01000000
   17.28055573  176.73100281    4.90999985    0.01000000
   17.28388786  185.52400208    4.90999985    0.01000000
   17.28694344  181.22200012    4.90999985    0.01000000
   17.29027748  174.63299561    4.90999985    0.01000000
   17.29361153  178.92799377    4.90999985    0.01000000
   17.29666710  189.72500610    4.90999985    0.01000000
   17.29777718  189.72099304    4.90999985    0.01000000
   17.30249977  189.72099304    4.90999985    0.01000000
   17.30666542  179.42999268    4.90999985    0.01000000
   17.30999947  184.98500061    4.90999985    0.01000000
   17.31305504  199.87699890    4.90999985    0.01000000
   17.31638718  180.29299927    4.90999985    0.01000000
   17.31972313  187.38600159    4.90999985    0.01000000
   17.32305717  189.34199524    4.90999985    0.01000000
   17.32611275  189.04400635    4.90999985    0.01000000
   17.32944489  179.72099304    4.90999985    0.01000000
   17.33111191  176.45500183    4.90999985    0.01000000
   17.33305550  176.36000061    4.90999985    0.01000000
   17.33611107  187.86700439    4.90999985    0.01000000
   17.33944511  193.79899597    4.90999985    0.01000000
   17.34555626  193.79899597    4.90999985    0.01000000
   17.34944534  181.97900391    4.90999985    0.01000000
   17.35277748  180.94500732    4.90999985    0.01000000
   17.35611153  188.43499756    4.90999985    0.01000000
   17.35916710  184.04200745    4.90999985    0.01000000
   17.36250114  184.66400146    4.90999985    0.01000000
   17.36444473  182.76300049    4.90999985    0.01000000
   17.36638832  194.72799683    4.90999985    0.01000000
   17.36944389  194.96400452    4.90999985    0.01000000
   17.37277794  189.76800537    4.90999985    0.01000000
   17.37583351  188.14599609    4.90999985    0.01000000
   17.37916756  184.42999268    4.90999985    0.01000000
   17.38249969  187.19500732    4.90999985    0.01000000
   17.38833237  187.19500732    4.90999985    0.01000000
   17.39249992  194.96200562    4.90999985    0.01000000
   17.39555550  199.98800659    4.90999985    0.01000000
   17.39777756  209.17300415    4.90999985    0.01000000
   17.39944458  192.97599792    4.90999985    0.01000000
   17.40250015  198.73800659    4.90999985    0.01000000
   17.40583229  195.33799744    4.90999985    0.01000000
   17.40888786  188.58200073    4.90999985    0.01000000
   17.41222191  197.95700073    4.90999985    0.01000000
   17.41555595  183.78700256    4.90999985    0.01000000
   17.41860962  189.76400757    4.90999985    0.01000000
   17.42194366  196.13099670    4.90999985    0.01000000
   17.42527771  197.61300659    4.90999985    0.01000000
   17.43111038  197.61300659    4.90999985    0.01000000
   17.43527603  227.33000183    4.90999985    0.01000000
   17.43861008  207.71699524    4.90999985    0.01000000
   17.44166565  198.05400085    4.90999985    0.01000000
   17.44499969  221.16299438    4.90999985    0.01000000
   17.44805527  198.25999451    4.90999985    0.01000000
   17.45138931  212.11700439    4.90999985    0.01000000
   17.45472336  212.20899963    4.90999985    0.01000000
   17.45777893  211.03300476    4.90999985    0.01000000
   17.46111107  208.94500732    4.90999985    0.01000000
   17.46444511  208.15800476    4.90999985    0.01000000
   17.46472359  218.71200562    4.90999985    0.01000000
   17.46805573  211.42799377    4.90999985    0.01000000
   17.47389030  211.42799377    4.90999985    0.01000000
   17.47805595  207.05299377    4.90999985    0.01000000
   17.48139000  202.67900085    4.90999985    0.01000000
   17.48444557  210.25999451    4.90999985    0.01000000
   17.48777771  226.47399902    4.90999985    0.01000000
   17.49111176  208.52999878    4.90999985    0.01000000
   17.49416733  208.09300232    4.90999985    0.01000000
   17.49749947  219.02999878    4.90999985    0.01000000
   17.49805641  224.37399292    4.90999985    0.01000000
   17.50111198  220.15299988    4.90999985    0.01000000
   17.50444412  219.71899414    4.90999985    0.01000000
   17.50749969  215.49699402    4.90999985    0.01000000
   17.51083374  204.84199524    4.90999985    0.01000000
   17.51694489  204.84199524    4.90999985    0.01000000
   17.52083397  199.79299927    4.90999985    0.01000000
   17.52416611  207.82099915    4.90999985    0.01000000
   17.52750015  204.23500061    4.90999985    0.01000000
   17.53055573  203.97700500    4.90999985    0.01000000
   17.53138924  220.61000061    4.90999985    0.01000000
   17.53416634  204.28399658    4.90999985    0.01000000
   17.53750038  206.48500061    4.90999985    0.01000000
   17.54055595  219.97099304    4.90999985    0.01000000
   17.54388809  213.64599609    4.90999985    0.01000000
   17.54722214  206.20399475    4.90999985    0.01000000
   17.55027771  213.56599426    4.90999985    0.01000000
   17.55360985  216.29299927    4.90999985    0.01000000
   17.55972099  216.29299927    4.90999985    0.01000000
   17.56388855  201.49499512    4.90999985    0.01000000
   17.56472206  194.07299805    4.90999985    0.01000000
   17.56750107  199.05799866    4.90999985    0.01000000
   17.57083511  195.54600525    4.90999985    0.01000000
   17.57389069  202.25199890    4.90999985    0.01000000
   17.57722282  198.17900085    4.90999985    0.01000000
   17.58055687  194.09599304    4.90999985    0.01000000
   17.58361244  197.96099854    4.90999985    0.01000000
   17.58694458  193.21099854    4.90999985    0.01000000
   17.59027863  197.50599670    4.90999985    0.01000000
   17.59333420  207.33299255    4.90999985    0.01000000
   17.59666824  196.15100098    4.90999985    0.01000000
   17.59833336  200.39900208    4.90999985    0.01000000
   17.60250092  200.39900208    4.90999985    0.01000000
   17.60666656  197.99400330    4.90999985    0.01000000
   17.61000061  206.61300659    4.90999985    0.01000000
   17.61305618  207.55700684    4.90999985    0.01000000
   17.61638832  197.35800171    4.90999985    0.01000000
   17.61944389  217.20399475    4.90999985    0.01000000
   17.62277794  215.60099792    4.90999985    0.01000000
   17.62611198  218.67399597    4.90999985    0.01000000
   17.62916756  221.46600342    4.90999985    0.01000000
   17.63166618  227.32899475    4.90999985    0.01000000
   17.63277817  237.93699646    4.90999985    0.01000000
   17.63611031  272.03100586    4.90999985    0.01000000
   17.63916588  252.22099304    4.90999985    0.01000000
   17.64527702  252.22099304    4.90999985    0.01000000
   17.64944458  290.34100342    4.90999985    0.01000000
   17.65277672  320.55398560    4.90999985    0.01000000
   17.65611076  356.93301392    4.90999985    0.01000000
   17.65916634  400.10400391    4.90999985    0.01000000
   17.66110992  411.73999023    4.90999985    0.01000000
   17.66250038  456.39300537    4.90999985    0.01000000
   17.66388893  453.69900513    4.90999985    0.01000000
   17.66527748  418.60101318    4.90999985    0.01000000
   17.66666603  401.23001099    4.90999985    0.01000000
   17.66805458  346.21099854    4.90999985    0.01000000
   17.66805458  252.22099304    4.90999985    0.01000000
   17.66833305  290.34100342    4.90999985    0.01000000
   17.66833305  320.55398560    4.90999985    0.01000000
   17.66860962  356.93301392    4.90999985    0.01000000
   17.66860962  400.10400391    4.90999985    0.01000000
   17.66860962  218.67399597    4.90999985    0.01000000
   17.66888809  221.46600342    4.90999985    0.01000000
   17.66888809  237.93699646    4.90999985    0.01000000
   17.66888809  272.03100586    4.90999985    0.01000000
   17.66944313  252.88299561    4.90999985    0.01000000
   17.67277718  124.05200195    4.90999985    0.01000000
   17.67611122  106.93299866    4.90999985    0.01000000
   17.67916679   99.19509888    4.90999985    0.01000000
   17.68249893  119.13600159    4.90999985    0.01000000
   17.68888855  119.13600159    4.90999985    0.01000000
   17.69305420   96.00589752    4.90999985    0.01000000
   17.69638824   71.94740295    4.90999985    0.01000000
   17.69944382   54.38280106    4.90999985    0.01000000
   17.70305634   -1.00000000    4.90999985    0.01000000
   17.70639038   -1.00000000    4.90999985    0.01000000
   17.70972252   -1.00000000    4.90999985    0.01000000
   17.71277809   -1.00000000    4.90999985    0.01000000
   17.71611214   -1.00000000    4.90999985    0.01000000
   17.71944427   -1.00000000    4.90999985    0.01000000
   17.72249985   -1.00000000    4.90999985    0.01000000
   17.72583389   -1.00000000    4.90999985    0.01000000
   17.74833298   -1.00000000    4.90999985    0.01000000
   17.75166702   -1.00000000    4.90999985    0.01000000
   17.75472260   -1.00000000    4.90999985    0.01000000
   17.75805473   -1.00000000    4.90999985    0.01000000
   17.76138878   -1.00000000    4.90999985    0.01000000
   17.76444435   -1.00000000    4.90999985    0.01000000
   17.76777840   -1.00000000    4.90999985    0.01000000
   17.77083397   -1.00000000    4.90999985    0.01000000
   17.77916718   -1.00000000    4.90999985    0.01000000
   17.78249931   -1.00000000    4.90999985    0.01000000
   17.78583336   -1.00000000    4.90999985    0.01000000
   17.78888893   -1.00000000    4.90999985    0.01000000
   17.79222107   -1.00000000    4.90999985    0.01000000
   17.79555511   -1.00000000    4.90999985    0.01000000
   17.79861069   -1.00000000    4.90999985    0.01000000
   17.80194283   -1.00000000    4.90999985    0.01000000
   17.80527687   -1.00000000    4.90999985    0.01000000
   17.80833244   -1.00000000    4.90999985    0.01000000
   17.81166649   -1.00000000    4.90999985    0.01000000
   17.82194519   -1.00000000    4.90999985    0.01000000
   17.82527924   -1.00000000    4.90999985    0.01000000
   17.82833481   -1.00000000    4.90999985    0.01000000
   17.83166695   -1.00000000    4.90999985    0.01000000
   17.83500099   -1.00000000    4.90999985    0.01000000
   17.83805656   -1.00000000    4.90999985    0.01000000
   17.84138870   -1.00000000    4.90999985    0.01000000
   17.84444427   -1.00000000    4.90999985    0.01000000
   17.84777832   -1.00000000    4.90999985    0.01000000
   17.85138893   -1.00000000    4.90999985    0.01000000
   17.85472298   -1.00000000    4.90999985    0.01000000
   17.86472321   -1.00000000    4.90999985    0.01000000
   17.86805534   -1.00000000    4.90999985    0.01000000
   17.87111092   -1.00000000    4.90999985    0.01000000
   17.87444496   -1.00000000    4.90999985    0.01000000
   17.87777710   -1.00000000    4.90999985    0.01000000
   17.88083267   -1.00000000    4.90999985    0.01000000
   17.88444519   -1.00000000    4.90999985    0.01000000
   17.88777733   -1.00000000    4.90999985    0.01000000
   17.89083290   -1.00000000    4.90999985    0.01000000
   17.89416695   -1.00000000    4.90999985    0.01000000
   17.89749908   -1.00000000    4.90999985    0.01000000
   17.90749931   -1.00000000    4.90999985    0.01000000
   17.91083336   -1.00000000    4.90999985    0.01000000
   17.91416550   -1.00000000    4.90999985    0.01000000
   17.91777802   -1.00000000    4.90999985    0.01000000
   17.92083359   -1.00000000    4.90999985    0.01000000
   17.92416573   -1.00000000    4.90999985    0.01000000
   17.92749977   -1.00000000    4.90999985    0.01000000
   17.93055534   -1.00000000    4.90999985    0.01000000
   17.93388748   -1.00000000    4.90999985    0.01000000
   17.93694305   -1.00000000    4.90999985    0.01000000
   17.94027710   -1.00000000    4.90999985    0.01000000
   17.95055580   -1.00000000    4.90999985    0.01000000
   17.95361137   -1.00000000    4.90999985    0.01000000
   17.95694542   -1.00000000    4.90999985    0.01000000
   17.96027946   -1.00000000    4.90999985    0.01000000
   17.96333504   -1.00000000    4.90999985    0.01000000
   17.96666718   -1.00000000    4.90999985    0.01000000
   17.97000122   -1.00000000    4.90999985    0.01000000
   17.97305679   -1.00000000    4.90999985    0.01000000
   17.97638893   -1.00000000    4.90999985    0.01000000
   17.97944450   -1.00000000    4.90999985    0.01000000
   17.98305511   -1.00000000    4.90999985    0.01000000
   17.99333382   -1.00000000    4.90999985    0.01000000
   17.99666786   -1.00000000    4.90999985    0.01000000
   17.99972153   -1.00000000    4.90999985    0.01000000
   18.00305557   -1.00000000    4.90999985    0.01000000
   18.00638962   -1.00000000    4.90999985    0.01000000
   18.00944519   -1.00000000    4.90999985    0.01000000
   18.01277733   -1.00000000    4.90999985    0.01000000
   18.01638794   -1.00000000    4.90999985    0.01000000
   18.01944351   -1.00000000    4.90999985    0.01000000
   18.02277756   -1.00000000    4.90999985    0.01000000
   18.02611160   -1.00000000    4.90999985    0.01000000
   18.03610992   -1.00000000    4.90999985    0.01000000
   18.03944397   -1.00000000    4.90999985    0.01000000
   18.04277802   -1.00000000    4.90999985    0.01000000
   18.04583359   -1.00000000    4.90999985    0.01000000
   18.04944420   -1.00000000    4.90999985    0.01000000
   18.05249977   -1.00000000    4.90999985    0.01000000
   18.05583191   -1.00000000    4.90999985    0.01000000
   18.05916595   -1.00000000    4.90999985    0.01000000
   18.06222153   -1.00000000    4.90999985    0.01000000
   18.06555557   -1.00000000    4.90999985    0.01000000
   18.06861115   -1.00000000    4.90999985    0.01000000
   18.07916832   -1.00000000    4.90999985    0.01000000
   18.08277893   -1.00000000    4.90999985    0.01000000
   18.08583450   -1.00000000    4.90999985    0.01000000
   18.08916664   -1.00000000    4.90999985    0.01000000
   18.09250069   -1.00000000    4.90999985    0.01000000
   18.09555626   -1.00000000    4.90999985    0.01000000
   18.09889030   -1.00000000    4.90999985    0.01000000
   18.10194397   -1.00000000    4.90999985    0.01000000
   18.10527802   -1.00000000    4.90999985    0.01000000
   18.10861206   -1.00000000    4.90999985    0.01000000
   18.11166763   -1.00000000    4.90999985    0.01000000
   18.12194443   -1.00000000    4.90999985    0.01000000
   18.12500000   -1.00000000    4.90999985    0.01000000
   18.12833405   -1.00000000    4.90999985    0.01000000
   18.13166618   -1.00000000    4.90999985    0.01000000
   18.13472176   -1.00000000    4.90999985    0.01000000
   18.13805580   -1.00000000    4.90999985    0.01000000
   18.14138794   -1.00000000    4.90999985    0.01000000
   18.14444351   -1.00000000    4.90999985    0.01000000
   18.14777756   -1.00000000    4.90999985    0.01000000
   18.15138817   -1.00000000    4.90999985    0.01000000
   18.15472221   -1.00000000    4.90999985    0.01000000
   18.16472244   -1.00000000    4.90999985    0.01000000
   18.16805458   -1.00000000    4.90999985    0.01000000
   18.17111015   -1.00000000    4.90999985    0.01000000
   18.17444420   -1.00000000    4.90999985    0.01000000
   18.17777634   -1.00000000    4.90999985    0.01000000
   18.18083191   -1.00000000    4.90999985    0.01000000
   18.18444443   -1.00000000    4.90999985    0.01000000
   18.18750000   -1.00000000    4.90999985    0.01000000
   18.19083214   -1.00000000    4.90999985    0.01000000
   18.19416618   -1.00000000    4.90999985    0.01000000
   18.19722176   -1.00000000    4.90999985    0.01000000
   18.20750046   -1.00000000    4.90999985    0.01000000
   18.21083450   -1.00000000    4.90999985    0.01000000
   18.21389008   -1.00000000    4.90999985    0.01000000
   18.21750069   -1.00000000    4.90999985    0.01000000
   18.22055626   -1.00000000    4.90999985    0.01000000
   18.22389030   -1.00000000    4.90999985    0.01000000
   18.22722244   -1.00000000    4.90999985    0.01000000
   18.23027802   -1.00000000    4.90999985    0.01000000
   18.23361206   -1.00000000    4.90999985    0.01000000
   18.23666763   -1.00000000    4.90999985    0.01000000
   18.23999977   -1.00000000    4.90999985    0.01000000
   18.25027847   -1.00000000    4.90999985    0.01000000
   18.25361061   -1.00000000    4.90999985    0.01000000
   18.25694466   -1.00000000    4.90999985    0.01000000
   18.26000023   -1.00000000    4.90999985    0.01000000
   18.26333427   -1.00000000    4.90999985    0.01000000
   18.26666641   -1.00000000    4.90999985    0.01000000
   18.26972198   -1.00000000    4.90999985    0.01000000
   18.27305603   -1.00000000    4.90999985    0.01000000
   18.27638817   -1.00000000    4.90999985    0.01000000
   18.27944374   -1.00000000    4.90999985    0.01000000
   18.28305435   -1.00000000    4.90999985    0.01000000
   18.29333305   -1.00000000    4.90999985    0.01000000
   18.29638863   -1.00000000    4.90999985    0.01000000
   18.29972076   -1.00000000    4.90999985    0.01000000
   18.30305481   -1.00000000    4.90999985    0.01000000
   18.30611038   -1.00000000    4.90999985    0.01000000
   18.30944443   -1.00000000    4.90999985    0.01000000
   18.31250000   -1.00000000    4.90999985    0.01000000
   18.31583214   -1.00000000    4.90999985    0.01000000
   18.31944466   -1.00000000    4.90999985    0.01000000
   18.32277870  209.85499573    4.90999985    0.01000000
   18.32611275  223.29499817    4.90999985    0.01000000
   18.33194542  223.29499817    4.90999985    0.01000000
   18.33611107  198.92599487    4.90999985    0.01000000
   18.33944511  200.98300171    4.90999985    0.01000000
   18.34277916  207.97999573    4.90999985    0.01000000
   18.34583473  200.89300537    4.90999985    0.01000000
   18.34916687  209.01199341    4.90999985    0.01000000
   18.34972191  195.14700317    4.90999985    0.01000000
   18.35277748  192.08599854    4.90999985    0.01000000
   18.35583305  203.13600159    4.90999985    0.01000000
   18.35916710  205.00900269    4.90999985    0.01000000
   18.36250114  194.58599854    4.90999985    0.01000000
   18.36555672  198.23599243    4.90999985    0.01000000
   18.36888885  204.18200684    4.90999985    0.01000000
   18.37500000  204.18200684    4.90999985    0.01000000
   18.37916756  191.22500610    4.90999985    0.01000000
   18.38222313  196.44400024    4.90999985    0.01000000
   18.38305473  193.22700500    4.90999985    0.01000000
   18.38611031  201.76800537    4.90999985    0.01000000
   18.38916588  199.65199280    4.90999985    0.01000000
   18.39249992  194.26600647    4.90999985    0.01000000
   18.39583397  195.50300598    4.90999985    0.01000000
   18.39888954  199.51699829    4.90999985    0.01000000
   18.40222168  190.04400635    4.90999985    0.01000000
   18.40527725  208.14999390    4.90999985    0.01000000
   18.40861130  206.41499329    4.90999985    0.01000000
   18.41194344  202.77900696    4.90999985    0.01000000
   18.41777802  202.77900696    4.90999985    0.01000000
   18.42194366  207.44500732    4.90999985    0.01000000
   18.42499924  200.33799744    4.90999985    0.01000000
   18.42833328  204.99400330    4.90999985    0.01000000
   18.43166542  208.14599609    4.90999985    0.01000000
   18.43472099  194.27999878    4.90999985    0.01000000
   18.43805504  206.33799744    4.90999985    0.01000000
   18.44138718  200.24000549    4.90999985    0.01000000
   18.44444275  200.73199463    4.90999985    0.01000000
   18.44777679  204.13699341    4.90999985    0.01000000
   18.44972038  213.11300659    4.90999985    0.01000000
   18.45138931  225.86799622    4.90999985    0.01000000
   18.45444489  215.05799866    4.90999985    0.01000000
   18.46055603  215.05799866    4.90999985    0.01000000
   18.46472359  209.77799988    4.90999985    0.01000000
   18.46805573  221.41600037    4.90999985    0.01000000
   18.47111130  222.78900146    4.90999985    0.01000000
   18.47444534  226.40100098    4.90999985    0.01000000
   18.47777748  216.36900330    4.90999985    0.01000000
   18.48083305  225.75100708    4.90999985    0.01000000
   18.48305511  232.69500732    4.90999985    0.01000000
   18.48472214  244.28399658    4.90999985    0.01000000
   18.48777771  253.82499695    4.90999985    0.01000000
   18.49111176  266.01400757    4.90999985    0.01000000
   18.49444389  272.54800415    4.90999985    0.01000000
   18.49749947  271.05899048    4.90999985    0.01000000
   18.50333405  271.05899048    4.90999985    0.01000000
   18.50749969  288.01300049    4.90999985    0.01000000
   18.51083374  300.60998535    4.90999985    0.01000000
   18.51388931  295.01800537    4.90999985    0.01000000
   18.51638794  319.93499756    4.90999985    0.01000000
   18.51777840  307.51501465    4.90999985    0.01000000
   18.52083397  319.19601440    4.90999985    0.01000000
   18.52416611  316.01901245    4.90999985    0.01000000
   18.52750015  337.55099487    4.90999985    0.01000000
   18.53055573  324.34298706    4.90999985    0.01000000
   18.53388786  312.52999878    4.90999985    0.01000000
   18.53694344  317.30801392    4.90999985    0.01000000
   18.54027748  309.32000732    4.90999985    0.01000000
   18.54638863  309.32000732    4.90999985    0.01000000
   18.55055428  295.05999756    4.90999985    0.01000000
   18.55360985  295.39898682    4.90999985    0.01000000
   18.55694389  271.68798828    4.90999985    0.01000000
   18.55999947  286.08599854    4.90999985    0.01000000
   18.56333351  272.35000610    4.90999985    0.01000000
   18.56666756  276.86801147    4.90999985    0.01000000
   18.56972313  271.25201416    4.90999985    0.01000000
   18.57305717  272.16500854    4.90999985    0.01000000
   18.57638931  255.16600037    4.90999985    0.01000000
   18.57944489  244.68499756    4.90999985    0.01000000
   18.58277893  255.85200500    4.90999985    0.01000000
   18.58333397  233.36900330    4.90999985    0.01000000
   18.58916664  233.36900330    4.90999985    0.01000000
   18.59333420  234.26400757    4.90999985    0.01000000
   18.59638977  244.12100220    4.90999985    0.01000000
   18.59972191  232.87500000    4.90999985    0.01000000
   18.60305595  229.17799377    4.90999985    0.01000000
   18.60611153  222.65400696    4.90999985    0.01000000
   18.60944557  226.07899475    4.90999985    0.01000000
   18.61277771  229.55599976    4.90999985    0.01000000
   18.61583328  216.28900146    4.90999985    0.01000000
   18.61666679  215.86700439    4.90999985    0.01000000
   18.61944389  226.15800476    4.90999985    0.01000000
   18.62277794  214.55400085    4.90999985    0.01000000
   18.62611198  216.65800476    4.90999985    0.01000000
   18.63194466  216.65800476    4.90999985    0.01000000
   18.63611031  206.83000183    4.90999985    0.01000000
   18.63944435  205.44900513    4.90999985    0.01000000
   18.64249992  211.06199646    4.90999985    0.01000000
   18.64583397  209.38800049    4.90999985    0.01000000
   18.64916611  193.87100220    4.90999985    0.01000000
   18.64999962  202.80999756    4.90999985    0.01000000
   18.65250015  202.63699341    4.90999985    0.01000000
   18.65583229  201.02499390    4.90999985    0.01000000
   18.65916634  203.29899597    4.90999985    0.01000000
   18.66222191  196.75000000    4.90999985    0.01000000
   18.66555595  199.31900024    4.90999985    0.01000000
   18.66888809  199.45899963    4.90999985    0.01000000
   18.67472076  199.45899963    4.90999985    0.01000000
   18.67888832  197.72500610    4.90999985    0.01000000
   18.68222237  203.92900085    4.90999985    0.01000000
   18.68333244  192.01600647    4.90999985    0.01000000
   18.68583298  201.57000732    4.90999985    0.01000000
   18.68916512  197.98899841    4.90999985    0.01000000
   18.69249916  197.17199707    4.90999985    0.01000000
   18.69555473  194.12600708    4.90999985    0.01000000
   18.69888878  194.76699829    4.90999985    0.01000000
   18.70222282  203.82400513    4.90999985    0.01000000
   18.70527840  196.21000671    4.90999985    0.01000000
   18.70861244  195.10899353    4.90999985    0.01000000
   18.71166801  200.72200012    4.90999985    0.01000000
   18.71777916  200.72200012    4.90999985    0.01000000
   18.72194481  188.26899719    4.90999985    0.01000000
   18.72500038  195.01899719    4.90999985    0.01000000
   18.72833443  193.31500244    4.90999985    0.01000000
   18.73139000  201.59500122    4.90999985    0.01000000
   18.73472214  198.72200012    4.90999985    0.01000000
   18.73805618  202.84800720    4.90999985    0.01000000
   18.74138832  201.27799988    4.90999985    0.01000000
   18.74444389  189.38900757    4.90999985    0.01000000
   18.74777794  192.76100159    4.90999985    0.01000000
   18.76499939  188.58299255    4.90999985    0.01000000
   18.76916695  188.58299255    4.90999985    0.01000000
   18.77333260  209.77999878    4.90999985    0.01000000
   18.77638817  214.54299927    4.90999985    0.01000000
   18.77972221  209.73599243    4.90999985    0.01000000
   18.78277779  197.69099426    4.90999985    0.01000000
   18.78610992  202.41799927    4.90999985    0.01000000
   18.78944397  194.54100037    4.90999985    0.01000000
   18.79249954  194.67799377    4.90999985    0.01000000
   18.79583359  194.83200073    4.90999985    0.01000000
   18.79805565  194.61199951    4.90999985    0.01000000
   18.79944420  193.13299561    4.90999985    0.01000000
   18.80277634  193.11000061    4.90999985    0.01000000
   18.80583191  192.23699951    4.90999985    0.01000000
   18.81194305  192.23699951    4.90999985    0.01000000
   18.81611061  193.50300598    4.90999985    0.01000000
   18.81916809  189.86599731    4.90999985    0.01000000
   18.82250023  194.82200623    4.90999985    0.01000000
   18.82583427  193.69099426    4.90999985    0.01000000
   18.82888985  197.73399353    4.90999985    0.01000000
   18.83166695  185.03700256    4.90999985    0.01000000
   18.83250046  190.81599426    4.90999985    0.01000000
   18.83583450  184.65800476    4.90999985    0.01000000
   18.83916664  190.17100525    4.90999985    0.01000000
   18.84222221  185.23399353    4.90999985    0.01000000
   18.84555626  190.32400513    4.90999985    0.01000000
   18.84861183  193.01100159    4.90999985    0.01000000
   18.85472298  193.01100159    4.90999985    0.01000000
   18.85888863  191.29800415    4.90999985    0.01000000
   18.86222267  186.67199707    4.90999985    0.01000000
   18.86499977  183.22999573    4.90999985    0.01000000
   18.86555672  187.15400696    4.90999985    0.01000000
   18.86888885  180.75700378    4.90999985    0.01000000
   18.87222290  182.58099365    4.90999985    0.01000000
   18.87527847  183.85200500    4.90999985    0.01000000
   18.87861061  180.65299988    4.90999985    0.01000000
   18.88166618  181.34800720    4.90999985    0.01000000
   18.88500023  181.53399658    4.90999985    0.01000000
   18.88833237  192.03100586    4.90999985    0.01000000
   18.89138794  185.57899475    4.90999985    0.01000000
   18.89777756  185.57899475    4.90999985    0.01000000
   18.90166664  183.19999695    4.90999985    0.01000000
   18.90499878  178.74099731    4.90999985    0.01000000
   18.90833282  186.30200195    4.90999985    0.01000000
   18.91138840  183.99099731    4.90999985    0.01000000
   18.91472244  191.22999573    4.90999985    0.01000000
   18.91805458  187.75900269    4.90999985    0.01000000
   18.92111015  188.32600403    4.90999985    0.01000000
   18.92444420  192.85000610    4.90999985    0.01000000
   18.92777634  196.23300171    4.90999985    0.01000000
   18.93083191  194.60899353    4.90999985    0.01000000
   18.93277740  202.11999512    4.90999985    0.01000000
   18.93444443  195.13499451    4.90999985    0.01000000
   18.94055557  195.13499451    4.90999985    0.01000000
   18.94472122  192.72000122    4.90999985    0.01000000
   18.94777679  202.55999756    4.90999985    0.01000000
   18.95111275  197.43299866    4.90999985    0.01000000
   18.95416832  202.64100647    4.90999985    0.01000000
   18.95750046  203.60400391    4.90999985    0.01000000
   18.96083450  214.15600586    4.90999985    0.01000000
   18.96389008  212.48800659    4.90999985    0.01000000
   18.96611214  226.51800537    4.90999985    0.01000000
   18.96750069  216.49499512    4.90999985    0.01000000
   18.97083473  235.32299805    4.90999985    0.01000000
   18.97416687  219.73800659    4.90999985    0.01000000
   18.97722244  215.69299316    4.90999985    0.01000000
   18.98333359  215.69299316    4.90999985    0.01000000
   18.98750114  212.82499695    4.90999985    0.01000000
   18.99055672  201.79400635    4.90999985    0.01000000
   18.99388885  205.05099487    4.90999985    0.01000000
   18.99722290  211.94400024    4.90999985    0.01000000
   18.99944496  210.46600342    4.90999985    0.01000000
   19.00083351  213.65800476    4.90999985    0.01000000
   19.00416756  214.89300537    4.90999985    0.01000000
   19.00749969  213.77799988    4.90999985    0.01000000
   19.01055527  219.21299744    4.90999985    0.01000000
   19.01388931  210.60099792    4.90999985    0.01000000
   19.01694489  216.36900330    4.90999985    0.01000000
   19.02027702  214.10699463    4.90999985    0.01000000
   19.02611160  214.10699463    4.90999985    0.01000000
   19.03027725  199.06900024    4.90999985    0.01000000
   19.03277779  208.27099609    4.90999985    0.01000000
   19.03388786  201.12899780    4.90999985    0.01000000
   19.03722191  220.49899292    4.90999985    0.01000000
   19.04027748  200.98100281    4.90999985    0.01000000
   19.04361153  198.33399963    4.90999985    0.01000000
   19.04694366  205.52699280    4.90999985    0.01000000
   19.04999924  204.91600037    4.90999985    0.01000000
   19.05333328  200.39599609    4.90999985    0.01000000
   19.05638885  200.45199585    4.90999985    0.01000000
   19.05972099  212.83799744    4.90999985    0.01000000
   19.06305504  207.29299927    4.90999985    0.01000000
   19.06916809  207.29299927    4.90999985    0.01000000
   19.07305717  208.67100525    4.90999985    0.01000000
   19.07638931  200.28199768    4.90999985    0.01000000
   19.07972336  216.95300293    4.90999985    0.01000000
   19.08277893  219.70300293    4.90999985    0.01000000
   19.08611107  208.57299805    4.90999985    0.01000000
   19.08944511  215.61399841    4.90999985    0.01000000
   19.09250069  216.58099365    4.90999985    0.01000000
   19.09583473  219.91999817    4.90999985    0.01000000
   19.09916687  212.01899719    4.90999985    0.01000000
   19.10000038  206.97999573    4.90999985    0.01000000
   19.10250092  231.38699341    4.90999985    0.01000000
   19.10583305  216.10499573    4.90999985    0.01000000
   19.11194420  216.10499573    4.90999985    0.01000000
   19.11611176  241.41000366    4.90999985    0.01000000
   19.11916733  235.72900391    4.90999985    0.01000000
   19.12249947  228.12500000    4.90999985    0.01000000
   19.12555504  251.32400513    4.90999985    0.01000000
   19.12888908  231.14300537    4.90999985    0.01000000
   19.13222313  237.93400574    4.90999985    0.01000000
   19.13333321  233.41099548    4.90999985    0.01000000
   19.13555527  237.85200500    4.90999985    0.01000000
   19.13888931  211.93899536    4.90999985    0.01000000
   19.14222145  218.57800293    4.90999985    0.01000000
   19.14527702  242.26600647    4.90999985    0.01000000
   19.14861107  228.40800476    4.90999985    0.01000000
   19.15472221  228.40800476    4.90999985    0.01000000
   19.15888786  223.25300598    4.90999985    0.01000000
   19.16194344  224.45799255    4.90999985    0.01000000
   19.16527748  234.52499390    4.90999985    0.01000000
   19.16694450  227.37199402    4.90999985    0.01000000
   19.16888809  240.75799561    4.90999985    0.01000000
   19.17222214  218.06399536    4.90999985    0.01000000
   19.17555428  215.38200378    4.90999985    0.01000000
   19.17860985  215.80099487    4.90999985    0.01000000
   19.18194389  222.65199280    4.90999985    0.01000000
   19.18499947  202.63999939    4.90999985    0.01000000
   19.18833160  214.60499573    4.90999985    0.01000000
   19.19166565  221.65299988    4.90999985    0.01000000
   19.19749832  221.65299988    4.90999985    0.01000000
   19.20166779  238.81100464    4.90999985    0.01000000
   19.20499992  220.32800293    4.90999985    0.01000000
   19.20805550  216.41999817    4.90999985    0.01000000
   19.21138954  212.11500549    4.90999985    0.01000000
   19.21472359  202.84800720    4.90999985    0.01000000
   19.21777916  215.69999695    4.90999985    0.01000000
   19.22111130  229.75100708    4.90999985    0.01000000
   19.22416687  205.44999695    4.90999985    0.01000000
   19.22750092  225.07099915    4.90999985    0.01000000
   19.23083305  225.28599548    4.90999985    0.01000000
   19.23361206  219.21200562    4.90999985    0.01000000
   19.23444557  229.35499573    4.90999985    0.01000000
   19.24055672  229.35499573    4.90999985    0.01000000
   19.24444389  223.25999451    4.90999985    0.01000000
   19.24777794  217.29600525    4.90999985    0.01000000
   19.25111198  225.56599426    4.90999985    0.01000000
   19.25416756  215.82299805    4.90999985    0.01000000
   19.25749969  223.32400513    4.90999985    0.01000000
   19.26055527  208.89799500    4.90999985    0.01000000
   19.26388931  197.36099243    4.90999985    0.01000000
   19.26694489  212.71699524    4.90999985    0.01000000
   19.26749992  211.81500244    4.90999985    0.01000000
   19.27083397  218.61300659    4.90999985    0.01000000
   19.27388954  235.55900574    4.90999985    0.01000000
   19.27722168  226.30900574    4.90999985    0.01000000
   19.28333282  226.30900574    4.90999985    0.01000000
   19.28750038  215.53100586    4.90999985    0.01000000
   19.29055595  210.02400208    4.90999985    0.01000000
   19.29388809  213.14599609    4.90999985    0.01000000
   19.29694366  212.52200317    4.90999985    0.01000000
   19.30027771  209.91799927    4.90999985    0.01000000
   19.30055428  201.92700195    4.90999985    0.01000000
   19.30388832  206.29800415    4.90999985    0.01000000
   19.30694389  201.93600464    4.90999985    0.01000000
   19.31027794  201.72700500    4.90999985    0.01000000
   19.31361008  193.72700500    4.90999985    0.01000000
   19.31666756  198.93200684    4.90999985    0.01000000
   19.32000160  202.19200134    4.90999985    0.01000000
   19.32611275  202.19200134    4.90999985    0.01000000
   19.33027840  197.85499573    4.90999985    0.01000000
   19.33361244  192.39999390    4.90999985    0.01000000
   19.33388901  195.36099243    4.90999985    0.01000000
   19.33722305  203.98300171    4.90999985    0.01000000
   19.34027863  189.89100647    4.90999985    0.01000000
   19.34361267  198.13000488    4.90999985    0.01000000
   19.34694481  191.23500061    4.90999985    0.01000000
   19.35000038  195.36300659    4.90999985    0.01000000
   19.35333443  189.70899963    4.90999985    0.01000000
   19.35666656  193.31300354    4.90999985    0.01000000
   19.35972214  194.14999390    4.90999985    0.01000000
   19.36305618  188.00000000    4.90999985    0.01000000
   19.36888885  188.00000000    4.90999985    0.01000000
   19.37305641  199.77699280    4.90999985    0.01000000
   19.37638855  194.49600220    4.90999985    0.01000000
   19.37944412  189.66700745    4.90999985    0.01000000
   19.38277817  190.17300415    4.90999985    0.01000000
   19.38611031  185.98899841    4.90999985    0.01000000
   19.38916588  193.35699463    4.90999985    0.01000000
   19.39249992  187.09100342    4.90999985    0.01000000
   19.39555550  187.06900024    4.90999985    0.01000000
   19.39888954  180.70500183    4.90999985    0.01000000
   19.40027809  182.29100037    4.90999985    0.01000000
   19.40250015  191.10899353    4.90999985    0.01000000
   19.40583229  183.26899719    4.90999985    0.01000000
   19.41166687  183.26899719    4.90999985    0.01000000
   19.41583252  188.67500305    4.90999985    0.01000000
   19.41916656  192.07699585    4.90999985    0.01000000
   19.42249870  187.26100159    4.90999985    0.01000000
   19.42555428  190.50100708    4.90999985    0.01000000
   19.42888832  184.93899536    4.90999985    0.01000000
   19.43222237  201.99699402    4.90999985    0.01000000
   19.43361092  186.21200562    4.90999985    0.01000000
   19.43555450  194.33799744    4.90999985    0.01000000
   19.43888855  190.87699890    4.90999985    0.01000000
   19.44222069  194.49499512    4.90999985    0.01000000
   19.44527626  189.45599365    4.90999985    0.01000000
   19.44861031  197.23800659    4.90999985    0.01000000
   19.45472336  197.23800659    4.90999985    0.01000000
   19.45888901  200.04299927    4.90999985    0.01000000
   19.46194458  192.39599609    4.90999985    0.01000000
   19.46527863  195.18499756    4.90999985    0.01000000
   19.46694565  202.01100159    4.90999985    0.01000000
   19.46888924  204.26400757    4.90999985    0.01000000
   19.47222328  203.29100037    4.90999985    0.01000000
   19.47527885  210.35600281    4.90999985    0.01000000
   19.47861099  212.97799683    4.90999985    0.01000000
   19.48194504  223.64399719    4.90999985    0.01000000
   19.48500061  234.57699585    4.90999985    0.01000000
   19.48833275  236.68899536    4.90999985    0.01000000
   19.49138832  234.38900757    4.90999985    0.01000000
   19.49749947  234.38900757    4.90999985    0.01000000
   19.50166702  238.36300659    4.90999985    0.01000000
   19.50472260  218.24699402    4.90999985    0.01000000
   19.50805473  207.84899902    4.90999985    0.01000000
   19.51138878  225.14300537    4.90999985    0.01000000
   19.51444435  211.69999695    4.90999985    0.01000000
   19.51777840  207.98300171    4.90999985    0.01000000
   19.52111053  205.32099915    4.90999985    0.01000000
   19.52416611  208.26300049    4.90999985    0.01000000
   19.52750015  204.83000183    4.90999985    0.01000000
   19.53055573  207.27799988    4.90999985    0.01000000
   19.53361130  210.43600464    4.90999985    0.01000000
   19.53444481  199.25399780    4.90999985    0.01000000
   19.54027748  199.25399780    4.90999985    0.01000000
   19.54444313  197.56100464    4.90999985    0.01000000
   19.54777718  195.64500427    4.90999985    0.01000000
   19.55083275  201.27400208    4.90999985    0.01000000
   19.55416679  201.79400635    4.90999985    0.01000000
   19.55749893  199.94799805    4.90999985    0.01000000
   19.56055450  191.68699646    4.90999985    0.01000000
   19.56388855  200.97300720    4.90999985    0.01000000
   19.56694603  200.56500244    4.90999985    0.01000000
   19.56750107  201.01899719    4.90999985    0.01000000
   19.57083511  213.21099854    4.90999985    0.01000000
   19.57389069  199.46200562    4.90999985    0.01000000
   19.57722282  200.12699890    4.90999985    0.01000000
   19.58305550  200.12699890    4.90999985    0.01000000
   19.58722305  211.67199707    4.90999985    0.01000000
   19.59055710  227.78199768    4.90999985    0.01000000
   19.59388924  210.29100037    4.90999985    0.01000000
   19.59694481  219.32600403    4.90999985    0.01000000
   19.60027885  222.71200562    4.90999985    0.01000000
   19.60083389  210.63000488    4.90999985    0.01000000
   19.60388947  219.78599548    4.90999985    0.01000000
   19.60722351  212.21299744    4.90999985    0.01000000
   19.61055565  208.37100220    4.90999985    0.01000000
   19.61361122  206.21299744    4.90999985    0.01000000
   19.61694527  201.63699341    4.90999985    0.01000000
   19.62027740  225.54899597    4.90999985    0.01000000
   19.62611198  225.54899597    4.90999985    0.01000000
   19.63027763  206.69200134    4.90999985    0.01000000
   19.63333321  220.91400146    4.90999985    0.01000000
   19.63416672  228.02600098    4.90999985    0.01000000
   19.63694382  221.80599976    4.90999985    0.01000000
   19.64027786  209.97500610    4.90999985    0.01000000
   19.64361191  215.29299927    4.90999985    0.01000000
   19.64666748  213.28900146    4.90999985    0.01000000
   19.64999962  214.25199890    4.90999985    0.01000000
   19.65333366  235.77499390    4.90999985    0.01000000
   19.65638924  230.35400391    4.90999985    0.01000000
   19.65972137  225.09300232    4.90999985    0.01000000
   19.66277695  224.69599915    4.90999985    0.01000000
   19.66888809  224.69599915    4.90999985    0.01000000
   19.67305565  229.78500366    4.90999985    0.01000000
   19.67611122  241.24200439    4.90999985    0.01000000
   19.67944336  242.57099915    4.90999985    0.01000000
   19.68277740  207.85299683    4.90999985    0.01000000
   19.68583298  223.15600586    4.90999985    0.01000000
   19.68916512  236.08799744    4.90999985    0.01000000
   19.69249916  248.25900269    4.90999985    0.01000000
   19.69555473  232.79100037    4.90999985    0.01000000
   19.69888878  247.46200562    4.90999985    0.01000000
   19.70083427  237.93600464    4.90999985    0.01000000
   19.70250130  233.30000305    4.90999985    0.01000000
   19.70583344  234.17300415    4.90999985    0.01000000
   19.71166801  234.17300415    4.90999985    0.01000000
   19.71583366  237.19999695    4.90999985    0.01000000
   19.71916771  217.79100037    4.90999985    0.01000000
   19.72222328  217.31900024    4.90999985    0.01000000
   19.72555542  230.41099548    4.90999985    0.01000000
   19.72888947  216.56300354    4.90999985    0.01000000
   19.73194504  214.83599854    4.90999985    0.01000000
   19.73416710  222.86599731    4.90999985    0.01000000
   19.73555565  222.27099609    4.90999985    0.01000000
   19.73888969  224.58099365    4.90999985    0.01000000
   19.74222183  208.15199280    4.90999985    0.01000000
   19.74527740  212.40299988    4.90999985    0.01000000
   19.74861145  205.42700195    4.90999985    0.01000000
   19.75444412  205.42700195    4.90999985    0.01000000
   19.75861168  207.28999329    4.90999985    0.01000000
   19.76194382  204.86500549    4.90999985    0.01000000
   19.76499939  208.96000671    4.90999985    0.01000000
   19.78222275  206.75599670    4.90999985    0.01000000
   19.78527641  196.52999878    4.90999985    0.01000000
   19.78833199  197.34199524    4.90999985    0.01000000
   19.79166603  202.90199280    4.90999985    0.01000000
   19.79749870  202.90199280    4.90999985    0.01000000
   19.80166626  207.07299805    4.90999985    0.01000000
   19.80499840  201.78399658    4.90999985    0.01000000
   19.80805397  217.33599854    4.90999985    0.01000000
   19.81138802  200.62399292    4.90999985    0.01000000
   19.81472206  197.46899414    4.90999985    0.01000000
   19.81555557  218.85000610    4.90999985    0.01000000
   19.81805611  207.74499512    4.90999985    0.01000000
   19.82139015  198.20799255    4.90999985    0.01000000
   19.82472229  205.75500488    4.90999985    0.01000000
   19.82777786  209.47999573    4.90999985    0.01000000
   19.83111191  210.40499878    4.90999985    0.01000000
   19.83416748  188.72500610    4.90999985    0.01000000
   19.84055710  188.72500610    4.90999985    0.01000000
   19.84472275  199.82800293    4.90999985    0.01000000
   19.84777832  199.70799255    4.90999985    0.01000000
   19.84889030  209.55799866    4.90999985    0.01000000
   19.85138893  199.24899292    4.90999985    0.01000000
   19.85472298  208.27999878    4.90999985    0.01000000
   19.85805511  207.17599487    4.90999985    0.01000000
   19.86111069  195.79100037    4.90999985    0.01000000
   19.86444473  213.63000488    4.90999985    0.01000000
   19.86777878  198.87600708    4.90999985    0.01000000
   19.87083435  193.93299866    4.90999985    0.01000000
   19.87416649  203.01499939    4.90999985    0.01000000
   19.87722206  192.62500000    4.90999985    0.01000000
   19.88333321  192.62500000    4.90999985    0.01000000
   19.88750076  191.59100342    4.90999985    0.01000000
   19.89055634  198.86700439    4.90999985    0.01000000
   19.89388847  191.31199646    4.90999985    0.01000000
   19.89722252  196.50500488    4.90999985    0.01000000
   19.90027809  192.42900085    4.90999985    0.01000000
   19.90361023  198.72099304    4.90999985    0.01000000
   19.90666580  191.36099243    4.90999985    0.01000000
   19.90999985  192.35499573    4.90999985    0.01000000
   19.91333389  201.31700134    4.90999985    0.01000000
   19.91555595  204.02699280    4.90999985    0.01000000
   19.91694450  209.05499268    4.90999985    0.01000000
   19.92027664  201.03900146    4.90999985    0.01000000
   19.92611122  201.03900146    4.90999985    0.01000000
   19.93027687  221.11099243    4.90999985    0.01000000
   19.93361092  230.97399902    4.90999985    0.01000000
   19.93666649  233.21800232    4.90999985    0.01000000
   19.93999863  227.67199707    4.90999985    0.01000000
   19.94305420  218.57200623    4.90999985    0.01000000
   19.94638824  232.55599976    4.90999985    0.01000000
   19.94888878  222.56199646    4.90999985    0.01000000
   19.95000076  237.07499695    4.90999985    0.01000000
   19.95333481  237.44799805    4.90999985    0.01000000
   19.95666695  226.15899658    4.90999985    0.01000000
   19.95972252  216.57499695    4.90999985    0.01000000
   19.96305656  233.11599731    4.90999985    0.01000000
   19.96888924  233.11599731    4.90999985    0.01000000
   19.97305679  242.52000427    4.90999985    0.01000000
   19.97638893  243.08599854    4.90999985    0.01000000
   19.97944450  222.48300171    4.90999985    0.01000000
   19.98222351  224.37300110    4.90999985    0.01000000
   19.98305511  232.27200317    4.90999985    0.01000000
   19.98638916  228.99499512    4.90999985    0.01000000
   19.98972321  224.58000183    4.90999985    0.01000000
   19.99277878  223.60899353    4.90999985    0.01000000
   19.99611092  229.80499268    4.90999985    0.01000000
   19.99916649  224.36099243    4.90999985    0.01000000
   20.00250053  215.38699341    4.90999985    0.01000000
   20.00583267  248.49899292    4.90999985    0.01000000
   20.01194382  248.49899292    4.90999985    0.01000000
   20.01583290  241.08000183    4.90999985    0.01000000
   20.01916695  249.73800659    4.90999985    0.01000000
   20.02249908  263.12500000    4.90999985    0.01000000
   20.02555466  241.87500000    4.90999985    0.01000000
   20.02888870  277.23800659    4.90999985    0.01000000
   20.03249931  267.95800781    4.90999985    0.01000000
   20.03583336  254.56199646    4.90999985    0.01000000
   20.03888893  256.13900757    4.90999985    0.01000000
   20.04222107  253.36099243    4.90999985    0.01000000
   20.04527664  245.12500000    4.90999985    0.01000000
   20.04861069  270.73199463    4.90999985    0.01000000
   20.04916573  261.52099609    4.90999985    0.01000000
   20.05472183  261.52099609    4.90999985    0.01000000
   20.05888748  279.26998901    4.90999985    0.01000000
   20.06194305  287.43600464    4.90999985    0.01000000
   20.06527710  264.62799072    4.90999985    0.01000000
   20.06861115  242.64999390    4.90999985    0.01000000
   20.07166672  241.69599915    4.90999985    0.01000000
   20.07500076  238.61999512    4.90999985    0.01000000
   20.07805634  229.58799744    4.90999985    0.01000000
   20.08139038  236.64700317    4.90999985    0.01000000
   20.08250046  233.43600464    4.90999985    0.01000000
   20.08500099  232.52400208    4.90999985    0.01000000
   20.08805656  232.77799988    4.90999985    0.01000000
   20.09138870  232.31599426    4.90999985    0.01000000
   20.09749985  232.31599426    4.90999985    0.01000000
   20.10166740  238.60899353    4.90999985    0.01000000
   20.10499954  226.81599426    4.90999985    0.01000000
   20.10805511  234.47700500    4.90999985    0.01000000
   20.11138916  219.35400391    4.90999985    0.01000000
   20.11472321  235.11199951    4.90999985    0.01000000
   20.11583328  244.49099731    4.90999985    0.01000000
   20.11833382  230.39500427    4.90999985    0.01000000
   20.12138939  226.47399902    4.90999985    0.01000000
   20.12472153  209.00199890    4.90999985    0.01000000
   20.12805557  237.38699341    4.90999985    0.01000000
   20.13111115  210.21400452    4.90999985    0.01000000
   20.13444519  228.62699890    4.90999985    0.01000000
   20.14027786  228.62699890    4.90999985    0.01000000
   20.14444351  233.59500122    4.90999985    0.01000000
   20.14777756  224.42799377    4.90999985    0.01000000
   20.14916611  218.10499573    4.90999985    0.01000000
   20.15138817  212.27600098    4.90999985    0.01000000
   20.15444374  216.52499390    4.90999985    0.01000000
   20.15777779  226.60000610    4.90999985    0.01000000
   20.16110992  221.20199585    4.90999985    0.01000000
   20.16416550  210.21600342    4.90999985    0.01000000
   20.16749954  216.22500610    4.90999985    0.01000000
   20.17055511  219.87199402    4.90999985    0.01000000
   20.17388916  225.11900330    4.90999985    0.01000000
   20.17722130  207.01199341    4.90999985    0.01000000
   20.18333244  207.01199341    4.90999985    0.01000000
   20.18722153  209.00300598    4.90999985    0.01000000
   20.19055557  215.24600220    4.90999985    0.01000000
   20.19388771  216.41499329    4.90999985    0.01000000
   20.19694328  209.74200439    4.90999985    0.01000000
   20.20027924  212.67399597    4.90999985    0.01000000
   20.20361137  216.83900452    4.90999985    0.01000000
   20.20666695  212.24200439    4.90999985    0.01000000
   20.21000099  209.75199890    4.90999985    0.01000000
   20.21333504  203.31500244    4.90999985    0.01000000
   20.21583366  213.08500671    4.90999985    0.01000000
   20.21694565  206.28399658    4.90999985    0.01000000
   20.22000122  220.18499756    4.90999985    0.01000000
   20.22611237  220.18499756    4.90999985    0.01000000
   20.23055649  238.81300354    4.90999985    0.01000000
   20.23361206  235.76699829    4.90999985    0.01000000
   20.23694420  234.42199707    4.90999985    0.01000000
   20.24027824  228.84899902    4.90999985    0.01000000
   20.24333382  220.62399292    4.90999985    0.01000000
   20.24666786  236.33700562    4.90999985    0.01000000
   20.24916649  235.88699341    4.90999985    0.01000000
   20.25027847  235.54699707    4.90999985    0.01000000
   20.25333405  237.17399597    4.90999985    0.01000000
   20.25666618  230.80499268    4.90999985    0.01000000
   20.26000023  228.69599915    4.90999985    0.01000000
   20.26305580  236.14100647    4.90999985    0.01000000
   20.26888847  236.14100647    4.90999985    0.01000000
