    HOUR (UT)   FLARE FACTOR    SKY TESTER    SUN TESTER
   10.89277744   -1.00000000   -1.00000000   -1.00000000
   11.21555519  154.10499573    1.23000002    2.36999989
   11.21888828  156.97599792    1.23000002    2.39000010
   11.22222137  157.98199463    1.23000002    2.39000010
   11.22527695  154.46699524    1.23000002    2.39000010
   11.22861099  155.01699829    1.25000000    2.39000010
   11.23555565  155.01699829    1.25000000    2.39000010
   11.23972225  150.74899292    1.23000002    2.39000010
   11.24277782  155.02499390    1.23000002    2.39000010
   11.24611092  150.66499329    1.21000004    2.39000010
   11.24861145  155.25500488    1.21000004    2.39000010
   11.25000000  158.39100647    1.21000004    2.40000010
   11.25305557  154.64100647    1.21000004    2.39000010
   11.25638866  154.76899719    1.21000004    2.39000010
   11.25944424  160.17799377    1.21000004    2.40000010
   11.26277733  149.60400391    1.19000006    2.40000010
   11.26611137  150.51699829    1.19000006    2.40000010
   11.26916599  149.13800049    1.21000004    2.40000010
   11.27250004  159.74499512    1.19000006    2.40000010
   11.27833271  159.74499512    1.19000006    2.39000010
   11.28249931  151.58399963    1.19000006    2.40000010
   11.28583336  151.82899475    1.16999996    2.40000010
   11.28888893  147.62800598    1.16999996    2.40000010
   11.29222298  154.53900146    1.16999996    2.40000010
   11.29555607  161.01400757    1.14999998    2.40000010
   11.29861164  145.68899536    1.16999996    2.40000010
   11.30194473  152.89799500    1.16999996    2.40000010
   11.30500031  154.79200745    1.19000006    2.40000010
   11.30833340  150.71699524    1.19000006    2.40000010
   11.31166649  153.64999390    1.19000006    2.40000010
   11.31472206  152.80999756    1.19000006    2.40000010
   11.31527805  148.86199951    1.19000006    2.40000010
   11.32111073  148.86199951    1.19000006    2.42000008
   11.32527733  148.20700073    1.16999996    2.40000010
   11.32861137  147.33500671    1.16999996    2.40000010
   11.33166695  144.59899902    1.16999996    2.42000008
   11.33500004  145.75199890    1.16999996    2.42000008
   11.33833313  144.18699646    1.19000006    2.42000008
   11.34194374  147.08299255    1.16999996    2.42000008
   11.34499931  150.81599426    1.19000006    2.42000008
   11.34833336  147.05200195    1.19000006    2.42000008
   11.34861088  149.80299377    1.19000006    2.42000008
   11.35166740  154.70799255    1.19000006    2.42000008
   11.35500050  153.91900635    1.19000006    2.42000008
   11.35805607  152.95100403    1.21000004    2.44000006
   11.36416721  152.95100403    1.21000004    2.42000008
   11.36833382  138.97399902    1.19000006    2.42000008
   11.37138939  148.17500305    1.19000006    2.42000008
   11.37472248  151.94999695    1.19000006    2.42000008
   11.37777805  152.49800110    1.16999996    2.42000008
   11.38111115  144.38800049    1.16999996    2.42000008
   11.38194466  143.50500488    1.16999996    2.42000008
   11.38472176  145.87899780    1.16999996    2.44000006
   11.38805580  150.82200623    1.16999996    2.44000006
   11.39111137  148.59500122    1.16999996    2.44000006
   11.39444447  151.31799316    1.14999998    2.44000006
   11.39777756  148.46699524    1.14999998    2.44000006
   11.40083313  149.68299866    1.14999998    2.44000006
   11.40694427  149.68299866    1.14999998    2.44000006
   11.41111088  147.72000122    1.16999996    2.44000006
   11.41416645  152.66999817    1.14999998    2.46000004
   11.41527748  147.87500000    1.14999998    2.46000004
   11.41777802  153.23599243    1.14999998    2.46000004
   11.42111111  151.72399902    1.13000000    2.46000004
   11.42416668  148.44500732    1.13000000    2.44000006
   11.42750072  146.03599548    1.13000000    2.44000006
   11.43083382  147.43400574    1.13000000    2.46000004
   11.43388939  144.14399719    1.11000001    2.46000004
   11.43722248  145.88900757    1.11000001    2.46000004
   11.44055557  152.26199341    1.11000001    2.46000004
   11.44361115  144.75399780    1.11000001    2.46000004
   11.44972229  144.75399780    1.09000003    2.46000004
   11.45388889  144.26499939    1.09000003    2.46000004
   11.45722198  142.89100647    1.09000003    2.46000004
   11.46027756  143.69299316    1.09000003    2.46000004
   11.46361065  150.39900208    1.09000003    2.46000004
   11.46666622  144.02699280    1.09000003    2.46000004
   11.46999931  140.44799805    1.07000005    2.46000004
   11.47333336  143.91999817    1.07000005    2.46000004
   11.47638798  147.41099548    1.07000005    2.46000004
   11.47972202  146.14799500    1.07000005    2.46000004
   11.48194408  144.02699280    1.05999994    2.46000004
   11.48333359  144.87199402    1.05999994    2.46000004
   11.48666668  141.77999878    1.05999994    2.46000004
   11.49250031  141.77999878    1.05999994    2.48000002
   11.49666691  151.45199585    1.05999994    2.48000002
   11.50000000  145.11599731    1.03999996    2.48000002
   11.50305557  145.88699341    1.03999996    2.48000002
   11.50638866  152.75399780    1.03999996    2.48000002
   11.50972176  159.74099731    1.03999996    2.48000002
   11.51277733  144.54899597    1.03999996    2.48000002
   11.51555538  150.10099792    1.01999998    2.48000002
   11.51638889  145.54499817    1.01999998    2.48000002
   11.51972198  142.98899841    1.01999998    2.48000002
   11.52277756  154.21000671    1.00000000    2.48000002
   11.52611065  147.75999451    1.00000000    2.48000002
   11.52944374  140.90199280    1.00000000    2.48000002
   11.53555584  140.90199280    1.00000000    2.48000002
   11.53944492  141.49200439    1.00000000    2.50000000
   11.54277802  144.67799377    1.00000000    2.48000002
   11.54611111  142.92900085    1.00000000    2.48000002
   11.54888916  141.82800293    1.01999998    2.50000000
   11.54944515  139.76199341    1.01999998    2.50000000
   11.55277824  140.86399841    1.01999998    2.50000000
   11.55583382  144.07400513    1.01999998    2.48000002
   11.55916691  141.50500488    1.01999998    2.50000000
   11.56250000  142.61900330    1.00000000    2.50000000
   11.56555557  144.54699707    1.00000000    2.50000000
   11.56888866  141.85099792    1.00000000    2.50000000
   11.57222176  142.28399658    1.00000000    2.50000000
   11.57833290  142.28399658    0.98000002    2.50000000
   11.58249950  147.09100342    1.00000000    2.50000000
   11.58555508  151.44099426    0.98000002    2.50000000
   11.58888817  145.19900513    0.98000002    2.50000000
   11.59222221  150.36500549    1.00000000    2.50000000
   11.59527779  151.08599854    0.98000002    2.50000000
   11.59861088  144.53300476    0.98000002    2.51999998
   11.60194492  142.30999756    0.98000002    2.50000000
   11.60500050  144.63600159    0.98000002    2.50000000
   11.60833359  145.08599854    0.98000002    2.50000000
   11.61138916  149.27900696    1.00000000    2.50000000
   11.61472225  144.48500061    1.00000000    2.50000000
   11.61555576  141.90400696    1.00000000    2.50000000
   11.62111092  141.90400696    0.98000002    2.50000000
   11.62527752  143.06500244    0.98000002    2.51999998
   11.62861156  149.29800415    0.98000002    2.51999998
   11.63194466  150.11799622    0.98000002    2.51999998
   11.63500023  146.39700317    0.98000002    2.51999998
   11.63833332  143.97500610    0.98000002    2.51999998
   11.64138889  145.60099792    0.98000002    2.51999998
   11.64472198  148.42799377    0.95999998    2.51999998
   11.64805508  145.33299255    0.95999998    2.51999998
   11.64888859  147.77799988    0.95999998    2.51999998
   11.65138817  147.60800171    0.95999998    2.51999998
   11.65472221  147.51300049    0.95999998    2.51999998
   11.65777779  145.84300232    0.95999998    2.51999998
   11.66388893  145.84300232    0.94000000    2.51999998
   11.66805553  146.37100220    0.94000000    2.51999998
   11.67138958  148.63699341    0.92000002    2.53999996
   11.67444515  147.76400757    0.92000002    2.51999998
   11.67777824  148.55999756    0.92000002    2.51999998
   11.68111134  148.90600586    0.92000002    2.51999998
   11.68222237  149.21600342    0.92000002    2.51999998
   11.68444443  143.79400635    0.92000002    2.51999998
   11.68777752  152.56500244    0.92000002    2.53999996
   11.69111156  146.36500549    0.92000002    2.53999996
   11.69416714  143.96000671    0.89999998    2.53999996
   11.69750023  142.50000000    0.86000001    2.53999996
   11.70055580  144.90899658    0.86000001    2.53999996
   11.70694447  144.90899658    0.86000001    2.53999996
   11.71083355  144.23300171    0.86000001    2.53999996
   11.71416664  147.77499390    0.88000000    2.53999996
   11.71555519  143.59899902    0.86000001    2.53999996
   11.71777725  148.28399658    0.86000001    2.53999996
   11.72111034  151.34700012    0.86000001    2.53999996
   11.72444439  146.10299683    0.88000000    2.53999996
   11.72749996  145.05900574    0.88000000    2.53999996
   11.73083305  147.98500061    0.88000000    2.53999996
   11.73388958  143.28199768    0.88000000    2.53999996
   11.73722267  147.96400452    0.86000001    2.55999994
   11.74055576  143.12199402    0.86000001    2.55999994
   11.74361134  149.65699768    0.86000001    2.53999996
   11.74972248  149.65699768    0.86000001    2.55999994
   11.75388908  148.83500671    0.86000001    2.53999996
   11.75694466  145.92199707    0.86000001    2.53999996
   11.76027775  148.29499817    0.86000001    2.55999994
   11.76361084  152.73300171    0.86000001    2.55999994
   11.76666641  142.77000427    0.88000000    2.55999994
   11.76999950  146.58399963    0.88000000    2.55999994
   11.77305508  147.71200562    0.86000001    2.55999994
   11.77638817  145.89399719    0.86000001    2.55999994
   11.77972221  141.42700195    0.86000001    2.55999994
   11.78222179  149.22500610    0.86000001    2.55999994
   11.78305531  143.72900391    0.86000001    2.55999994
   11.78638935  141.11999512    0.86000001    2.55999994
   11.79250050  141.11999512    0.83999997    2.55999994
   11.79666710  145.67900085    0.83999997    2.55999994
   11.80000019  140.74200439    0.83999997    2.55999994
   11.80305576  140.22799683    0.83999997    2.55999994
   11.80638885  142.18699646    0.83999997    2.55999994
   11.80972195  148.52799988    0.83999997    2.55999994
   11.81277752  141.35600281    0.83999997    2.55999994
   11.81555557  144.25799561    0.81999999    2.57999992
   11.81666660  146.96200562    0.81999999    2.57999992
   11.81972218  149.54299927    0.81999999    2.55999994
   11.82305527  141.89900208    0.81999999    2.55999994
   11.82638836  144.67799377    0.81999999    2.55999994
   11.82944393  142.25399780    0.81999999    2.57999992
   11.83527756  142.25399780    0.81999999    2.57999992
   11.83944416  139.37899780    0.80000001    2.57999992
   11.84277725  144.14599609    0.80000001    2.57999992
   11.84611034  142.57899475    0.80000001    2.57999992
   11.84888840  141.92100525    0.81999999    2.57999992
   11.84944439  146.03900146    0.81999999    2.57999992
   11.85277843  150.62500000    0.81999999    2.57999992
   11.85611153  141.31599426    0.80000001    2.57999992
   11.85916710  140.90600586    0.80000001    2.57999992
   11.86250019  140.27600098    0.81999999    2.57999992
   11.86555576  139.81199646    0.81999999    2.57999992
   11.86888885  147.17599487    0.80000001    2.57999992
   11.87222195  149.15400696    0.79000002    2.57999992
   11.87833309  149.15400696    0.79000002    2.57999992
   11.88222218  145.58900452    0.79000002    2.57999992
   11.88555527  148.78700256    0.79000002    2.57999992
   11.88888836  145.16700745    0.79000002    2.57999992
   11.89194393  146.34399414    0.79000002    2.57999992
   11.89527798  145.63699341    0.80000001    2.57999992
   11.89861107  144.97700500    0.80000001    2.57999992
   11.90166664  141.88900757    0.80000001    2.57999992
   11.90499973  136.49899292    0.79000002    2.59999990
   11.90805531  138.78900146    0.79000002    2.57999992
   11.91138840  139.44799805    0.76999998    2.59999990
   11.91472149  137.20199585    0.76999998    2.59999990
   11.91555500  140.08999634    0.79000002    2.57999992
   11.92111111  140.08999634    0.79000002    2.57999992
   11.92527771  144.92599487    0.76999998    2.57999992
   11.92833328  139.43200684    0.76999998    2.59999990
   11.93166733  137.49600220    0.79000002    2.59999990
   11.93500042  140.02000427    0.76999998    2.59999990
   11.93805599  140.38000488    0.79000002    2.59999990
   11.94138908  144.62300110    0.79000002    2.59999990
   11.94444466  137.59399414    0.79000002    2.59999990
   11.94777775  139.08999634    0.75000000    2.59999990
   11.94888878  144.29800415    0.75000000    2.59999990
   11.95138836  140.64399719    0.73000002    2.59999990
   11.95472240  139.30200195    0.75000000    2.59999990
   11.95805550  147.02900696    0.76999998    2.59999990
   11.96388912  147.02900696    0.76999998    2.59999990
   11.96805477  148.33399963    0.75000000    2.61999989
   11.97138882  137.99600220    0.75000000    2.59999990
   11.97444439  144.66400146    0.81999999    2.59999990
   11.97777748  145.99299622    0.76999998    2.59999990
   11.98111057  134.48699951    0.76999998    2.59999990
   11.98277760  137.03999329    0.76999998    2.59999990
   11.98527813  142.68400574    0.79000002    2.59999990
   11.98833370  138.21899414    0.76999998    2.59999990
   11.99166679  134.92500305    0.70999998    2.59999990
   11.99499989  134.95500183    0.70999998    2.59999990
   11.99805546  143.47000122    0.70999998    2.59999990
   12.00138855  138.65800476    0.69000000    2.59999990
   12.00666714  138.65800476    0.70999998    2.61999989
   12.01083374  140.60200500    0.70999998    2.59999990
   12.01416683  142.05900574    0.70999998    2.59999990
   12.01555538  139.31900024    0.70999998    2.61999989
   12.01749992  140.43699646    0.70999998    2.61999989
   12.02083302  142.41600037    0.73000002    2.61999989
   12.02416611  140.85699463    0.70999998    2.59999990
   12.02722168  146.65400696    0.70999998    2.61999989
   12.03055573  141.53799438    0.70999998    2.61999989
   12.03388977  140.83299255    0.69000000    2.61999989
   12.03694534  144.51400757    0.67000002    2.61999989
   12.04027843  154.07000732    0.67000002    2.61999989
   12.04333401  142.22099304    0.69000000    2.61999989
   12.04944515  142.22099304    0.67000002    2.61999989
   12.05361176  145.22500610    0.69000000    2.61999989
   12.05694485  141.73300171    0.67000002    2.61999989
   12.06027794  141.33399963    0.67000002    2.61999989
   12.06333351  141.03300476    0.67000002    2.61999989
   12.06666660  142.58799744    0.67000002    2.61999989
   12.06999969  140.41000366    0.69000000    2.61999989
   12.07305527  138.92900085    0.67000002    2.61999989
   12.07638836  138.00999451    0.67000002    2.61999989
   12.07972240  139.12100220    0.67000002    2.61999989
   12.08222198  136.75300598    0.67000002    2.61999989
   12.08305550  140.74299622    0.67000002    2.61999989
   12.08638859  146.01300049    0.67000002    2.64000010
   12.09249973  146.01300049    0.67000002    2.61999989
   12.09666634  139.30700684    0.64999998    2.64000010
   12.09972191  141.62800598    0.64999998    2.64000010
   12.10305595  136.47900391    0.64999998    2.61999989
   12.10638905  140.14500427    0.64999998    2.61999989
   12.10944462  136.58500671    0.67000002    2.61999989
   12.11277771  142.52400208    0.64999998    2.61999989
   12.11555576  141.44799805    0.64999998    2.61999989
   12.11611176  140.37899780    0.64999998    2.61999989
   12.11944485  142.89500427    0.64999998    2.64000010
   12.12277794  144.10299683    0.64999998    2.64000010
   12.12583351  144.42500305    0.64999998    2.61999989
   12.12916660  143.96200562    0.64999998    2.61999989
   12.13527775  143.96200562    0.67000002    2.64000010
   12.13944435  144.81900024    0.67000002    2.64000010
   12.14277744  140.43600464    0.67000002    2.64000010
   12.14583302  137.56500244    0.67000002    2.64000010
   12.14888859  138.88900757    0.69000000    2.64000010
   12.14944458  142.21299744    0.69000000    2.64000010
   12.15277767  138.60600281    0.67000002    2.61999989
   12.15611076  137.66900635    0.64999998    2.64000010
   12.15916634  141.38999939    0.67000002    2.64000010
   12.16249943  141.08299255    0.67000002    2.64000010
   12.16583252  141.26600647    0.67000002    2.64000010
   12.16888905  136.67199707    0.69000000    2.64000010
   12.17222214  139.44200134    0.69000000    2.64000010
   12.17805576  139.44200134    0.67000002    2.64000010
   12.18222237  143.72500610    0.67000002    2.64000010
   12.18555546  144.33000183    0.64999998    2.64000010
   12.18861103  137.46400452    0.64999998    2.64000010
   12.19194412  138.60099792    0.64999998    2.64000010
   12.19527817  139.53399658    0.67000002    2.64000010
   12.19833374  143.88099670    0.67000002    2.64000010
   12.20166683  143.81199646    0.67000002    2.64000010
   12.20499992  141.56700134    0.67000002    2.64000010
   12.20805550  136.55099487    0.67000002    2.64000010
   12.21138859  141.12300110    0.67000002    2.64000010
   12.21444416  142.97900391    0.67000002    2.64000010
   12.21555519  144.16099548    0.67000002    2.64000010
   12.23638916  144.16099548    0.64999998    2.66000009
   12.24055576  141.76100159    0.64999998    2.66000009
   12.24361134  138.15600586    0.64999998    2.66000009
   12.24694443  143.60099792    0.63000000    2.66000009
   12.24888897  140.37699890    0.63000000    2.66000009
   12.25055599  135.63200378    0.63000000    2.66000009
   12.25388908  143.61599731    0.64999998    2.66000009
   12.25694466  144.05000305    0.63000000    2.66000009
   12.26027775  139.82400513    0.63000000    2.66000009
   12.26333332  142.30700684    0.64999998    2.66000009
   12.26666641  144.29200745    0.64999998    2.66000009
   12.26999950  140.14900208    0.63000000    2.66000009
   12.27305508  143.19200134    0.64999998    2.66000009
   12.27916622  143.19200134    0.64999998    2.66000009
   12.28333378  135.53399658    0.64999998    2.66000009
   12.28638935  142.02699280    0.64999998    2.66000009
   12.28972244  138.72000122    0.64999998    2.66000009
   12.29277802  134.42999268    0.64999998    2.66000009
   12.29611111  140.64599609    0.63000000    2.66000009
   12.29944515  140.38000488    0.61000001    2.66000009
   12.30249977  138.81199646    0.61000001    2.66000009
   12.30583382  136.66299438    0.58999997    2.66000009
   12.30916691  137.93600464    0.61000001    2.66000009
   12.31222248  140.47799683    0.61000001    2.66000009
   12.31555557  137.52900696    0.61000001    2.66000009
   12.31611156  141.44900513    0.58999997    2.66000009
   12.32194424  141.44900513    0.61000001    2.66000009
   12.32611084  136.65800476    0.61000001    2.66000009
   12.32916641  142.19900513    0.61000001    2.66000009
   12.33249950  142.78300476    0.58999997    2.66000009
   12.33583260  136.10600281    0.61000001    2.67000008
   12.33888817  140.69000244    0.61000001    2.66000009
   12.34222221  141.34700012    0.61000001    2.66000009
   12.34555531  135.38699341    0.61000001    2.66000009
   12.34861088  142.46800232    0.63000000    2.67000008
   12.34944439  142.27099609    0.63000000    2.67000008
   12.35222244  145.07699585    0.63000000    2.66000009
   12.35555553  135.71800232    0.61000001    2.67000008
   12.35888958  142.72599792    0.61000001    2.67000008
   12.36472225  142.72599792    0.63000000    2.67000008
   12.36888885  139.42900085    0.63000000    2.67000008
   12.37222195  135.99000549    0.63000000    2.67000008
   12.37527752  139.76100159    0.63000000    2.67000008
   12.37861156  136.35000610    0.63000000    2.67000008
   12.38194466  135.33200073    0.63000000    2.67000008
   12.38277817  138.19200134    0.63000000    2.67000008
   12.38527775  133.36399841    0.63000000    2.66000009
   12.38861084  140.40800476    0.63000000    2.66000009
   12.39194393  151.11799622    0.64999998    2.67000008
   12.39499950  151.96699524    0.63000000    2.67000008
   12.39833355  155.26899719    0.63000000    2.67000008
   12.40138817  154.77400208    0.63000000    2.67000008
   12.40749931  154.77400208    0.63000000    2.67000008
   12.41166592  148.16799927    0.63000000    2.67000008
   12.41499996  137.66000366    0.63000000    2.67000008
   12.41611099  146.27799988    0.63000000    2.67000008
   12.41861153  143.06399536    0.63000000    2.67000008
   12.42194462  142.47200012    0.63000000    2.67000008
   12.42527771  148.81900024    0.63000000    2.67000008
   12.42833328  153.21099854    0.61000001    2.69000006
   12.43166733  138.60699463    0.61000001    2.67000008
   12.43472195  154.25599670    0.63000000    2.67000008
   12.43805599  148.85699463    0.63000000    2.67000008
   12.44138908  142.09800720    0.63000000    2.67000008
   12.44444466  142.51899719    0.58999997    2.67000008
   12.45055580  142.51899719    0.61000001    2.69000006
   12.45472240  141.25399780    0.58999997    2.67000008
   12.45805550  150.53900146    0.61000001    2.69000006
   12.46111107  143.16200256    0.61000001    2.69000006
   12.46444416  140.86300659    0.61000001    2.67000008
   12.46777725  142.69500732    0.61000001    2.69000006
   12.47083282  142.64999390    0.61000001    2.69000006
   12.47416592  138.83799744    0.61000001    2.69000006
   12.47722149  140.51499939    0.61000001    2.67000008
   12.48055553  136.52900696    0.63000000    2.67000008
   12.48277760  140.66200256    0.63000000    2.69000006
   12.48416710  139.04200745    0.63000000    2.69000006
   12.48750019  135.24000549    0.61000001    2.69000006
   12.49333382  135.24000549    0.61000001    2.69000006
   12.49750042  140.09700012    0.61000001    2.69000006
   12.50055599  139.33599854    0.63000000    2.69000006
   12.50388908  134.78999329    0.61000001    2.69000006
   12.50722218  138.95500183    0.61000001    2.69000006
   12.51027775  138.05400085    0.58999997    2.69000006
   12.51361084  142.92199707    0.58999997    2.69000006
   12.51611137  138.10000610    0.61000001    2.69000006
   12.51722240  138.02600098    0.61000001    2.69000006
   12.52055550  138.61099243    0.61000001    2.69000006
   12.52388859  142.43099976    0.61000001    2.69000006
   12.52694416  140.46099854    0.61000001    2.69000006
   12.53027725  135.99200439    0.61000001    2.69000006
   12.53611183  135.99200439    0.61000001    2.69000006
   12.54027843  137.94799805    0.63000000    2.69000006
   12.54361153  142.46899414    0.63000000    2.69000006
   12.54666710  139.87300110    0.63000000    2.69000006
   12.54944515  140.23800659    0.61000001    2.69000006
   12.55027771  135.43299866    0.61000001    2.69000006
   12.55361176  133.60600281    0.63000000    2.69000006
   12.55694485  135.39799500    0.61000001    2.69000006
   12.56000042  133.35600281    0.61000001    2.69000006
   12.56333351  132.38600159    0.58999997    2.69000006
   12.56638908  133.03599548    0.58999997    2.71000004
   12.56972218  134.56900024    0.58999997    2.71000004
   12.57305527  141.35699463    0.58999997    2.69000006
   12.57888889  141.35699463    0.63000000    2.69000006
   12.58305550  133.02400208    0.63000000    2.69000006
   12.58638859  138.88000488    0.61000001    2.71000004
   12.58972168  137.54299927    0.61000001    2.69000006
   12.59305477  137.31500244    0.61000001    2.71000004
   12.59611034  140.97200012    0.61000001    2.71000004
   12.59944439  140.27699280    0.61000001    2.71000004
   12.60277843  134.55099487    0.61000001    2.71000004
   12.60583401  139.30799866    0.61000001    2.69000006
   12.60916710  140.99299622    0.61000001    2.71000004
   12.61222267  138.11500549    0.61000001    2.69000006
   12.61555576  139.04499817    0.61000001    2.71000004
   12.61611176  139.06399536    0.61000001    2.71000004
   12.62194443  139.06399536    0.58999997    2.71000004
   12.62611103  132.23199463    0.61000001    2.69000006
   12.62916660  133.38499451    0.61000001    2.71000004
   12.63249969  138.47300720    0.63000000    2.69000006
   12.63555527  141.90600586    0.61000001    2.71000004
   12.63888836  134.96800232    0.58999997    2.71000004
   12.64222240  139.38900757    0.61000001    2.71000004
   12.64527798  135.77900696    0.61000001    2.71000004
   12.64861107  140.86999512    0.61000001    2.71000004
   12.64944458  136.19900513    0.61000001    2.69000006
   12.65222168  133.55799866    0.61000001    2.69000006
   12.65527725  137.49000549    0.58999997    2.71000004
   12.65861034  139.25300598    0.58999997    2.71000004
   12.66472149  139.25300598    0.58999997    2.71000004
   12.66888905  139.96899414    0.61000001    2.71000004
   12.67194462  139.51600647    0.61000001    2.71000004
   12.67527771  135.03300476    0.58999997    2.71000004
   12.67861176  142.72000122    0.61000001    2.71000004
   12.68166733  137.22500610    0.61000001    2.71000004
   12.68277836  135.16700745    0.61000001    2.71000004
   12.68555546  140.86000061    0.61000001    2.71000004
   12.68861103  137.82499695    0.63000000    2.71000004
   12.69194412  141.38900757    0.63000000    2.71000004
   12.69499969  135.97500610    0.63000000    2.71000004
   12.69833374  136.44900513    0.63000000    2.71000004
   12.70166683  136.76300049    0.61000001    2.71000004
   12.70749950  136.76300049    0.61000001    2.71000004
   12.71166611  141.06199646    0.61000001    2.71000004
   12.71500015  138.53300476    0.61000001    2.71000004
   12.71611118  135.99400330    0.61000001    2.71000004
   12.71861076  139.54100037    0.58999997    2.71000004
   12.72166634  130.58999634    0.61000001    2.71000004
   12.72499943  134.78199768    0.61000001    2.71000004
   12.72805500  135.43600464    0.63000000    2.71000004
   12.73138809  135.73399353    0.63000000    2.71000004
   12.73472214  137.74600220    0.61000001    2.71000004
   12.73777771  136.36799622    0.61000001    2.71000004
   12.74111176  131.63499451    0.63000000    2.71000004
   12.74444485  137.38999939    0.63000000    2.71000004
   12.75027752  137.38999939    0.63000000    2.71000004
   12.75444412  135.01199341    0.64999998    2.73000002
   12.75777817  137.61199951    0.64999998    2.71000004
   12.76111126  134.05599976    0.64999998    2.71000004
   12.76416683  137.36999512    0.64999998    2.71000004
   12.76749992  136.69299316    0.63000000    2.71000004
   12.77055550  138.27499390    0.63000000    2.71000004
   12.77388859  136.84399414    0.63000000    2.73000002
   12.77722168  136.33999634    0.64999998    2.73000002
   12.78027725  145.86300659    0.64999998    2.73000002
   12.78277779  136.92399597    0.64999998    2.73000002
   12.78416729  138.52099609    0.63000000    2.73000002
   12.78722286  139.51699829    0.63000000    2.73000002
   12.79333401  139.51699829    0.63000000    2.71000004
   12.79750061  137.77099609    0.63000000    2.73000002
   12.80055618  131.86300659    0.63000000    2.71000004
   12.80388927  138.23199463    0.61000001    2.73000002
   12.80694485  146.14399719    0.61000001    2.73000002
   12.81027794  130.87100220    0.63000000    2.73000002
   12.81361103  140.21200562    0.63000000    2.73000002
   12.81611156  135.84100342    0.63000000    2.73000002
   12.81722260  138.15400696    0.63000000    2.73000002
   12.82027817  136.27499390    0.63000000    2.73000002
   12.82361126  136.00000000    0.63000000    2.73000002
   12.82666683  137.12500000    0.63000000    2.73000002
   12.82999992  132.80000305    0.61000001    2.73000002
   12.83611107  132.80000305    0.61000001    2.71000004
   12.84027767  133.08200073    0.63000000    2.73000002
   12.84333324  136.69500732    0.63000000    2.73000002
   12.84666634  132.31900024    0.64999998    2.73000002
   12.84944439  135.33299255    0.64999998    2.73000002
   12.85027790  132.32099915    0.64999998    2.73000002
   12.85333347  133.00199890    0.64999998    2.73000002
   12.85666752  139.53199768    0.64999998    2.73000002
   12.85972214  136.83900452    0.64999998    2.73000002
   12.86305618  135.55200195    0.63000000    2.73000002
   12.86638927  136.53700256    0.63000000    2.73000002
   12.86944485  145.67999268    0.63000000    2.73000002
   12.87277794  136.69900513    0.63000000    2.73000002
   12.87888908  136.69900513    0.63000000    2.75000000
   12.88305569  181.79400635    0.63000000    2.73000002
   12.88638878  162.96299744    0.63000000    2.73000002
   12.88944435  170.53300476    0.63000000    2.73000002
   12.89277744  163.83399963    0.61000001    2.73000002
   12.89611053  155.77299500    0.61000001    2.73000002
   12.89916611  160.11999512    0.63000000    2.73000002
   12.90249920  164.65800476    0.63000000    2.73000002
   12.90583324  153.98199463    0.63000000    2.73000002
   12.90888882  153.18800354    0.63000000    2.73000002
   12.91222191  158.72200012    0.61000001    2.73000002
   12.91527748  147.51499939    0.63000000    2.75000000
   12.91611099  157.08700562    0.63000000    2.75000000
   12.92166710  157.08700562    0.61000001    2.75000000
   12.92583370  137.11799622    0.61000001    2.73000002
   12.92916679  140.30700684    0.61000001    2.73000002
   12.93222237  135.47700500    0.61000001    2.75000000
   12.93555546  132.72700500    0.61000001    2.73000002
   12.93888855  133.30900574    0.58999997    2.75000000
   12.94194412  131.17500305    0.56999999    2.73000002
   12.94527817  136.54400635    0.56999999    2.73000002
   12.94861126  138.37199402    0.56999999    2.75000000
   12.94944477  137.29299927    0.56999999    2.75000000
   12.95222187  136.58299255    0.56999999    2.73000002
   12.95527744  141.03199768    0.58999997    2.73000002
   12.95861053  134.68699646    0.56999999    2.73000002
   12.96472168  134.68699646    0.56999999    2.75000000
   12.96861076  135.62500000    0.56999999    2.73000002
   12.97194386  131.35899353    0.58999997    2.73000002
   12.97527695  134.34100342    0.58999997    2.75000000
   12.97833252  139.72599792    0.56999999    2.75000000
   12.98166656  131.51600647    0.56999999    2.75000000
   12.98277760  131.75100708    0.56999999    2.75000000
   12.98527813  134.05499268    0.56999999    2.75000000
   12.98833370  136.74499512    0.56999999    2.75000000
   12.99166679  138.92399597    0.56999999    2.75000000
   12.99499989  147.61700439    0.56999999    2.75000000
   12.99805546  140.45399475    0.56999999    2.73000002
   13.00138855  142.38699341    0.56999999    2.73000002
   13.00749969  142.38699341    0.56999999    2.75000000
   13.01166630  136.99200439    0.56999999    2.75000000
   13.01472187  141.23800659    0.58999997    2.75000000
   13.01611137  137.94200134    0.58999997    2.75000000
   13.01861095  139.79699707    0.56999999    2.75000000
   13.02166653  132.74800110    0.56999999    2.75000000
   13.02499962  141.45399475    0.56999999    2.75000000
   13.02833271  146.03999329    0.56999999    2.75000000
   13.03138828  149.34599304    0.56999999    2.75000000
   13.03472233  136.54699707    0.56999999    2.75000000
   13.03777790  141.47700500    0.58999997    2.75000000
   13.04111195  130.12300110    0.61000001    2.75000000
   13.04444504  134.94500732    0.58999997    2.75000000
   13.05027771  134.94500732    0.58999997    2.75000000
   13.05444431  136.41099548    0.61000001    2.75000000
   13.05777836  131.57699585    0.61000001    2.75000000
   13.06083393  135.27600098    0.61000001    2.75000000
   13.06416702  137.74000549    0.61000001    2.75000000
   13.06722260  139.90899658    0.61000001    2.75000000
   13.07055569  140.61700439    0.61000001    2.75000000
   13.07388878  143.82400513    0.63000000    2.75000000
   13.07722187  133.93899536    0.63000000    2.75000000
   13.08027744  132.36900330    0.63000000    2.75000000
   13.08277798  138.62100220    0.63000000    2.75000000
   13.08388901  136.29600525    0.63000000    2.75000000
   13.08694458  138.88999939    0.63000000    2.75000000
   13.09305477  138.88999939    0.63000000    2.75000000
   13.09722233  135.74899292    0.63000000    2.75000000
   13.10055637  138.65600586    0.63000000    2.75000000
   13.10388947  134.02400208    0.63000000    2.75000000
   13.10694504  132.91999817    0.63000000    2.75000000
   13.11027813  134.41499329    0.63000000    2.76999998
   13.11361122  133.62899780    0.63000000    2.76999998
   13.11611176  136.25900269    0.63000000    2.75000000
   13.11722279  140.69000244    0.63000000    2.75000000
   13.12027836  140.06199646    0.61000001    2.75000000
   13.12361145  136.64799500    0.58999997    2.76999998
   13.12694454  134.53900146    0.58999997    2.75000000
   13.13000011  137.53799438    0.56999999    2.75000000
   13.13611126  137.53799438    0.56999999    2.75000000
   13.14000034  135.00999451    0.58999997    2.76999998
   13.14333344  143.07899475    0.61000001    2.75000000
   13.14666653  138.79100037    0.63000000    2.75000000
   13.14944458  138.15100098    0.63000000    2.76999998
   13.15027714  138.96699524    0.63000000    2.76999998
   13.15333271  138.06700134    0.58999997    2.75000000
   13.15666676  137.15100098    0.58999997    2.76999998
   13.15999985  137.86900330    0.63000000    2.76999998
   13.16305542  138.09199524    0.63000000    2.75000000
   13.16638851  137.82099915    0.63000000    2.76999998
   13.16944504  142.92300415    0.63000000    2.76999998
   13.17277813  138.86599731    0.61000001    2.76999998
   13.17888927  138.86599731    0.61000001    2.75000000
   13.18305588  137.31399536    0.61000001    2.75000000
   13.18611145  139.12300110    0.61000001    2.75000000
   13.18944454  139.04100037    0.61000001    2.75000000
   13.19277763  136.03999329    0.58999997    2.76999998
   13.19583321  135.50900269    0.63000000    2.76999998
   13.19916630  138.74299622    0.64999998    2.76999998
   13.20222187  134.93200684    0.64999998    2.76999998
   13.20555496  134.48899841    0.64999998    2.76999998
   13.20888901  130.88800049    0.64999998    2.76999998
   13.21194458  138.28100586    0.63000000    2.76999998
   13.21527767  137.45799255    0.63000000    2.76999998
   13.21611118  136.23500061    0.63000000    2.76999998
   13.22166634  136.23500061    0.63000000    2.76999998
   13.22583294  134.43200684    0.63000000    2.76999998
   13.22916603  133.30799866    0.63000000    2.76999998
   13.23222160  131.14399719    0.63000000    2.76999998
   13.24972248  131.97999573    0.63000000    2.76999998
   13.25222206  131.72200012    0.63000000    2.76999998
   13.25555515  132.30599976    0.63000000    2.76999998
   13.25861073  129.56900024    0.61000001    2.75000000
   13.26472187  129.56900024    0.58999997    2.76999998
   13.26888847  132.86199951    0.58999997    2.76999998
   13.27194405  133.48699951    0.58999997    2.75000000
   13.27527714  132.45500183    0.58999997    2.75000000
   13.27861118  132.58599854    0.55000001    2.76999998
   13.28166676  134.79600525    0.55000001    2.76999998
   13.28305531  134.38900757    0.55000001    2.76999998
   13.28527832  137.32800293    0.52999997    2.76999998
   13.28861141  139.02000427    0.52999997    2.78999996
   13.29166698  135.46499634    0.55000001    2.78999996
   13.29500008  138.18299866    0.55000001    2.78999996
   13.29805565  137.87500000    0.55000001    2.76999998
   13.30138874  139.40899658    0.55000001    2.76999998
   13.30749989  139.40899658    0.56999999    2.76999998
   13.31166649  137.57200623    0.52999997    2.76999998
   13.31500053  127.58899689    0.52999997    2.76999998
   13.31638908  128.86999512    0.52999997    2.76999998
   13.31861115  137.77000427    0.52999997    2.76999998
   13.32166672  133.93200684    0.51999998    2.76999998
   13.32499981  145.04699707    0.52999997    2.76999998
   13.32833290  134.31199646    0.52999997    2.76999998
   13.33138847  132.85400391    0.52999997    2.78999996
   13.33472157  136.93099976    0.52999997    2.76999998
   13.33805561  135.83999634    0.56999999    2.76999998
   13.34138870  131.51499939    0.58999997    2.76999998
   13.34444427  137.28900146    0.58999997    2.76999998
   13.35027790  137.28900146    0.55000001    2.76999998
   13.35444450  131.97300720    0.55000001    2.76999998
   13.35777855  135.18800354    0.55000001    2.76999998
   13.36083412  130.46099854    0.55000001    2.76999998
   13.36416721  139.38200378    0.55000001    2.76999998
   13.36750031  139.04800415    0.52999997    2.76999998
   13.37055588  138.36599731    0.55000001    2.78999996
   13.37388897  136.10099792    0.55000001    2.78999996
   13.37722206  138.16200256    0.56999999    2.78999996
   13.38027763  135.68600464    0.55000001    2.76999998
   13.38305569  139.02499390    0.55000001    2.76999998
   13.38388920  131.67500305    0.55000001    2.76999998
   13.38694477  131.37300110    0.55000001    2.76999998
   13.39333344  131.37300110    0.55000001    2.78999996
   13.39722252  134.25799561    0.55000001    2.76999998
   13.40055561  137.71600342    0.56999999    2.78999996
   13.40388870  137.34800720    0.55000001    2.78999996
   13.40694427  133.05700684    0.55000001    2.78999996
   13.41027737  136.11000061    0.56999999    2.76999998
   13.41333294  131.95899963    0.55000001    2.78999996
   13.41638851  133.46800232    0.55000001    2.78999996
   13.41722298  136.45399475    0.55000001    2.78999996
   13.42055607  133.85600281    0.56999999    2.78999996
   13.42361164  135.41299438    0.58999997    2.76999998
   13.42694473  130.23699951    0.56999999    2.78999996
   13.43027782  144.48300171    0.56999999    2.78999996
   13.43611145  144.48300171    0.56999999    2.78999996
   13.44027805  130.88499451    0.56999999    2.78999996
   13.44333363  142.09300232    0.58999997    2.76999998
   13.44666672  134.64599609    0.58999997    2.78999996
   13.44972229  134.11099243    0.58999997    2.78999996
   13.45027733  133.63800049    0.58999997    2.78999996
   13.45333290  135.72500610    0.56999999    2.78999996
   13.45666695  140.06700134    0.55000001    2.78999996
   13.46000004  134.40199280    0.55000001    2.78999996
   13.46305561  134.86799622    0.55000001    2.78999996
   13.46638870  139.25300598    0.55000001    2.78999996
   13.46972179  137.25100708    0.52999997    2.78999996
   13.47305489  137.16499329    0.51999998    2.78999996
   13.47888851  137.16499329    0.52999997    2.78999996
   13.48305511  133.25399780    0.52999997    2.78999996
   13.48361111  130.05900574    0.52999997    2.78999996
   13.48666668  137.98399353    0.56999999    2.78999996
   13.49000072  132.12500000    0.52999997    2.78999996
   13.49333382  141.56199646    0.52999997    2.78999996
   13.49638939  131.13800049    0.52999997    2.78999996
   13.49972248  135.42900085    0.51999998    2.78999996
   13.50305557  133.38099670    0.51999998    2.78999996
   13.50611115  138.84800720    0.55000001    2.78999996
   13.50944424  130.37699890    0.56999999    2.78999996
   13.51277733  126.06199646    0.56999999    2.78999996
   13.51583290  132.35499573    0.58999997    2.78999996
   13.51694393  136.05400085    0.55000001    2.78999996
   13.52166653  136.05400085    0.55000001    2.78999996
   13.52583313  131.34899902    0.56999999    2.76999998
   13.52916622  135.41999817    0.51999998    2.78999996
   13.53222179  133.76199341    0.51999998    2.78999996
   13.53555584  127.61399841    0.52999997    2.78999996
   13.53888893  137.99899292    0.52999997    2.78999996
   13.54194450  132.64900208    0.55000001    2.78999996
   13.54527855  133.66799927    0.52999997    2.78999996
   13.54833412  136.31500244    0.52999997    2.78999996
   13.55027771  134.41299438    0.52999997    2.78999996
   13.55194473  143.07099915    0.52999997    2.78999996
   13.55527782  133.35200500    0.52999997    2.78999996
   13.55861092  135.11300659    0.52999997    2.78999996
   13.56444454  135.11300659    0.52999997    2.78999996
   13.56861115  130.83599854    0.52999997    2.78999996
   13.57194424  130.04699707    0.52999997    2.78999996
   13.57527733  131.28999329    0.55000001    2.78999996
   13.57833290  131.84500122    0.55000001    2.78999996
   13.58166695  132.22000122    0.56999999    2.78999996
   13.58361053  127.61900330    0.55000001    2.78999996
   13.58527756  126.80400085    0.55000001    2.78999996
   13.58861065  130.99400330    0.55000001    2.78999996
   13.59194374  127.67299652    0.51999998    2.78999996
   13.59499931  127.38400269    0.51999998    2.78999996
   13.59833336  129.92399597    0.51999998    2.78999996
   13.60166740  135.12100220    0.52999997    2.78999996
   13.60750008  135.12100220    0.55000001    2.78999996
   13.61166668  133.36700439    0.52999997    2.78999996
   13.61472225  132.92700195    0.51999998    2.78999996
   13.61694431  131.11300659    0.51999998    2.78999996
   13.61861134  139.22099304    0.51999998    2.78999996
   13.62194443  132.90299988    0.51999998    2.78999996
   13.62500000  129.49400330    0.52999997    2.78999996
   13.62833309  132.90100098    0.52999997    2.78999996
   13.63138866  133.46499634    0.55000001    2.78999996
   13.63472176  130.55200195    0.55000001    2.78999996
   13.63805580  128.83599854    0.55000001    2.78999996
   13.64111137  131.08500671    0.56999999    2.78999996
   13.64444447  125.44699860    0.58999997    2.78999996
   13.65027714  125.44699860    0.61000001    2.80999994
   13.65444374  134.06100464    0.58999997    2.78999996
   13.65777779  132.18299866    0.56999999    2.78999996
   13.66083336  133.22500610    0.56999999    2.78999996
   13.66416645  133.56399536    0.55000001    2.80999994
   13.66722298  135.49699402    0.52999997    2.78999996
   13.67055607  132.36099243    0.52999997    2.78999996
   13.67388916  132.49699402    0.55000001    2.78999996
   13.67694473  134.12100220    0.56999999    2.78999996
   13.68027782  131.13099670    0.55000001    2.78999996
   13.68361092  130.07800293    0.55000001    2.80999994
   13.68388939  139.24699402    0.55000001    2.80999994
   13.68722248  134.05799866    0.52999997    2.80999994
   13.69305515  134.05799866    0.52999997    2.78999996
   13.69722271  132.15800476    0.55000001    2.78999996
   13.70055580  131.78999329    0.55000001    2.78999996
   13.70361137  140.27900696    0.52999997    2.78999996
   13.70694447  135.90199280    0.52999997    2.80999994
   13.71027756  137.46899414    0.52999997    2.78999996
   13.71333313  130.12899780    0.52999997    2.80999994
   13.71666622  130.05099487    0.52999997    2.78999996
   13.71722221  133.63900757    0.52999997    2.78999996
   13.72027779  127.74500275    0.51999998    2.78999996
   13.72361088  129.53300476    0.52999997    2.78999996
   13.72694397  133.82200623    0.51999998    2.78999996
   13.72999954  130.05799866    0.51999998    2.78999996
   13.73583317  130.05799866    0.51999998    2.78999996
   13.74000072  128.35000610    0.51999998    2.80999994
   13.74333382  130.96299744    0.52999997    2.80999994
   13.74666691  131.56100464    0.52999997    2.80999994
   13.74972248  137.16400146    0.52999997    2.78999996
   13.75055599  136.30099487    0.52999997    2.78999996
   13.75361156  131.57899475    0.52999997    2.80999994
   13.75666714  131.75300598    0.51999998    2.78999996
   13.76000023  130.44799805    0.51999998    2.78999996
   13.76305580  138.42999268    0.51999998    2.80999994
   13.76638889  127.28800201    0.51999998    2.80999994
   13.76972198  132.58900452    0.52999997    2.80999994
   13.77277756  134.22200012    0.52999997    2.80999994
   13.77888870  134.22200012    0.52999997    2.78999996
   13.78277779  131.20199585    0.52999997    2.78999996
   13.78388977  131.49200439    0.52999997    2.78999996
   13.78638935  127.45800018    0.52999997    2.78999996
   13.78972244  127.49299622    0.55000001    2.80999994
   13.79305553  129.96800232    0.55000001    2.80999994
   13.79611111  125.96099854    0.55000001    2.80999994
   13.79944515  130.55299377    0.55000001    2.78999996
   13.80277824  124.58799744    0.55000001    2.80999994
   13.80583382  128.28799438    0.52999997    2.78999996
   13.80916691  136.97599792    0.52999997    2.78999996
   13.81222248  135.20500183    0.55000001    2.80999994
   13.81555557  130.70100403    0.61000001    2.82999992
   13.81722260  130.45300293    0.58999997    2.82999992
   13.82166672  130.45300293    0.56999999    2.80999994
   13.82583332  133.83799744    0.56999999    2.80999994
   13.82888889  129.16200256    0.56999999    2.80999994
   13.83222198  131.11199951    0.56999999    2.80999994
   13.83555508  127.41999817    0.56999999    2.78999996
   13.83888817  133.85800171    0.56999999    2.78999996
   13.84194374  140.60800171    0.56999999    2.80999994
   13.84527779  127.98200226    0.56999999    2.80999994
   13.84833336  128.24200439    0.56999999    2.78999996
   13.85055637  128.39500427    0.56999999    2.80999994
   13.85194492  128.46499634    0.56999999    2.80999994
   13.85527802  130.93899536    0.56999999    2.80999994
   13.85861111  132.29400635    0.58999997    2.78999996
   13.86444473  132.29400635    0.56999999    2.78999996
   13.86861134  127.44999695    0.56999999    2.80999994
   13.87194443  125.90499878    0.56999999    2.80999994
   13.87500000  127.55500031    0.58999997    2.80999994
   13.87833309  125.98899841    0.58999997    2.80999994
   13.88138866  127.86299896    0.55000001    2.78999996
   13.88388920  129.43800354    0.56999999    2.80999994
   13.88500023  130.61300659    0.56999999    2.80999994
   13.88833332  132.92300415    0.56999999    2.78999996
   13.89166641  129.35400391    0.56999999    2.80999994
   13.89472198  129.07299805    0.55000001    2.80999994
   13.89805508  134.83500671    0.55000001    2.80999994
   13.90111065  133.99600220    0.55000001    2.80999994
   13.90749931  133.99600220    0.55000001    2.80999994
   13.91138840  131.86099243    0.55000001    2.80999994
   13.91472149  128.46099854    0.52999997    2.80999994
   13.91722298  141.28999329    0.51999998    2.80999994
   13.91833401  140.81500244    0.51999998    2.80999994
   13.92166710  135.75399780    0.51999998    2.80999994
   13.92500019  131.86599731    0.67000002    2.80999994
   13.92805576  132.48899841    0.50000000    2.82999992
   13.93138885  152.80700684    0.50000000    2.80999994
   13.93472195  150.73500061    0.50000000    2.80999994
   13.93777752  132.60699463    0.50000000    2.80999994
   13.94111156  135.01800537    0.50000000    2.80999994
   13.94444466  137.96499634    0.51999998    2.80999994
   13.95027733  137.96499634    0.51999998    2.80999994
   13.95444393  146.53799438    0.51999998    2.80999994
   13.95749950  139.02400208    0.51999998    2.80999994
   13.96083355  146.35800171    0.51999998    2.82999992
   13.96388912  126.22599792    0.52999997    2.80999994
   13.96749973  144.78999329    0.52999997    2.82999992
   13.97055531  135.33200073    0.52999997    2.80999994
   13.97388840  132.01300049    0.56999999    2.80999994
   13.97694397  148.42399597    0.56999999    2.80999994
   13.98027706  152.26699829    0.56999999    2.80999994
   13.98361111  137.45599365    0.56999999    2.80999994
   13.98527813  140.93899536    0.56999999    2.80999994
   13.98694515  152.13800049    0.56999999    2.80999994
   13.99305534  152.13800049    0.56999999    2.80999994
   13.99722290  133.54800415    0.56999999    2.80999994
   14.00027752  149.11099243    0.56999999    2.80999994
   14.00361156  143.70899963    0.56999999    2.80999994
   14.00694466  146.74699402    0.56999999    2.80999994
   14.01000023  143.50100708    0.56999999    2.80999994
   14.01333332  136.09899902    0.56999999    2.80999994
   14.01666641  134.69000244    0.58999997    2.80999994
   14.01861095  128.02400208    0.58999997    2.80999994
   14.02027798  132.52099609    0.61000001    2.80999994
   14.02333355  141.80900574    0.61000001    2.80999994
   14.02666664  132.78900146    0.61000001    2.80999994
   14.02972221  144.43400574    0.58999997    2.80999994
   14.03583336  144.43400574    0.63000000    2.80999994
   14.04000092  127.16100311    0.63000000    2.80999994
   14.04333401  130.81300354    0.63000000    2.82999992
   14.04638958  130.48800659    0.58999997    2.82999992
   14.04972267  146.22300720    0.56999999    2.80999994
   14.05222225  140.11599731    0.56999999    2.80999994
   14.05333328  145.49600220    0.56999999    2.80999994
   14.05666733  139.67799377    0.56999999    2.80999994
   14.06000042  136.88900757    0.55000001    2.80999994
   14.06305599  133.11500549    0.55000001    2.82999992
   14.06638908  141.70199585    0.56999999    2.80999994
   14.06972218  126.76100159    0.56999999    2.82999992
   14.07277775  145.07499695    0.55000001    2.80999994
   14.07888889  145.07499695    0.56999999    2.80999994
   14.08277798  148.58799744    0.55000001    2.80999994
   14.08555508  138.56399536    0.55000001    2.80999994
   14.08638859  143.65800476    0.55000001    2.80999994
   14.08972168  164.13099670    0.52999997    2.80999994
   14.09305477  158.41900635    0.52999997    2.80999994
   14.09611034  155.00300598    0.58999997    2.80999994
   14.09944439  143.85400391    0.61000001    2.80999994
   14.10249996  156.85400391    0.61000001    2.80999994
   14.10583401  155.81599426    0.56999999    2.80999994
   14.10916710  153.48199463    0.52999997    2.82999992
   14.11222267  140.68600464    0.52999997    2.82999992
   14.11555576  162.19799805    0.51999998    2.80999994
   14.12166691  162.19799805    0.50000000    2.82999992
   14.12583351  161.90800476    0.50000000    2.82999992
   14.12888908  124.45200348    0.47999999    2.80999994
   14.13222218  138.70100403    0.47999999    2.80999994
   14.13555527  147.96899414    0.47999999    2.80999994
   14.13861084  139.72599792    0.50000000    2.80999994
   14.14194393  139.69400024    0.50000000    2.80999994
   14.14527798  137.89900208    0.51999998    2.80999994
   14.14833355  149.92900085    0.51999998    2.82999992
   14.15166664  141.01499939    0.51999998    2.82999992
   14.15249920  136.77799988    0.51999998    2.82999992
   14.15527725  148.43699646    0.51999998    2.82999992
   14.15833282  147.63999939    0.51999998    2.82999992
   14.16444397  147.63999939    0.50000000    2.80999994
   14.16861153  132.11199951    0.50000000    2.82999992
   14.17194462  141.16299438    0.50000000    2.80999994
   14.17500019  134.06900024    0.51999998    2.82999992
   14.17833328  126.61100006    0.51999998    2.82999992
   14.18166733  131.30499268    0.51999998    2.80999994
   14.18472195  133.00500488    0.50000000    2.82999992
   14.18611145  135.25000000    0.51999998    2.82999992
   14.18861103  124.68000031    0.51999998    2.82999992
   14.19194412  127.00499725    0.50000000    2.80999994
   14.19499969  128.77799988    0.50000000    2.80999994
   14.19833374  129.36599731    0.50000000    2.80999994
   14.20166683  129.10299683    0.50000000    2.82999992
   14.20722198  129.10299683    0.47999999    2.80999994
   14.21138859  128.91400146    0.47999999    2.82999992
   14.21472168  129.00300598    0.47999999    2.82999992
   14.21777725  132.60200500    0.50000000    2.80999994
   14.21944427  135.51600647    0.50000000    2.80999994
   14.22138882  137.66299438    0.50000000    2.80999994
   14.22472191  124.30999756    0.50000000    2.82999992
   14.22805500  127.47100067    0.50000000    2.82999992
   14.23111057  128.25700378    0.50000000    2.80999994
   14.23444462  124.20999908    0.50000000    2.82999992
   14.23750019  124.24500275    0.50000000    2.80999994
   14.24083328  128.18499756    0.50000000    2.80999994
   14.24416733  119.49199677    0.51999998    2.82999992
   14.25000000  119.49199677    0.55000001    2.80999994
   14.26861095  130.12500000    0.55000001    2.80999994
   14.27166653  123.95600128    0.55000001    2.82999992
   14.27499962  127.65899658    0.55000001    2.82999992
   14.27833271  127.61599731    0.55000001    2.82999992
   14.28166676  127.37999725    0.55000001    2.82999992
   14.28472233  130.64300537    0.55000001    2.82999992
   14.28805637  131.04299927    0.55000001    2.82999992
   14.29333401  131.04299927    0.55000001    2.80999994
   14.29722309  128.97399902    0.56999999    2.82999992
   14.30055618  128.03500366    0.56999999    2.82999992
   14.30166721  134.47300720    0.56999999    2.82999992
   14.30416679  126.26300049    0.56999999    2.82999992
   14.30749989  127.80899811    0.56999999    2.80999994
   14.31055546  131.53100586    0.58999997    2.82999992
   14.31388950  125.42400360    0.58999997    2.82999992
   14.31722260  124.85700226    0.61000001    2.82999992
   14.32027817  126.24400330    0.58999997    2.82999992
   14.32361126  127.31900024    0.58999997    2.80999994
   14.32694435  124.54799652    0.58999997    2.80999994
   14.32999992  121.14199829    0.61000001    2.82999992
   14.33611107  121.14199829    0.63000000    2.82999992
   14.34027767  127.97499847    0.63000000    2.80999994
   14.34333324  131.75199890    0.61000001    2.82999992
   14.34666634  125.89299774    0.61000001    2.82999992
   14.35000038  125.38700104    0.61000001    2.82999992
   14.35305595  127.36599731    0.58999997    2.82999992
   14.35638905  122.48200226    0.61000001    2.82999992
   14.35944462  122.90399933    0.61000001    2.80999994
   14.36277771  132.68200684    0.61000001    2.82999992
   14.36611176  120.70700073    0.58999997    2.82999992
   14.36805534  122.06300354    0.58999997    2.82999992
   14.36972237  124.10900116    0.58999997    2.80999994
   14.37305546  127.14199829    0.58999997    2.80999994
   14.37888908  127.14199829    0.61000001    2.82999992
   14.38305569  126.00900269    0.61000001    2.82999992
   14.38611126  127.76999664    0.58999997    2.80999994
   14.38944435  126.26999664    0.56999999    2.82999992
   14.39277744  125.17199707    0.56999999    2.82999992
   14.39583302  126.72000122    0.56999999    2.82999992
   14.39916611  125.11399841    0.55000001    2.82999992
   14.40166664  127.07299805    0.55000001    2.82999992
   14.40277767  125.60700226    0.55000001    2.82999992
   14.40611076  127.20099640    0.56999999    2.82999992
   14.40916634  124.80999756    0.56999999    2.82999992
   14.41249943  125.01300049    0.56999999    2.82999992
   14.41583252  124.32900238    0.58999997    2.82999992
   14.42166710  124.32900238    0.61000001    2.82999992
   14.42583370  129.70399475    0.61000001    2.82999992
   14.42916679  122.73899841    0.61000001    2.82999992
   14.43222237  126.98000336    0.58999997    2.82999992
   14.43500042  122.80500031    0.58999997    2.82999992
   14.43583298  126.97899628    0.58999997    2.82999992
   14.43916702  120.49800110    0.58999997    2.82999992
   14.44250011  126.99299622    0.58999997    2.82999992
   14.44555569  124.53800201    0.58999997    2.82999992
   14.44888878  124.57099915    0.58999997    2.82999992
   14.45222187  127.66200256    0.58999997    2.82999992
   14.45527744  126.29399872    0.58999997    2.82999992
   14.45861053  126.71399689    0.58999997    2.82999992
   14.46444416  126.71399689    0.58999997    2.82999992
   14.46861076  132.62399292    0.58999997    2.82999992
   14.47194386  125.43699646    0.58999997    2.82999992
   14.47499943  124.91999817    0.61000001    2.82999992
   14.47833252  124.63700104    0.58999997    2.82999992
   14.48166656  127.78500366    0.58999997    2.82999992
   14.48472214  124.19200134    0.58999997    2.82999992
   14.48805618  129.13000488    0.58999997    2.82999992
   14.49138927  127.15799713    0.61000001    2.82999992
   14.49444485  124.51100159    0.63000000    2.82999992
   14.49777794  124.16899872    0.63000000    2.82999992
   14.50111103  125.41300201    0.64999998    2.82999992
   14.50166702  123.23400116    0.64999998    2.82999992
   14.50749969  123.23400116    0.64999998    2.82999992
   14.51166630  125.97100067    0.63000000    2.82999992
   14.51472187  130.72900391    0.63000000    2.82999992
   14.51805496  124.63200378    0.63000000    2.82999992
   14.52138901  126.33699799    0.64999998    2.82999992
   14.52444458  124.97499847    0.64999998    2.82999992
   14.52777767  126.92500305    0.67000002    2.82999992
   14.53111076  126.26200104    0.64999998    2.82999992
   14.53416729  124.46499634    0.64999998    2.82999992
   14.53500080  128.48199463    0.64999998    2.82999992
   14.53777790  126.45300293    0.67000002    2.82999992
   14.54111195  122.37200165    0.64999998    2.82999992
   14.54444504  128.35699463    0.61000001    2.82999992
   14.55027771  128.35699463    0.58999997    2.82999992
   14.55444431  126.97899628    0.58999997    2.82999992
   14.55749989  125.17199707    0.58999997    2.82999992
   14.56083393  120.48699951    0.56999999    2.82999992
   14.56416702  126.57700348    0.55000001    2.82999992
   14.56722260  127.20999908    0.55000001    2.82999992
   14.56833363  126.59600067    0.55000001    2.82999992
   14.57083321  125.98999786    0.55000001    2.82999992
   14.57416630  126.97200012    0.55000001    2.82999992
   14.57722187  121.64900208    0.56999999    2.82999992
   14.58055592  122.28800201    0.56999999    2.82999992
   14.58388901  126.65799713    0.56999999    2.82999992
   14.58694458  126.20700073    0.56999999    2.82999992
   14.59305477  126.20700073    0.56999999    2.82999992
   14.59722233  123.08399963    0.56999999    2.82999992
   14.60055637  127.38099670    0.56999999    2.82999992
   14.60166740  133.38600159    0.55000001    2.82999992
   14.60416698  128.38800049    0.55000001    2.82999992
   14.60750008  128.11599731    0.55000001    2.82999992
   14.61055565  133.21000671    0.55000001    2.82999992
   14.61388969  133.38000488    0.55000001    2.82999992
   14.61722279  129.16700745    0.56999999    2.82999992
   14.62027836  135.10699463    0.56999999    2.82999992
   14.62361145  131.11199951    0.58999997    2.84999990
   14.62694454  131.80599976    0.61000001    2.82999992
   14.63000011  126.75599670    0.61000001    2.82999992
   14.63583279  126.75599670    0.64999998    2.82999992
   14.64000034  126.59500122    0.64999998    2.82999992
   14.64333344  123.75099945    0.64999998    2.82999992
   14.64638901  125.21399689    0.64999998    2.82999992
   14.64972210  122.12500000    0.64999998    2.82999992
   14.65305519  123.61199951    0.67000002    2.84999990
   14.65611076  122.62400055    0.67000002    2.82999992
   14.65972137  129.74000549    0.63000000    2.82999992
   14.66305542  130.98300171    0.63000000    2.82999992
   14.66611099  126.10800171    0.63000000    2.82999992
   14.66833401  124.98699951    0.63000000    2.82999992
   14.66972256  123.81900024    0.63000000    2.82999992
   14.67305565  127.20999908    0.61000001    2.82999992
   14.67888927  127.20999908    0.61000001    2.84999990
   14.68277836  132.22099304    0.61000001    2.82999992
   14.68611145  122.07099915    0.61000001    2.84999990
   14.68944454  131.70599365    0.61000001    2.84999990
   14.69250011  127.08699799    0.61000001    2.84999990
   14.69583321  124.01799774    0.61000001    2.82999992
   14.69916630  121.79000092    0.63000000    2.82999992
   14.70166683  122.31600189    0.64999998    2.82999992
   14.70249939  122.87799835    0.64999998    2.82999992
   14.70583344  119.35399628    0.63000000    2.82999992
   14.70916653  125.74500275    0.63000000    2.82999992
   14.71222210  127.33200073    0.63000000    2.82999992
   14.71555519  124.33399963    0.63000000    2.82999992
   14.72166634  124.33399963    0.63000000    2.82999992
   14.72583294  130.65600586    0.64999998    2.82999992
   14.72888851  127.11900330    0.64999998    2.84999990
   14.73222160  133.28300476    0.67000002    2.84999990
   14.73500061  122.38700104    0.67000002    2.84999990
   14.73583317  127.91699982    0.64999998    2.84999990
   14.73916721  123.20500183    0.64999998    2.84999990
   14.74250031  129.23800659    0.64999998    2.82999992
   14.74555588  124.15899658    0.64999998    2.84999990
   14.74888897  129.48699951    0.64999998    2.82999992
   14.75194454  127.90100098    0.64999998    2.84999990
   14.75527763  121.50800323    0.64999998    2.82999992
   14.75861073  127.26999664    0.64999998    2.82999992
   14.76444435  127.26999664    0.63000000    2.84999990
   14.76861095  118.46700287    0.63000000    2.82999992
   14.77194405  127.09799957    0.63000000    2.84999990
   14.77527714  123.04100037    0.61000001    2.82999992
   14.77833271  126.17900085    0.61000001    2.84999990
   14.78166676  121.01000214    0.63000000    2.84999990
   14.78500080  119.51399994    0.61000001    2.84999990
   14.78805637  125.24600220    0.61000001    2.84999990
   14.79138947  125.44200134    0.61000001    2.84999990
   14.79444504  123.64600372    0.63000000    2.84999990
   14.79777813  122.63800049    0.64999998    2.84999990
   14.80111122  122.83799744    0.67000002    2.82999992
   14.80166721  126.12200165    0.67000002    2.82999992
   14.80722237  126.12200165    0.67000002    2.84999990
   14.81138897  124.50700378    0.67000002    2.82999992
   14.81472206  120.71800232    0.67000002    2.82999992
   14.81777763  125.02999878    0.64999998    2.84999990
   14.82111073  126.38400269    0.63000000    2.82999992
   14.82444477  122.70600128    0.63000000    2.82999992
   14.82750034  132.52900696    0.64999998    2.84999990
   14.83083344  127.57299805    0.67000002    2.82999992
   14.83416653  120.34200287    0.67000002    2.82999992
   14.83500004  116.91500092    0.67000002    2.84999990
   14.83749962  123.38099670    0.67000002    2.84999990
   14.84083271  123.29799652    0.67000002    2.82999992
   14.84416676  126.11199951    0.67000002    2.82999992
   14.85027790  126.11199951    0.69000000    2.82999992
   14.85416698  120.81600189    0.67000002    2.82999992
   14.85750008  124.70800018    0.67000002    2.84999990
   14.86083412  125.89499664    0.69000000    2.84999990
   14.86388969  126.20700073    0.69000000    2.84999990
   14.86722279  129.92900085    0.69000000    2.84999990
   14.86833382  127.01100159    0.70999998    2.84999990
   14.87083340  129.72599792    0.70999998    2.84999990
   14.87416649  127.34100342    0.70999998    2.84999990
   14.97583294   -1.00000000   -1.00000000   -1.00000000
   15.10388947   -1.00000000   -1.00000000   -1.00000000
   15.20416641   -1.00000000   -1.00000000   -1.00000000
   15.26166630  132.20700073    0.92000002    2.84999990
   15.26472187  128.32000732    0.92000002    2.84999990
   15.26805496  124.89700317    0.94000000    2.84999990
   15.27138901  122.38099670    0.94000000    2.84999990
   15.27444458  131.70899963    1.00000000    2.84999990
   15.27777767  130.15699768    1.03999996    2.84999990
   15.28194427  130.15699768    1.05999994    2.84999990
   15.28611183  126.06099701    1.05999994    2.86999989
   15.28916740  133.99899292    1.00000000    2.84999990
   15.29250050  127.51599884    0.98000002    2.84999990
   15.29472256  130.39799500    0.94000000    2.86999989
   15.29611111  131.56100464    0.92000002    2.84999990
   15.29944515  130.99800110    0.94000000    2.84999990
   15.30249977  130.78300476    0.94000000    2.84999990
   15.30583382  130.59300232    0.94000000    2.84999990
   15.30916691  131.19299316    0.94000000    2.84999990
   15.31222248  133.61000061    0.92000002    2.84999990
   15.31555557  125.50299835    0.89999998    2.84999990
   15.31861115  125.92800140    0.92000002    2.86999989
   15.32472229  125.92800140    0.94000000    2.84999990
   15.32888889  126.99199677    1.05999994    2.84999990
   15.33194447  127.71900177    0.95999998    2.84999990
   15.33527756  123.07700348    0.95999998    2.84999990
   15.33861065  124.92099762    0.98000002    2.84999990
   15.34166622  127.38999939    0.98000002    2.84999990
   15.34499931  126.30699921    0.98000002    2.84999990
   15.34833336  125.57199860    1.01999998    2.84999990
   15.35138893  128.86300659    1.05999994    2.84999990
   15.35472298  124.80599976    1.03999996    2.84999990
   15.35805607  124.04000092    1.01999998    2.84999990
   15.36111164  128.45199585    1.01999998    2.84999990
   15.36194515  127.29100037    0.92000002    2.84999990
   15.36750031  127.29100037    0.89999998    2.84999990
   15.37166691  125.87300110    0.98000002    2.84999990
   15.37500000  130.85800171    0.95999998    2.84999990
   15.37805557  127.85299683    0.95999998    2.84999990
   15.38138866  128.97999573    1.09000003    2.84999990
   15.38472176  128.09199524    1.01999998    2.84999990
   15.38777733  121.07800293    1.01999998    2.84999990
   15.39111137  122.00599670    1.01999998    2.84999990
   15.39416695  118.98699951    1.01999998    2.86999989
   15.39499950  121.88700104    1.01999998    2.86999989
   15.39805508  119.43299866    1.00000000    2.84999990
   15.40111065  124.13700104    1.09000003    2.84999990
   15.40444374  120.73899841    1.13000000    2.86999989
   15.41027737  120.73899841    1.14999998    2.84999990
   15.41444397  127.53800201    1.19000006    2.84999990
   15.41777802  124.49199677    1.25000000    2.84999990
   15.42111111  121.27999878    1.19000006    2.84999990
   15.42416668  124.41799927    1.19000006    2.86999989
   15.42750072  125.16600037    1.16999996    2.86999989
   15.42833328  130.13800049    1.16999996    2.86999989
   15.43111134  129.58399963    1.16999996    2.86999989
   15.43416691  130.36799622    1.19000006    2.84999990
   15.43750000  127.45700073    1.19000006    2.84999990
   15.44083309  126.93199921    1.21000004    2.84999990
   15.44388866  127.43900299    1.25000000    2.84999990
   15.44722271  129.01699829    1.25000000    2.84999990
   15.45333290  129.01699829    1.13000000    2.84999990
   15.45749950  127.79900360    1.11000001    2.86999989
   15.46055508  120.27200317    1.11000001    2.86999989
   15.46166611  122.87200165    1.11000001    2.86999989
   15.46416664  130.83200073    1.11000001    2.86999989
   15.46722221  130.28700256    1.16999996    2.86999989
   15.47055531  129.82099915    1.19000006    2.84999990
   15.47388840  132.87699890    1.19000006    2.84999990
   15.47694397  128.70599365    1.21000004    2.86999989
   15.48027706  124.51699829    1.21000004    2.86999989
   15.48333359  126.48200226    1.23000002    2.86999989
   15.48694515  124.06500244    1.25000000    2.84999990
   15.49000072  123.36299896    1.33000004    2.84999990
   15.49611092  123.36299896    1.36000001    2.86999989
   15.50027752  124.93599701    1.48000002    2.86999989
   15.50361156  125.71399689    1.58000004    2.84999990
   15.50694466  123.33000183    1.60000002    2.86999989
   15.51000023  125.46600342    1.63000000    2.84999990
   15.51333332  127.76999664    1.69000006    2.84999990
   15.51638889  122.78500366    1.61000001    2.84999990
   15.51972198  121.01899719    1.61000001    2.84999990
   15.52305508  123.13099670    1.64999998    2.84999990
   15.52611065  118.80699921    1.63000000    2.86999989
   15.52833271  124.23400116    1.64999998    2.86999989
   15.52999973  122.00499725    1.64999998    2.86999989
   15.53305531  122.29599762    1.71000004    2.86999989
   15.53916740  122.29599762    1.61000001    2.86999989
   15.54333401  123.98699951    1.61000001    2.84999990
   15.54638958  127.17199707    1.61000001    2.84999990
   15.54972267  122.03900146    1.61000001    2.84999990
   15.55305576  123.12100220    1.64999998    2.84999990
   15.55611134  124.82700348    1.60000002    2.84999990
   15.55944443  126.31300354    1.55999994    2.86999989
   15.56166649  126.86900330    1.55999994    2.86999989
   15.56305599  123.37000275    1.51999998    2.84999990
   15.56611156  126.75800323    1.48000002    2.86999989
   15.56944466  130.36500549    1.48000002    2.86999989
   15.57277775  127.48300171    1.36000001    2.84999990
   15.57583332  127.77700043    1.26999998    2.84999990
   15.58194447  127.77700043    1.30999994    2.84999990
   15.58611107  126.23300171    1.28999996    2.84999990
   15.58916664  129.39399719    1.44000006    2.84999990
   15.59249973  123.28299713    1.55999994    2.86999989
   15.59499931  127.20899963    1.66999996    2.84999990
   15.59611034  125.79399872    1.66999996    2.84999990
   15.59944439  123.79499817    1.63000000    2.86999989
   15.60277843  118.16200256    1.64999998    2.84999990
   15.60583401  120.48699951    1.69000006    2.84999990
   15.60916710  121.79100037    1.69000006    2.84999990
   15.61250019  121.05500031    1.55999994    2.86999989
   15.61555576  125.98200226    1.48000002    2.84999990
   15.61888885  123.09700012    1.48000002    2.84999990
   15.62472248  123.09700012    1.63000000    2.84999990
   15.62888908  124.19699860    1.60000002    2.84999990
   15.63222218  122.28299713    1.60000002    2.86999989
   15.63527775  125.66200256    1.60000002    2.86999989
   15.63861084  128.79299927    1.64999998    2.86999989
   15.64194393  127.60199738    1.63000000    2.86999989
   15.64499950  131.06100464    1.63000000    2.86999989
   15.64833355  132.65299988    1.58000004    2.84999990
   15.65138817  135.63400269    1.48000002    2.84999990
   15.65472221  132.55400085    1.50000000    2.86999989
   15.65805531  132.92500305    1.48000002    2.84999990
   15.66111088  128.76600647    1.48000002    2.84999990
   15.66166592  129.49899292    1.41999996    2.84999990
   15.66750050  129.49899292    1.41999996    2.84999990
   15.67166710  122.29100037    1.44000006    2.86999989
   15.67500019  126.54699707    1.33000004    2.86999989
   15.67833328  118.60600281    1.21000004    2.84999990
   15.68138885  126.19499969    1.26999998    2.84999990
   15.68472195  117.75000000    1.46000004    2.86999989
   15.68777752  117.22699738    1.46000004    2.86999989
   15.69111156  120.68499756    1.44000006    2.86999989
   15.69444466  116.95300293    1.28999996    2.86999989
   15.69499969  124.15799713    1.28999996    2.86999989
   15.69805527  121.59300232    1.36000001    2.84999990
   15.70138836  122.56600189    1.26999998    2.86999989
   15.70444393  117.23600006    1.21000004    2.84999990
   15.71055508  117.23600006    1.11000001    2.84999990
   15.71444416  120.73699951    1.11000001    2.86999989
   15.71777725  121.66899872    1.05999994    2.86999989
   15.72111034  124.05599976    1.16999996    2.84999990
   15.72416592  122.13300323    1.16999996    2.86999989
   15.72749996  121.33799744    1.16999996    2.86999989
   15.72833252  120.33999634    1.16999996    2.84999990
   15.73111057  121.68299866    1.16999996    2.84999990
   15.73416710  121.87100220    1.13000000    2.86999989
   15.73750019  116.23200226    1.25000000    2.86999989
   15.74083328  119.22200012    1.30999994    2.86999989
   15.74388885  120.55699921    1.28999996    2.86999989
   15.74722290  119.92700195    1.28999996    2.86999989
   15.75333309  119.92700195    1.39999998    2.84999990
   15.75749969  121.92700195    1.33000004    2.84999990
   15.76055527  122.90699768    1.33000004    2.86999989
   15.76166630  120.59100342    1.33000004    2.86999989
   15.76444435  119.94400024    1.36000001    2.84999990
   15.76749992  126.10500336    1.36000001    2.84999990
   15.77083302  113.74099731    1.48000002    2.84999990
   15.77416611  120.85800171    1.60000002    2.86999989
   15.77722168  122.63999939    1.66999996    2.86999989
   15.78055573  120.86499786    1.63000000    2.84999990
   15.78416729  121.48699951    1.69000006    2.84999990
   15.78750038  121.99700165    1.58000004    2.84999990
   15.79055595  124.03500366    1.58000004    2.84999990
   15.79611111  124.03500366    1.46000004    2.86999989
   15.80027771  126.82700348    1.66999996    2.84999990
   15.80361176  120.86599731    1.61000001    2.84999990
   15.80666733  119.58599854    1.64999998    2.86999989
   15.81000042  120.20899963    1.78999996    2.86999989
   15.81333351  116.61699677    1.78999996    2.86999989
   15.81638908  115.23000336    1.78999996    2.86999989
   15.81972218  121.12300110    1.85000002    2.84999990
   15.82277775  117.45700073    1.86000001    2.84999990
   15.82611084  125.80300140    1.94000006    2.84999990
   15.82833290  122.16000366    2.09999990    2.86999989
   15.82972240  121.76499939    2.05999994    2.84999990
   15.83277798  124.41799927    2.05999994    2.84999990
   15.83888817  124.41799927    1.88000000    2.86999989
   15.84305477  118.94400024    1.73000002    2.86999989
   15.84638882  124.35500336    1.61000001    2.86999989
   15.84972191  124.03099823    1.63000000    2.84999990
   15.85277843  121.58799744    1.64999998    2.84999990
   15.85611153  125.02400208    1.66999996    2.86999989
   15.85944462  120.32099915    1.71000004    2.84999990
   15.86166668  122.81700134    1.71000004    2.84999990
   15.86305618  119.38700104    1.78999996    2.86999989
   15.86638927  122.30699921    1.60000002    2.86999989
   15.86972237  115.49099731    1.60000002    2.86999989
   15.87277794  115.18699646    1.60000002    2.86999989
   15.87611103  117.88099670    1.63000000    2.84999990
   15.88194466  117.88099670    1.71000004    2.84999990
   15.88611126  115.25800323    2.11999989    2.84999990
   15.88916683  121.33599854    1.96000004    2.84999990
   15.89249992  116.14299774    2.19000006    2.84999990
   15.89499950  120.90899658    2.00000000    2.84999990
   15.89611053  119.34600067    1.86000001    2.86999989
   15.89944458  117.97200012    1.80999994    2.86999989
   15.90249920  122.29199982    1.76999998    2.86999989
   15.90583324  124.13600159    1.83000004    2.84999990
   15.90916634  116.49400330    1.71000004    2.86999989
   15.91222191  121.09999847    1.71000004    2.86999989
   15.91555500  120.50700378    1.86000001    2.84999990
   15.91861153  119.92500305    2.09999990    2.86999989
   15.92472267  119.92500305    1.85000002    2.84999990
   15.92888927  123.79699707    1.91999996    2.84999990
   15.93222237  128.16400146    2.01999998    2.84999990
   15.93527794  126.10500336    2.00000000    2.86999989
   15.93861103  126.57099915    1.96000004    2.86999989
   15.94194412  114.52999878    1.96000004    2.86999989
   15.94499969  121.70999908    1.88000000    2.84999990
   15.94833374  122.32800293    1.89999998    2.86999989
   15.95166683  127.82900238    1.94000006    2.86999989
   15.95472240  122.52100372    1.83000004    2.86999989
   15.95805550  117.12400055    1.75000000    2.86999989
   15.96111107  116.77300262    1.71000004    2.84999990
   15.96166611  121.92500305    1.71000004    2.84999990
   15.96749973  121.92500305    1.73000002    2.86999989
   15.97166634  117.66799927    1.83000004    2.86999989
   15.97499943  124.63600159    1.80999994    2.86999989
   15.97805500  125.66400146    1.86000001    2.84999990
   15.98138809  127.61699677    1.89999998    2.86999989
   15.98472214  127.41300201    1.85000002    2.86999989
   15.98777771  134.76899719    1.86000001    2.86999989
   15.99111176  130.85200500    1.86000001    2.86999989
   15.99444485  129.90699768    1.85000002    2.84999990
   15.99499989  137.86900330    1.60000002    2.86999989
   15.99805546  136.91700745    1.66999996    2.84999990
   16.00138855  128.18699646    1.66999996    2.86999989
   16.00444412  130.74600220    1.69000006    2.86999989
   16.01027870  130.74600220    1.75000000    2.86999989
   16.01444435  116.52500153    1.83000004    2.84999990
   16.01777840  123.13099670    1.76999998    2.86999989
   16.02111053  122.08699799    1.64999998    2.86999989
   16.02416611  113.56099701    1.71000004    2.86999989
   16.02750015  123.19999695    1.69000006    2.86999989
   16.02833366  120.90399933    1.71000004    2.84999990
   16.03111076  129.23500061    1.73000002    2.86999989
   16.03444481  133.98399353    1.73000002    2.84999990
   16.03750038  135.26400757    1.73000002    2.84999990
   16.04083252  129.63000488    1.73000002    2.84999990
   16.04388809  131.89199829    1.64999998    2.86999989
   16.04722214  126.56099701    1.41999996    2.86999989
   16.05333328  126.56099701    1.39999998    2.86999989
   16.05749893  126.68199921    1.33000004    2.84999990
   16.06055450  125.96399689    1.14999998    2.86999989
   16.06166649  128.72099304    1.14999998    2.86999989
   16.06416512  118.03199768    1.14999998    2.86999989
   16.06750107  125.81600189    1.16999996    2.86999989
   16.07055664  129.04200745    1.26999998    2.84999990
   16.07389069  127.49600220    1.33000004    2.86999989
   16.07722282  115.92299652    1.26999998    2.86999989
   16.08027840  121.08000183    1.21000004    2.86999989
   16.08361244  132.97999573    1.21000004    2.86999989
   16.08666801  126.76799774    1.14999998    2.86999989
   16.09000015  129.39100647    1.14999998    2.86999989
   16.09611130  129.39100647    0.98000002    2.86999989
   16.10027885  126.23300171    1.05999994    2.86999989
   16.10333443  127.69000244    1.13000000    2.86999989
   16.10666656  127.68399811    1.33000004    2.86999989
   16.11000061  129.74099731    1.38000000    2.86999989
   16.11305618  127.44400024    1.38000000    2.86999989
   16.11638832  127.13600159    1.34000003    2.86999989
   16.11972237  121.49600220    1.34000003    2.86999989
   16.12277794  121.66500092    1.38000000    2.86999989
   16.12611198  129.67900085    1.44000006    2.86999989
   16.12833405  123.86299896    1.44000006    2.86999989
   16.12972260  124.82199860    1.44000006    2.86999989
   16.13305473  129.42399597    1.53999996    2.86999989
   16.13888931  129.42399597    1.51999998    2.86999989
   16.14305496  119.49500275    1.51999998    2.86999989
   16.14638901  130.94500732    1.63000000    2.84999990
   16.14944458  125.60199738    1.63000000    2.84999990
   16.15277672  125.55100250    1.63000000    2.86999989
   16.15611076  117.96099854    1.80999994    2.86999989
   16.15916634  114.66600037    1.94000006    2.86999989
   16.16166687  133.23899841    1.89999998    2.86999989
   16.16277695  134.15100098    1.89999998    2.86999989
   16.16611099  137.89599609    1.89999998    2.86999989
   16.16916656  124.44599915    1.78999996    2.86999989
   16.17249870  130.77200317    1.61000001    2.86999989
   16.17583275  127.63999939    1.50000000    2.86999989
   16.18166542  127.63999939    1.46000004    2.86999989
   16.18583298  119.68699646    1.34000003    2.86999989
   16.18916512  124.42500305    1.33000004    2.86999989
   16.19249916  123.59500122    1.25000000    2.86999989
   16.19499969  108.79599762    1.16999996    2.86999989
   16.19610977  125.42500305    1.16999996    2.86999989
   16.19972038  128.05400085    1.13000000    2.86999989
   16.20277786  110.25499725    1.13000000    2.86999989
   16.20611191  118.76399994    1.07000005    2.86999989
   16.20944595  114.66500092    1.09000003    2.86999989
   16.21250153  119.86100006    1.03999996    2.86999989
   16.21583366  105.38400269    1.03999996    2.86999989
   16.21916771  110.75499725    1.03999996    2.86999989
   16.22472191  110.75499725    1.05999994    2.86999989
   16.22888947  121.71900177    1.16999996    2.86999989
   16.23194504  120.41899872    1.38000000    2.86999989
   16.23527718  116.11599731    1.33000004    2.86999989
   16.23833275  127.62999725    1.50000000    2.84999990
   16.24166679  119.40899658    1.50000000    2.84999990
   16.24500084  115.15100098    1.50000000    2.86999989
   16.24805641  122.87500000    1.53999996    2.86999989
   16.25138855  121.47299957    1.53999996    2.86999989
   16.25472260  111.48600006    1.78999996    2.86999989
   16.25777817  120.53099823    1.55999994    2.84999990
   16.26111031  118.51200104    1.63000000    2.86999989
   16.26166725  114.01200104    1.63000000    2.86999989
   16.28249931  114.01200104    1.60000002    2.86999989
   16.28666687  104.53199768    1.78999996    2.86999989
   16.28972244  118.56300354    1.78999996    2.86999989
   16.29305458  119.37200165    1.69000006    2.86999989
   16.29500008  121.67099762    1.63000000    2.86999989
   16.29666710  129.44900513    1.63000000    2.86999989
   16.29999924  118.56199646    1.55999994    2.86999989
   16.30305481  119.87999725    1.55999994    2.86999989
   16.30638885  118.46399689    1.51999998    2.86999989
   16.30972099  118.10600281    1.46000004    2.86999989
   16.31277657  119.54599762    1.51999998    2.86999989
   16.31611061  114.92299652    1.44000006    2.86999989
   16.31916809  119.20700073    1.30999994    2.86999989
   16.32527924  119.20700073    1.26999998    2.86999989
   16.32944489  122.65299988    1.11000001    2.86999989
   16.33250046  117.74199677    1.13000000    2.86999989
   16.33583450  114.13500214    1.07000005    2.86999989
   16.33916664  118.08599854    0.98000002    2.86999989
   16.34222221  111.74700165    0.98000002    2.86999989
   16.34555626  119.05899811    0.89999998    2.86999989
   16.34861183  121.38899994    0.86000001    2.86999989
   16.35194397  116.61799622    0.88000000    2.86999989
   16.35527802  120.87999725    0.83999997    2.86999989
   16.35833359  125.88400269    0.83999997    2.86999989
   16.36166763  119.90399933    0.80000001    2.86999989
   16.36222267  114.79299927    0.80000001    2.86999989
   16.36805534  114.79299927    0.80000001    2.86999989
   16.37222290  119.26399994    0.86000001    2.86999989
   16.37527847  117.87699890    0.89999998    2.86999989
   16.37861061  127.45300293    1.01999998    2.86999989
   16.38194466  123.19599915    1.21000004    2.86999989
   16.38500023  126.90699768    1.21000004    2.86999989
   16.38833237  125.01100159    1.28999996    2.86999989
   16.39166641  127.18299866    1.26999998    2.86999989
   16.39472198  128.05599976    1.51999998    2.86999989
   16.39555550  128.94299316    1.51999998    2.86999989
   16.39833260  115.97200012    1.73000002    2.86999989
   16.40194321  119.54799652    1.89999998    2.86999989
   16.40527725  122.55699921    1.85000002    2.86999989
   16.41083336  122.55699921    1.58000004    2.86999989
   16.41499901  121.27100372    1.48000002    2.86999989
   16.41833305  120.91100311    1.48000002    2.86999989
   16.42166519  124.00900269    1.58000004    2.86999989
   16.42472076  112.29100037    1.63000000    2.86999989
   16.42805481  119.16000366    1.66999996    2.86999989
   16.42888832  115.29799652    1.66999996    2.86999989
   16.43138885  113.51100159    1.66999996    2.86999989
   16.43472099  119.76000214    1.51999998    2.84999990
   16.43805504  114.11900330    1.33000004    2.86999989
   16.44111061  117.11499786    1.33000004    2.86999989
   16.44444275  116.40499878    1.28999996    2.86999989
   16.44777679  117.26899719    1.28999996    2.86999989
   16.45388985  117.26899719    1.25000000    2.86999989
   16.45805550  113.16899872    0.89999998    2.86999989
   16.46111107  119.49099731    0.83999997    2.86999989
   16.46222305  120.24700165    0.83999997    2.86999989
   16.46472359  121.61599731    0.81999999    2.86999989
   16.46805573  119.20899963    0.83999997    2.89000010
   16.47138977  122.00499725    0.88000000    2.86999989
   16.47444534  121.61000061    0.89999998    2.86999989
   16.47777748  121.32399750    0.89999998    2.86999989
   16.48111153  119.65499878    0.86000001    2.86999989
   16.48416710  128.65600586    0.83999997    2.86999989
   16.48750114  120.32199860    0.86000001    2.86999989
   16.49055672  121.12599945    0.79000002    2.86999989
   16.49666786  121.12599945    0.73000002    2.86999989
   16.50083351  112.81500244    0.70999998    2.86999989
   16.50388908  118.42900085    0.70999998    2.89000010
   16.50722313  120.86599731    0.69000000    2.86999989
   16.51055527  121.36799622    0.69000000    2.86999989
   16.51361084  121.85199738    0.63000000    2.86999989
   16.51694489  119.40699768    0.64999998    2.89000010
   16.52027702  117.42099762    0.64999998    2.86999989
   16.52333260  111.44599915    0.67000002    2.86999989
   16.52666664  116.21700287    0.63000000    2.86999989
   16.52888870  109.27200317    0.63000000    2.86999989
   16.53000069  120.43199921    0.64999998    2.86999989
   16.53333282  117.52899933    0.64999998    2.86999989
   16.53944397  117.52899933    0.67000002    2.86999989
   16.54361153  116.02400208    0.70999998    2.86999989
   16.54694366  119.52200317    0.73000002    2.86999989
   16.54999924  114.73500061    0.79000002    2.86999989
   16.55333328  123.97399902    0.75000000    2.86999989
   16.55666542  122.16899872    0.70999998    2.86999989
   16.55972099  117.13700104    0.70999998    2.86999989
   16.56222153  118.60600281    0.70999998    2.86999989
   16.56333351  118.19300079    0.70999998    2.86999989
   16.56666756  117.70700073    0.79000002    2.86999989
   16.57000160  118.54199982    0.80000001    2.86999989
   16.57305717  117.90000153    0.81999999    2.86999989
   16.57638931  117.68099976    0.83999997    2.86999989
   16.58222389  117.68099976    0.86000001    2.86999989
   16.58638954  117.21299744    1.01999998    2.86999989
   16.58972359  122.67500305    0.98000002    2.86999989
   16.59305573  123.19100189    0.98000002    2.86999989
   16.59555626  118.83799744    0.94000000    2.86999989
   16.59638977  122.12400055    0.94000000    2.86999989
   16.59972191  123.31900024    0.88000000    2.86999989
   16.60305595  123.52400208    0.86000001    2.86999989
   16.60611153  120.10900116    0.86000001    2.86999989
   16.60944557  118.67600250    0.81999999    2.86999989
   16.61277771  115.61000061    0.80000001    2.86999989
   16.61583328  117.24600220    0.81999999    2.86999989
   16.61916733  117.81999969    0.83999997    2.86999989
   16.62527847  117.81999969    0.94000000    2.86999989
   16.62916756  114.58200073    1.00000000    2.86999989
   16.63249969  115.93199921    1.00000000    2.86999989
   16.63583374  122.09300232    1.03999996    2.86999989
   16.63888931  115.21299744    0.76999998    2.86999989
   16.64222145  122.52899933    0.75000000    2.86999989
   16.64555550  122.82099915    0.80000001    2.86999989
   16.64861107  117.49299622    0.75000000    2.86999989
   16.65194321  117.47499847    0.73000002    2.86999989
   16.65499878  120.97599792    0.73000002    2.86999989
   16.65833282  123.05500031    0.75000000    2.89000010
   16.66166687  120.70300293    0.73000002    2.86999989
   16.66222191  120.59400177    0.73000002    2.86999989
   16.66805458  120.59400177    0.76999998    2.86999989
   16.67222214  116.94000244    0.81999999    2.86999989
   16.67527771  127.32800293    0.81999999    2.86999989
   16.67860985  113.61199951    0.81999999    2.86999989
   16.68194389  111.08300018    0.81999999    2.86999989
   16.68499947  109.53099823    0.79000002    2.86999989
   16.68833160  117.25199890    0.73000002    2.86999989
   16.69166565  113.06500244    0.69000000    2.86999989
   16.69472122  113.49500275    0.70999998    2.86999989
   16.69555473  116.46399689    0.70999998    2.86999989
   16.69861031  117.04900360    0.73000002    2.86999989
   16.70166779  114.15200043    0.73000002    2.86999989
   16.70499992  110.86100006    0.73000002    2.86999989
   16.71083450  110.86100006    0.69000000    2.86999989
   16.71500015  116.67700195    0.70999998    2.86999989
   16.71833420  123.21399689    0.70999998    2.86999989
   16.72138977  114.14399719    0.69000000    2.86999989
   16.72472191  115.62200165    0.69000000    2.86999989
   16.72777748  110.01300049    0.64999998    2.86999989
   16.72888947  119.07800293    0.64999998    2.86999989
   16.73166656  115.05000305    0.64999998    2.86999989
   16.73472214  114.15799713    0.61000001    2.86999989
   16.73805618  116.48000336    0.61000001    2.86999989
   16.74111176  117.61000061    0.69000000    2.13000011
   16.74444389  112.54599762    0.73000002    1.88000000
   16.74777794  116.13700104    0.81999999    2.86999989
   16.75361061  116.13700104    0.81999999    2.86999989
   16.75777817  121.78399658    0.88000000    2.86999989
   16.76111031  117.61299896    0.94000000    2.86999989
   16.76222229  118.63800049    0.94000000    2.86999989
   16.76472282  115.45300293    0.94000000    2.86999989
   16.76777840  126.09600067    0.94000000    2.86999989
   16.77111053  118.53900146    0.86000001    2.86999989
   16.77416611  109.69400024    0.81999999    2.86999989
   16.77750015  118.86199951    0.83999997    2.86999989
   16.78083229  111.73000336    0.80000001    2.86999989
   16.78388786  117.59999847    0.76999998    2.86999989
   16.78722191  113.91799927    0.79000002    2.86999989
   16.79055595  108.88899994    0.79000002    2.86999989
   16.79666710  108.88899994    0.76999998    2.86999989
   16.80055428  112.62100220    0.73000002    2.86999989
   16.80388832  116.54499817    0.67000002    2.86999989
   16.80722237  116.47499847    0.67000002    2.86999989
   16.81027794  118.16699982    0.69000000    2.86999989
   16.81361008  113.66899872    0.73000002    2.86999989
   16.81694603  121.98600006    0.63000000    2.86999989
   16.82000160  120.14499664    0.63000000    2.86999989
   16.82333374  115.63600159    0.63000000    2.86999989
   16.82638931  121.88899994    0.67000002    2.86999989
   16.82888985  113.85099792    0.76999998    2.86999989
   16.83000183  111.59500122    0.76999998    2.86999989
   16.83333397  120.84999847    0.81999999    2.86999989
   16.83944511  120.84999847    0.88000000    2.86999989
   16.84361267  118.83799744    0.86000001    2.86999989
   16.84666824  118.84400177    0.79000002    2.86999989
   16.85000038  127.16000366    0.89999998    2.86999989
   16.85333443  117.74099731    0.79000002    2.86999989
   16.85639000  111.56999969    0.80000001    2.86999989
   16.85972214  117.13700104    0.80000001    2.86999989
   16.86222267  112.60700226    0.80000001    2.86999989
   16.86305618  119.89499664    0.80000001    2.86999989
   16.86638832  113.49500275    0.83999997    2.86999989
   16.86972237  117.69799805    0.79000002    2.86999989
   16.87277794  114.70700073    0.79000002    2.86999989
   16.87611198  116.00199890    0.73000002    2.86999989
   16.88222313  116.00199890    0.64999998    2.86999989
   16.88638878  113.84600067    0.67000002    2.86999989
   16.88972282  116.47599792    0.67000002    2.86999989
   16.89277840  116.48699951    0.67000002    2.86999989
   16.89555550  117.63099670    0.67000002    2.86999989
   16.89666748  109.72699738    0.67000002    2.86999989
   16.89972115  119.33699799    0.69000000    2.86999989
   16.90305519  118.06999969    0.73000002    2.86999989
   16.90611076  118.29299927    0.61000001    2.86999989
   16.90944481  117.71299744    0.61000001    2.86999989
   16.91277695  117.27799988    0.58999997    2.86999989
   16.91583252  117.39900208    0.56999999    2.86999989
   16.91916656  118.66300201    0.55000001    2.86999989
   16.92499924  118.66300201    0.50000000    2.86999989
   16.92916679  117.41799927    0.50000000    2.86999989
   16.93249893  115.19699860    0.51999998    2.86999989
   16.93583298  123.04900360    0.51999998    2.86999989
   16.93888855  114.50800323    0.76999998    2.86999989
   16.94222069  117.42600250    0.88000000    2.86999989
   16.94527626  118.34700012    0.98000002    2.86999989
   16.94861031  118.74099731    0.98000002    2.86999989
   16.95194435  119.69699860    0.92000002    2.86999989
   16.95499992  120.08200073    0.79000002    2.86999989
   16.95833397  119.78199768    0.76999998    2.86999989
   16.96166801  117.91600037    0.79000002    2.86999989
   16.96222305  116.94100189    0.79000002    2.86999989
   16.96805573  116.94100189    1.07000005    2.86999989
   16.97222328  119.33499908    1.58000004    2.86999989
   16.97527885  111.87599945    1.63000000    2.84999990
   16.97861099  113.06900024    1.75000000    2.86999989
   16.98166656  119.27100372    1.80999994    2.84999990
   16.98500061  114.90000153    1.80999994    2.84999990
   16.98833275  115.45500183    1.80999994    2.86999989
   16.99138832  117.56800079    1.75000000    2.84999990
   16.99472237  116.14900208    1.61000001    2.84999990
   16.99555588  121.03900146    1.61000001    2.84999990
   16.99833298  115.78099823    1.58000004    2.86999989
   17.00138855  116.44999695    1.63000000    2.86999989
   17.00472260  117.91999817    1.50000000    2.84999990
   17.01083374  117.91999817    1.38000000    2.84999990
   17.01499939  120.10399628    1.39999998    2.84999990
   17.01805496  113.46399689    1.55999994    2.86999989
   17.02138901  111.37300110    1.50000000    2.84999990
   17.02472115  116.33300018    1.44000006    2.86999989
   17.02777672  113.05699921    1.39999998    2.86999989
   17.02888870  117.79199982    1.39999998    2.86999989
   17.03166580  123.16400146    1.36000001    2.86999989
   17.03472137  119.73500061    1.33000004    2.86999989
   17.03805542  111.56999969    1.26999998    2.86999989
   17.04138756  113.96700287    1.26999998    2.86999989
   17.04444313  121.08499908    1.19000006    2.84999990
   17.04777718  112.75399780    1.05999994    2.86999989
   17.05360985  112.75399780    1.25000000    2.86999989
   17.05777740  114.15899658    1.34000003    2.84999990
   17.06110954  114.37400055    1.34000003    2.86999989
   17.06222153  114.41999817    1.34000003    2.86999989
   17.06472206  115.67900085    1.39999998    2.86999989
   17.06777954  117.47100067    1.39999998    2.86999989
   17.07111168  116.90200043    1.39999998    2.86999989
   17.07416725  114.60299683    1.46000004    2.84999990
   17.07750130  113.11399841    1.46000004    2.84999990
   17.08083344  122.51300049    1.39999998    2.84999990
   17.08388901  115.15100098    1.33000004    2.84999990
   17.08722305  120.84500122    1.36000001    2.84999990
   17.09055710  119.02400208    1.33000004    2.86999989
   17.09638977  119.02400208    1.28999996    2.86999989
   17.10055542  122.51300049    1.26999998    2.86999989
   17.10388947  124.56700134    1.33000004    2.86999989
   17.10694504  125.34899902    1.05999994    2.86999989
   17.11027908  120.17700195    1.05999994    2.86999989
   17.11361122  126.38200378    0.95999998    2.86999989
   17.11694527  128.69799805    1.11000001    2.86999989
   17.12000084  125.05200195    1.51999998    2.84999990
   17.12333298  124.62300110    1.39999998    2.84999990
   17.12666702  122.32299805    1.33000004    2.86999989
   17.12888908  121.07700348    1.33000004    2.86999989
   17.13027763  122.34799957    1.33000004    2.86999989
   17.13333321  116.35500336    1.33000004    2.86999989
   17.13944435  116.35500336    1.38000000    2.86999989
   17.14333344  112.96099854    1.36000001    2.84999990
   17.14666748  119.25900269    1.63000000    2.84999990
   17.14999962  107.50700378    1.73000002    2.84999990
   17.15305519  122.66600037    1.48000002    2.84999990
   17.15638924  123.00499725    1.69000006    2.86999989
   17.15972137  120.56199646    1.69000006    2.86999989
   17.16222191  121.42099762    1.66999996    2.84999990
   17.16333389  134.01699829    1.66999996    2.84999990
   17.16638756  151.79100037    1.60000002    2.84999990
   17.16972160  179.15400696    1.63000000    2.86999989
   17.17305565  166.93499756    1.63000000    2.86999989
   17.17611122  183.93800354    1.60000002    2.84999990
   17.18222237  183.93800354    1.25000000    2.84999990
   17.18638802  169.78300476    1.21000004    2.86999989
   17.18972206  160.50700378    1.01999998    2.86999989
   17.19305420  149.97799683    1.05999994    2.84999990
   17.19555473  148.91799927    1.05999994    2.84999990
   17.19666672  172.40600586    1.11000001    2.86999989
   17.19972038  137.61500549    1.11000001    2.86999989
   17.20305634  165.88499451    1.03999996    2.86999989
   17.20639038  131.68299866    1.30999994    2.86999989
   17.20944595  165.93800354    1.60000002    2.86999989
   17.21277809  145.58599854    1.60000002    2.86999989
   17.21611214  157.15800476    1.69000006    2.84999990
   17.21916771  163.57600403    1.88000000    2.84999990
   17.22500038  163.57600403    1.53999996    2.84999990
   17.22916794  127.62300110    1.44000006    2.84999990
   17.23250008  132.47500610    1.44000006    2.84999990
   17.23555565  151.05299377    1.23000002    2.84999990
   17.23888969  127.99700165    1.14999998    2.86999989
   17.24222183  130.22200012    1.14999998    2.86999989
   17.24527740  139.53199768    1.09000003    2.86999989
   17.24861145  120.51499939    1.21000004    2.84999990
   17.25194359  116.24800110    1.46000004    2.84999990
   17.25527763  118.87300110    1.55999994    2.86999989
   17.25833321  125.46700287    1.55999994    2.86999989
   17.26166725  115.49800110    1.58000004    2.84999990
   17.26222229  119.08399963    1.38000000    2.84999990
   17.26777840  119.08399963    1.36000001    2.86999989
   17.27194405  117.61799622    1.41999996    2.86999989
   17.27527809  114.15299988    1.33000004    2.86999989
   17.27861023  120.24700165    1.25000000    2.86999989
   17.29611015  115.48899841    0.92000002    2.86999989
   17.29861069  113.84200287    0.81999999    2.86999989
   17.30194283  111.65699768    0.67000002    2.86999989
   17.30527687  112.68099976    0.75000000    2.86999989
   17.31083298  112.68099976    0.76999998    2.86999989
   17.31499863  120.86100006    0.89999998    2.86999989
   17.31833458  117.52600098    0.95999998    2.84999990
   17.32139015  116.29499817    1.05999994    2.84999990
   17.32472229  113.28800201    1.05999994    2.84999990
   17.32805634  116.66600037    1.13000000    2.84999990
   17.32916832  114.99700165    1.13000000    2.84999990
   17.33139038  116.95099640    1.05999994    2.84999990
   17.33472252  122.51000214    1.13000000    2.84999990
   17.33777809  122.83899689    1.13000000    2.84999990
   17.34111214  113.83699799    0.95999998    2.86999989
   17.34444427  116.80599976    0.95999998    2.86999989
   17.34749985  118.85399628    0.95999998    2.84999990
   17.35361099  118.85399628    0.79000002    2.86999989
   17.35777855  119.41300201    0.76999998    2.86999989
   17.36111069  110.61399841    0.63000000    2.86999989
   17.36250114  116.32099915    0.63000000    2.86999989
   17.36472321  117.93599701    0.63000000    2.86999989
   17.36805534  118.77100372    0.63000000    2.86999989
   17.37111092  114.61699677    0.63000000    2.86999989
   17.37444496  113.72499847    0.67000002    2.86999989
   17.37777710  112.60299683    0.67000002    2.86999989
   17.38111115  119.24199677    0.69000000    2.86999989
   17.38416672  120.11900330    0.73000002    2.86999989
   17.38750076  112.37699890    0.81999999    2.86999989
   17.39083290  113.20700073    0.88000000    2.84999990
   17.39666748  113.20700073    0.94000000    2.84999990
   17.40083313  114.45200348    0.83999997    2.86999989
   17.40388870  109.32700348    1.11000001    2.84999990
   17.40722275  158.15499878    1.11000001    2.84999990
   17.41055489  111.93299866    1.07000005    2.86999989
   17.41361046  116.26699829    0.89999998    2.86999989
   17.41694450  113.00199890    0.98000002    2.84999990
   17.42000008  113.37699890    1.07000005    2.84999990
   17.42333221  114.66300201    0.94000000    2.86999989
   17.42666626  109.59400177    0.75000000    2.84999990
   17.42916679  114.08799744    0.75000000    2.84999990
   17.43000031  112.22000122    0.89999998    2.84999990
   17.43333244  119.39099884    0.89999998    2.84999990
   17.43944359  119.39099884    0.95999998    2.84999990
   17.44361115  114.29199982    0.89999998    2.84999990
   17.44666672  113.37000275    0.94000000    2.84999990
   17.45000076  106.81999969    1.11000001    2.86999989
   17.45333481  112.69100189    0.94000000    2.86999989
   17.45639038  116.05200195    0.95999998    2.84999990
   17.45972252  117.70899963    0.89999998    2.86999989
   17.46277809  116.28399658    0.79000002    2.86999989
   17.46333504  117.91100311    0.79000002    2.86999989
   17.46666718  116.72000122    0.79000002    2.86999989
   17.47000122  115.00499725    0.86000001    2.84999990
   17.47305679  115.79199982    0.83999997    2.84999990
   17.47638893  109.85399628    1.01999998    2.86999989
   17.48222351  109.85399628    0.95999998    2.86999989
   17.48638916  117.46099854    0.88000000    2.86999989
   17.48972321  114.57800293    0.88000000    2.84999990
   17.49277878  118.37400055    0.88000000    2.84999990
   17.49583435  122.33100128    0.98000002    2.84999990
   17.49638939  120.70700073    0.98000002    2.84999990
   17.49972153  110.80599976    1.16999996    2.84999990
   17.50277710  115.41500092    1.39999998    2.86999989
   17.50611115  119.86699677    1.26999998    2.84999990
   17.50944519  114.19200134    1.34000003    2.84999990
   17.51250076  122.67600250    1.33000004    2.84999990
   17.51583290  117.47100067    1.55999994    2.84999990
   17.51888847  121.65899658    1.55999994    2.84999990
   17.52499962  121.65899658    1.48000002    2.84999990
   17.52916718  113.18299866    1.44000006    2.84999990
   17.52972221  114.49800110    1.44000006    2.84999990
   17.53305435  114.27899933    1.39999998    2.84999990
   17.53610992  110.23600006    1.36000001    2.84999990
   17.53944397  112.41699982    1.36000001    2.84999990
   17.54249954  112.57700348    2.11999989    2.84999990
   17.54583359  111.85099792    2.25000000    2.84999990
   17.54916573  121.56400299    2.26999998    2.84999990
   17.55249977  115.52899933    2.46000004    2.82999992
   17.55555534  112.90000153    2.55999994    2.82999992
   17.55888748  114.57900238    2.36999989    2.84999990
   17.56194305  108.89800262    1.53999996    2.84999990
   17.56305504  103.06400299    1.55999994    2.84999990
   17.56805611  103.06400299    1.48000002    2.84999990
   17.57194519  115.76399994    1.60000002    2.84999990
   17.57527924  114.51699829    1.64999998    2.84999990
   17.57861137  116.73799896    2.28999996    2.84999990
   17.58166695  125.89499664    2.01999998    2.84999990
   17.58500099  115.28500366    3.45000005    2.82999992
   17.58833313  117.64499664    4.26000023    2.80999994
   17.59138870  118.39800262    3.72000003    2.82999992
   17.59472275  116.44899750    4.80000019    2.80999994
   17.59638977  118.25900269    4.90999985    2.80999994
   17.59833336  120.54599762    4.90999985    2.80999994
   17.60138893  117.46299744    4.90999985    2.80999994
   17.60472298  111.92099762    4.90999985    2.78999996
   17.61083412  111.92099762    4.90999985    2.76999998
   17.61499977  115.10700226    4.90999985    2.78999996
   17.61805534  111.50000000    4.90999985    2.78999996
   17.62138939  115.31700134    4.90999985    2.78999996
   17.62472153  116.90599823    4.90999985    2.78999996
   17.62777710  115.29000092    4.90999985    2.78999996
   17.62972260  114.46099854    4.90999985    2.78999996
   17.63166618  116.36499786    4.90999985    2.78999996
   17.63472176  117.79399872    4.90999985    2.80999994
   17.63805580  115.83499908    4.90999985    2.80999994
   17.64138794  116.37500000    4.90999985    2.80999994
   17.64444351  115.06900024    4.90999985    2.80999994
   17.64777756  114.51300049    4.90999985    2.80999994
   17.65361023  114.51300049    4.88999987    2.82999992
   17.65777779  113.06099701    4.44999981    2.80999994
   17.66110992  112.73000336    4.80000019    2.80999994
   17.66305542  116.00700378    4.90999985    2.80999994
   17.66472244  112.78199768    4.90999985    2.80999994
   17.66777802  112.37400055    4.53999996    2.80999994
   17.67111015  110.76000214    4.11999989    2.80999994
   17.67444420  105.65799713    4.63999987    2.80999994
   17.67749977  116.26999664    4.34999990    2.80999994
   17.68083191  112.63400269    4.09999990    2.80999994
   17.68388748  112.47499847    3.32999992    2.82999992
   17.68722153  114.01899719    2.76999998    2.84999990
   17.69055557  114.66400146    2.19000006    2.84999990
   17.69638824  114.66400146    2.19000006    2.84999990
   17.70055580  109.39499664    2.28999996    2.84999990
   17.70388985  112.72499847    1.55999994    2.84999990
   17.70694542  108.69599915    1.53999996    2.84999990
   17.71027946  112.50700378    1.39999998    2.84999990
   17.71361160  118.84799957    1.34000003    2.84999990
   17.71694565  116.63600159    1.44000006    2.84999990
   17.72000122  111.34300232    1.25000000    2.86999989
   17.72333336  113.45099640    1.26999998    2.84999990
   17.72638893  114.85199738    1.30999994    2.84999990
   17.72972298  112.81199646    1.38000000    2.86999989
   17.73027802  112.73200226    1.38000000    2.86999989
   17.73333359  114.65699768    1.11000001    2.84999990
   17.73944473  114.65699768    1.46000004    2.84999990
   17.74333382  115.14399719    1.69000006    2.84999990
   17.74666786  119.34200287    1.64999998    2.84999990
   17.75000000  117.77100372    1.53999996    2.84999990
   17.75305557  112.73300171    1.41999996    2.84999990
   17.75638962  111.85500336    0.98000002    2.84999990
   17.75944519  112.19899750    1.16999996    2.84999990
   17.76277733  111.89399719    1.16999996    2.84999990
   17.76333427  108.28700256    1.16999996    2.84999990
   17.76666641  110.91000366    1.38000000    2.84999990
   17.76972198  107.77700043    1.16999996    2.84999990
   17.77305603  115.89299774    1.53999996    2.84999990
   17.77611160  110.47799683    1.50000000    2.84999990
   17.78222275  110.47799683    1.80999994    2.84999990
   17.78638840  112.53700256    1.80999994    2.84999990
   17.78944397  114.39399719    1.78999996    2.84999990
   17.79277802  112.06800079    1.78999996    2.84999990
   17.79611015  117.86699677    1.28999996    2.84999990
   17.79666710  116.80799866    1.28999996    2.84999990
   17.79972076  116.60600281    1.38000000    2.84999990
   17.80277634  116.34899902    1.05999994    2.86999989
   17.80611038  111.36100006    3.50000000    2.82999992
   17.80944443  111.26200104    3.43000007    2.82999992
   17.81250000  113.62500000    3.82999992    2.82999992
   17.81583214  111.39399719    3.21000004    2.82999992
   17.81916809  115.17199707    2.03999996    2.84999990
   17.82500076  115.17199707    1.16999996    2.82999992
   17.82916832  114.68000031    1.34000003    2.82999992
   17.83000183  108.78199768    1.34000003    2.82999992
   17.83277893  112.70600128    1.94000006    2.80999994
   17.83583450  111.35399628    1.63000000    2.82999992
   17.83916664  110.39499664    1.14999998    2.84999990
   17.84222221  118.07299805    1.13000000    2.84999990
   17.84555626  113.88700104    1.63000000    2.84999990
   17.84889030  115.19300079    1.69000006    2.84999990
   17.85194397  112.14499664    1.89999998    2.84999990
   17.85527802  112.04900360    1.76999998    2.84999990
   17.85861206  116.03800201    1.69000006    2.84999990
   17.86166763  109.79000092    1.69000006    2.84999990
   17.86333466  111.76799774    1.69000006    2.84999990
   17.86777878  111.76799774    1.50000000    2.84999990
   17.87194443  118.44499969    2.05999994    2.84999990
   17.87527847  107.45400238    2.34999990    2.82999992
   17.87833405  113.05599976    1.48000002    2.84999990
   17.88166618  111.41400146    2.00000000    2.82999992
   17.88500023  112.34799957    2.25000000    2.82999992
   17.88833237  113.21800232    2.59999990    2.82999992
   17.89138794  117.16100311    3.53999996    2.82999992
   17.89472198  113.67600250    3.57999992    2.82999992
   17.89666748  112.59700012    4.01999998    2.80999994
   17.89833260  116.61599731    4.09999990    2.82999992
   17.90138817  109.53700256    4.05999994    2.80999994
   17.90472221  115.72200012    2.98000002    2.82999992
   17.91083336  115.72200012    2.26999998    2.82999992
   17.91472244  115.98799896    2.05999994    2.82999992
   17.91805458  116.25399780    1.96000004    2.82999992
   17.92138863  116.83100128    1.80999994    2.82999992
   17.92444420  112.20500183    1.66999996    2.82999992
   17.92777634  117.56500244    1.66999996    2.82999992
   17.93000031  115.16799927    1.39999998    2.84999990
   17.93138885  108.19300079    1.39999998    2.84999990
   17.93472099  110.01799774    1.39999998    2.84999990
   17.93777657  114.04199982    1.00000000    2.84999990
   17.94111061  109.01399994    1.01999998    2.84999990
   17.94444275  113.83599854    1.07000005    2.84999990
   17.94749832  112.39700317    1.07000005    2.84999990
   17.95361137  112.39700317    1.03999996    2.84999990
   17.95777893  113.42600250    0.89999998    2.84999990
   17.96083450  111.20200348    0.98000002    2.84999990
   17.96333504  118.86900330    1.05999994    2.84999990
   17.96472359  114.19100189    1.05999994    2.84999990
   17.96777916  119.58200073    1.07000005    2.84999990
   17.97111130  113.56300354    1.30999994    2.84999990
   17.97444534  117.69999695    1.39999998    2.84999990
   17.97750092  112.97599792    1.39999998    2.84999990
   17.98083305  111.28500366    1.34000003    2.84999990
   17.98388863  109.51200104    1.01999998    2.84999990
   17.98722267  113.71800232    1.01999998    2.84999990
   17.99055672  116.02700043    1.48000002    2.84999990
   17.99638939  116.02700043    1.21000004    2.84999990
   18.00055504  108.83599854    1.25000000    2.84999990
   18.00361061  111.49700165    1.44000006    2.82999992
   18.00694466  110.47200012    1.61000001    2.84999990
   18.01027870  113.85700226    1.58000004    2.84999990
   18.01333427  108.36699677    1.66999996    2.82999992
   18.01666641  115.47899628    2.28999996    2.82999992
   18.02000046  111.58799744    3.07999992    2.82999992
   18.02305603  111.48899841    3.43000007    2.80999994
   18.02638817  114.07599640    2.61999989    2.82999992
   18.02944374  107.96399689    2.23000002    2.82999992
   18.03138924  109.13700104    2.21000004    2.82999992
   18.03333282  105.88700104    1.80999994    2.82999992
   18.03916550  105.88700104    1.39999998    2.82999992
   18.04333305  109.37100220    1.09000003    2.84999990
   18.04666710  110.46499634    1.13000000    2.84999990
   18.04999924  107.44100189    2.13000011    2.82999992
   18.05305481  112.92700195    2.32999992    2.82999992
   18.05638885  109.61399841    2.09999990    2.82999992
   18.05972099  112.63800049    2.03999996    2.82999992
   18.06277657  115.39299774    2.09999990    2.82999992
   18.06472206  111.67099762    2.21000004    2.82999992
   18.06666756  109.34899902    2.13000011    2.82999992
   18.06972313  107.49500275    2.13000011    2.82999992
   18.07305717  108.37400055    1.63000000    2.82999992
   18.07638931  107.91600037    1.55999994    2.84999990
   18.08194542  107.91600037    0.81999999    2.84999990
   18.08611107  110.39800262    1.09000003    2.84999990
   18.08944511  114.38999939    1.09000003    2.84999990
   18.09277916  112.22000122    1.11000001    2.84999990
   18.09583473  113.06999969    1.23000002    2.82999992
   18.09833336  114.87500000    1.09000003    2.84999990
   18.09944534  112.93699646    1.09000003    2.84999990
   18.10277748  111.37200165    1.13000000    2.84999990
   18.10611153  113.51100159    1.13000000    2.84999990
   18.10916710  120.26499939    1.07000005    2.84999990
   18.11250114  112.82199860    1.00000000    2.82999992
   18.11583328  113.64499664    0.88000000    2.84999990
   18.11888885  110.89399719    0.88000000    2.84999990
   18.12500000  110.89399719    0.73000002    2.84999990
   18.12916756  109.05200195    0.56999999    2.84999990
   18.13166618  110.44999695    0.56999999    2.84999990
   18.13249969  111.28800201    0.51999998    2.84999990
   18.13583374  108.57399750    0.51999998    2.84999990
   18.13916588  108.73400116    0.69000000    2.84999990
   18.14222145  111.48000336    0.79000002    2.84999990
   18.14555550  106.77500153    0.79000002    2.84999990
   18.14888954  110.76599884    0.79000002    2.84999990
   18.15194321  113.38099670    1.05999994    2.84999990
   18.15527725  110.35399628    1.36000001    2.82999992
   18.15833282  115.78500366    1.36000001    2.82999992
   18.16166687  110.66699982    1.76999998    2.82999992
   18.16777802  110.66699982    1.83000004    2.82999992
   18.17194366  108.04599762    2.94000006    2.82999992
   18.17527771  109.22799683    3.28999996    2.80999994
   18.17833328  108.96499634    3.70000005    2.80999994
   18.18166542  108.06400299    4.82999992    2.78999996
   18.18472099  114.65299988    4.90999985    2.76999998
   18.18805504  107.60399628    4.90999985    2.73000002
   18.19138718  126.02200317    4.90999985    2.75000000
   18.19444275  115.99900055    4.90999985    2.78999996
   18.19777679  114.22399902    4.63999987    2.78999996
   18.19861031  114.30999756    4.82999992    2.80999994
   18.20138931  108.13500214    4.26000023    2.80999994
   18.20444489  118.88400269    2.80999994    2.82999992
   18.21055603  118.88400269    3.50000000    2.80999994
   18.21472359  118.72000122    4.30999994    2.80999994
   18.21805573  111.25399780    3.99000001    2.80999994
   18.22138977  113.66999817    4.23999977    2.80999994
   18.22444534  113.03199768    3.73000002    2.80999994
   18.22777748  112.83699799    3.07999992    2.80999994
   18.23083305  156.02999878    3.30999994    2.80999994
   18.23194504  110.72699738    3.39000010    2.80999994
   18.23444557  110.91899872    3.41000009    2.80999994
   18.23777771  114.80599976    2.42000008    2.80999994
   18.24083328  112.10500336    3.16000009    2.82999992
   18.24416733  109.60299683    4.34999990    2.80999994
   18.24722290  119.55500031    4.90999985    2.78999996
   18.25361061  119.55500031    4.36999989    2.78999996
   18.25749969  118.03199768    3.01999998    2.80999994
   18.26083374  109.88899994    4.32999992    2.80999994
   18.26416588  121.65899658    2.89000010    2.80999994
   18.26555634  114.69899750    2.48000002    2.82999992
   18.26777840  117.36199951    3.73000002    2.80999994
   18.27083397  117.99800110    3.43000007    2.80999994
   18.27416611  109.99199677    4.90999985    2.78999996
   18.27750015  116.40200043    4.59999990    2.78999996
   18.28055573  114.19799805    4.51000023    2.80999994
   18.28388786  111.91799927    4.90999985    2.78999996
   18.28694344  120.83999634    4.90999985    2.76999998
   18.29027748  119.45899963    4.90999985    2.78999996
   18.29638863  119.45899963    3.43000007    2.80999994
   18.31472206  110.11900330    2.26999998    2.80999994
   18.31805611  114.51000214    3.97000003    2.80999994
   18.32111168  115.97299957    3.76999998    2.80999994
   18.32444572  113.85399628    2.93000007    2.82999992
   18.32750130  112.48899841    2.21000004    2.82999992
   18.33083344  112.33300018    2.09999990    2.82999992
   18.33416748  114.74299622    1.91999996    2.80999994
   18.33944511  114.74299622    1.96000004    2.80999994
   18.34361267  109.33799744    3.00000000    2.78999996
   18.34666824  113.75700378    3.30999994    2.78999996
   18.34777832  109.48300171    3.48000002    2.78999996
   18.35027885  118.89399719    2.80999994    2.80999994
   18.35361099  108.43099976    2.71000004    2.82999992
   18.35694504  120.41999817    2.50000000    2.80999994
   18.36000061  114.37400055    2.50000000    2.80999994
   18.36333466  111.37200165    2.39000010    2.80999994
   18.36666679  116.19899750    2.13000011    2.80999994
   18.36972237  118.57700348    2.28999996    2.80999994
   18.37305641  113.43099976    2.44000006    2.80999994
   18.37611198  114.18000031    2.42000008    2.80999994
   18.38222313  114.18000031    1.96000004    2.80999994
   18.38638878  105.73500061    1.98000002    2.80999994
   18.38972282  106.87300110    1.75000000    2.82999992
   18.39277840  109.00399780    1.66999996    2.80999994
   18.39611053  105.23799896    1.61000001    2.82999992
   18.39944458  110.61399841    1.55999994    2.82999992
   18.40250015  109.26699829    1.55999994    2.82999992
   18.40583229  112.14800262    1.16999996    2.82999992
   18.40916634  114.18499756    1.14999998    2.82999992
   18.41222191  105.06099701    1.05999994    2.82999992
   18.41444397  110.89199829    1.05999994    2.82999992
   18.41611099  118.23699951    0.70999998    2.82999992
   18.41916656  118.72599792    0.83999997    2.82999992
   18.42499924  118.72599792    1.55999994    2.82999992
   18.42916679  116.04499817    1.19000006    2.82999992
   18.43249893  111.68199921    0.89999998    2.82999992
   18.43555450  121.95300293    1.13000000    2.82999992
   18.43888855  117.11599731    1.48000002    2.82999992
   18.44222069  111.36599731    1.83000004    2.82999992
   18.44527626  112.85299683    1.83000004    2.82999992
   18.44777679  115.90499878    1.61000001    2.80999994
   18.44916534  120.00700378    1.61000001    2.80999994
   18.45222282  114.39800262    1.28999996    2.80999994
   18.45555687  119.34799957    1.60000002    2.80999994
   18.45861244  123.50099945    3.32999992    2.78999996
   18.46194458  116.59799957    3.34999990    2.80999994
   18.46805573  116.59799957    2.55999994    2.80999994
   18.47194481  121.52700043    3.07999992    2.80999994
   18.47527885  125.83699799    2.59999990    2.80999994
   18.47861099  122.68499756    2.53999996    2.80999994
   18.48111153  114.73000336    1.91999996    2.82999992
   18.48222351  115.94400024    1.75000000    2.82999992
   18.48527718  113.32700348    1.64999998    2.80999994
   18.48861122  109.84899902    1.51999998    2.80999994
   18.49194527  111.17700195    2.05999994    2.80999994
   18.49500084  111.16999817    2.01999998    2.78999996
   18.49833298  120.22000122    1.91999996    2.80999994
   18.50166702  114.33000183    2.46000004    2.80999994
   18.50472260  113.36699677    2.59999990    2.80999994
   18.51083374  113.36699677    2.46000004    2.80999994
   18.51499939  124.15399933    2.51999998    2.80999994
   18.51805496  116.87999725    3.20000005    2.78999996
   18.52138901  115.65599823    3.45000005    2.80999994
   18.52472115  122.12599945    4.90999985    2.76999998
   18.52777672  114.47100067    4.90999985    2.78999996
   18.53111076  113.53299713    4.90999985    2.76999998
   18.53416634  115.27700043    4.90999985    2.76999998
   18.53750038  110.83399963    4.90999985    2.75000000
   18.54083252  115.37300110    4.90999985    2.75000000
   18.54388809  117.41799927    4.90999985    2.76999998
   18.54722214  108.24700165    4.36999989    2.78999996
   18.54777718  116.07399750    4.36999989    2.78999996
   18.55360985  116.07399750    4.01999998    2.78999996
   18.55777740  110.93699646    3.82999992    2.78999996
   18.56083298  111.95500183    3.20000005    2.78999996
   18.56416512  109.64499664    2.73000002    2.80999994
   18.56750107  112.11599731    2.59999990    2.80999994
   18.57055664  108.84400177    3.05999994    2.80999994
   18.57389069  111.46399689    3.00000000    2.80999994
   18.57722282  106.93599701    2.80999994    2.78999996
   18.58027840  109.86699677    2.59999990    2.80999994
   18.58111191  109.00299835    2.76999998    2.80999994
   18.58416748  114.12699890    2.75000000    2.80999994
   18.58722305  108.81099701    2.86999989    2.80999994
   18.59055710  111.31199646    3.16000009    2.78999996
   18.59638977  111.31199646    2.32999992    2.80999994
   18.60055542  114.73100281    2.46000004    2.80999994
   18.60388947  118.63899994    3.03999996    2.80999994
   18.60694504  111.55000305    2.82999992    2.80999994
   18.61027908  108.90699768    2.78999996    2.80999994
   18.61361122  115.84300232    2.71000004    2.78999996
   18.61444473  113.13200378    2.75000000    2.80999994
   18.61722183  114.09100342    2.71000004    2.80999994
   18.62027740  116.61799622    2.21000004    2.80999994
   18.62361145  109.63300323    1.91999996    2.82999992
   18.62666702  112.80300140    1.41999996    2.80999994
   18.63000107  115.25000000    1.75000000    2.78999996
   18.63333321  108.09899902    1.83000004    2.78999996
   18.63916588  108.09899902    1.98000002    2.80999994
   18.64333344  105.45899963    2.03999996    2.80999994
   18.64666748  106.49199677    1.88000000    2.80999994
   18.64777756  108.06099701    1.86000001    2.80999994
   18.65027809  111.27200317    1.86000001    2.80999994
   18.65333366  110.43299866    1.34000003    2.80999994
   18.65666580  113.69200134    1.38000000    2.80999994
   18.65972137  111.19899750    1.48000002    2.80999994
   18.66305542  109.86599731    1.41999996    2.80999994
   18.66638756  112.15200043    1.38000000    2.82999992
   18.66944313  110.81300354    1.38000000    2.82999992
   18.67277718  108.01399994    1.28999996    2.80999994
   18.67611122  114.83100128    1.48000002    2.80999994
   18.68222237  114.83100128    1.26999998    2.80999994
   18.68638802  113.63200378    1.26999998    2.80999994
   18.68944359  109.63500214    0.95999998    2.82999992
   18.69277763  104.30799866    0.95999998    2.80999994
   18.69610977  106.76499939    1.11000001    2.82999992
   18.69916534  108.13300323    1.28999996    2.82999992
   18.70250130  108.33200073    0.73000002    2.82999992
   18.70555687  109.56199646    0.73000002    2.82999992
   18.70888901  112.07199860    0.86000001    2.82999992
   18.71222305  110.01499939    0.83999997    2.80999994
   18.71444511  111.71399689    1.03999996    2.82999992
   18.71583366  112.89399719    2.23000002    2.80999994
   18.71888924  111.90299988    2.11999989    2.78999996
   18.72500038  111.90299988    1.73000002    2.80999994
   18.72916794  113.38300323    1.58000004    2.80999994
   18.73222351  112.62699890    1.80999994    2.80999994
   18.73555565  111.15899658    1.96000004    2.80999994
   18.73888969  110.32700348    1.86000001    2.80999994
   18.74222183  109.06300354    2.36999989    2.78999996
   18.74555588  112.28500366    2.26999998    2.78999996
   18.74777794  112.81700134    2.32999992    2.78999996
   18.74916649  109.92700195    1.98000002    2.80999994
   18.75222206  113.42700195    2.00000000    2.80999994
   18.75555611  109.52100372    1.88000000    2.80999994
   18.75888824  111.00299835    2.07999992    2.80999994
   18.76194382  115.30100250    2.32999992    2.80999994
   18.76777840  115.30100250    3.18000007    2.78999996
   18.77194405  112.12799835    2.32999992    2.80999994
   18.77527809  116.44899750    3.32999992    2.78999996
   18.77833366  117.70200348    4.44999981    2.78999996
   18.78111076  114.80799866    4.90999985    2.76999998
   18.78222275  116.57499695    4.90999985    2.75000000
   18.78527641  109.84500122    4.90999985    2.75000000
   18.78861046  108.40399933    4.90999985    2.75000000
   18.79166603  110.56099701    4.90999985    2.75000000
   18.79500008  111.06400299    4.90999985    2.75000000
   18.79833221  106.85299683    4.90999985    2.75000000
   18.80138779  117.05999756    4.90999985    2.75000000
   18.80472183  107.54399872    4.90999985    2.76999998
   18.81055450  107.54399872    4.11999989    2.78999996
   18.81472206  107.62599945    3.34999990    2.78999996
   18.81805611  109.87899780    2.93000007    2.78999996
   18.82139015  111.16999817    2.59999990    2.78999996
   18.82444572  114.04299927    2.39000010    2.80999994
   18.82777786  112.59899902    2.86999989    2.78999996
   18.83083344  112.54399872    3.26999998    2.78999996
   18.83416748  116.41600037    3.26999998    2.78999996
   18.83750153  113.00099945    4.36999989    2.78999996
   18.84055710  113.90100098    4.90999985    2.76999998
   18.84388924  114.21199799    4.90999985    2.76999998
   18.84722328  117.49299622    4.90999985    2.76999998
   18.84777832  117.03199768    4.71999979    2.76999998
   18.85361099  117.03199768    4.57999992    2.76999998
   18.85777855  111.23400116    4.40999985    2.76999998
   18.86083412  115.11199951    4.59999990    2.76999998
   18.86416626  107.66799927    3.82999992    2.78999996
   18.86722183  113.93399811    3.45000005    2.78999996
   18.87055588  115.11799622    2.80999994    2.80999994
   18.87388992  102.27899933    1.71000004    2.82999992
   18.87694550  106.43399811    1.13000000    2.80999994
   18.88027763  107.47299957    1.38000000    2.80999994
   18.88111115  101.42400360    1.44000006    2.78999996
   18.88388824  107.10299683    1.33000004    2.78999996
   18.88694382  109.80999756    1.46000004    2.78999996
   18.89027786  110.42600250    1.83000004    2.78999996
   18.89638901  110.42600250    2.21000004    2.78999996
   18.90055466  114.98600006    1.98000002    2.80999994
   18.90361023  112.56900024    1.89999998    2.80999994
   18.90694427  110.43199921    1.38000000    2.80999994
   18.91027832  111.02700043    1.28999996    2.80999994
   18.91333389  114.09500122    1.39999998    2.80999994
   18.91444397  109.68499756    1.39999998    2.80999994
   18.91722107  113.91200256    1.23000002    2.80999994
   18.92027664  106.04299927    1.21000004    2.80999994
   18.92361069  120.10099792    1.34000003    2.80999994
   18.92694473  108.07399750    1.30999994    2.80999994
   18.93000031  108.78099823    1.33000004    2.80999994
   18.93333244  101.58499908    1.33000004    2.80999994
   18.93916512  101.58499908    1.44000006    2.78999996
   18.94333267  106.87999725    2.05999994    2.78999996
   18.94666672  105.38300323    2.01999998    2.80999994
   18.94777679  110.62100220    2.01999998    2.78999996
   18.95027924  107.34400177    1.96000004    2.78999996
   18.95361137  104.11799622    2.39000010    2.78999996
   18.95666695  110.32399750    2.03999996    2.78999996
   18.96000099  106.90200043    2.05999994    2.78999996
   18.96305656  113.28500366    2.05999994    2.78999996
   18.96638870  111.96399689    2.01999998    2.78999996
   18.96972275  109.27400208    1.88000000    2.78999996
   18.97277832  111.91899872    1.71000004    2.78999996
   18.97611237  115.04900360    2.19000006    2.78999996
   18.98194504  115.04900360    2.26999998    2.78999996
   18.98611069  109.70099640    2.09999990    2.78999996
   18.98944473  112.86100006    1.96000004    2.78999996
   18.99277878  112.33699799    1.96000004    2.78999996
   18.99583435  112.01899719    1.96000004    2.78999996
   18.99916649  113.52700043    1.44000006    2.80999994
   19.00222206  113.61399841    1.34000003    2.78999996
   19.00555611  113.15599823    1.71000004    2.78999996
   19.00888824  106.99700165    2.09999990    2.78999996
   19.01194382  104.40200043    2.28999996    2.78999996
   19.01444435  105.31300354    2.39000010    2.78999996
   19.01583290  106.84899902    2.30999994    2.78999996
   19.01888847  109.29000092    2.50000000    2.78999996
   19.02499962  109.29000092    2.07999992    2.78999996
   19.02916718  108.79599762    2.07999992    2.78999996
   19.03222275  108.88600159    2.13000011    2.78999996
   19.03555489  110.23899841    2.23000002    2.78999996
   19.03861046  121.51799774    2.42000008    2.78999996
   19.04194450  105.43299866    2.25000000    2.80999994
   19.04527664  109.94599915    2.11999989    2.78999996
   19.04777718  107.86799622    2.15000010    2.78999996
   19.04888916  105.24500275    2.03999996    2.78999996
   19.05194283  110.53500366    1.88000000    2.78999996
   19.05527687  106.11799622    1.86000001    2.78999996
   19.05861092  102.44100189    2.15000010    2.78999996
   19.06166649  109.23400116    2.13000011    2.78999996
   19.06777954  109.23400116    2.46000004    2.76999998
   19.07194519  109.92600250    2.57999992    2.78999996
   19.07500076  111.03299713    2.98000002    2.76999998
   19.07833481  102.58399963    3.82999992    2.76999998
   19.08111191  105.02300262    4.01999998    2.76999998
   19.08194542  109.69999695    4.01999998    2.76999998
   19.08500099  109.62300110    4.73999977    2.75000000
   19.08833313   98.04779816    4.30999994    2.76999998
   19.09166718  111.30000305    3.46000004    2.76999998
   19.09472275  110.50900269    4.00000000    2.76999998
   19.09805679  101.42600250    4.90999985    2.73000002
   19.10111237  109.09899902    4.76000023    2.75000000
   19.10444450  107.27400208    4.00000000    2.76999998
   19.11055565  107.27400208    3.14000010    2.76999998
   19.11472321  107.79699707    2.94000006    2.78999996
   19.11805534  104.55500031    3.82999992    2.76999998
   19.12111092  110.54900360    3.72000003    2.76999998
   19.12444496  109.69699860    4.13999987    2.76999998
   19.12777710  115.22499847    3.66000009    2.76999998
   19.13083267  115.98200226    3.51999998    2.76999998
   19.13416672  107.73400116    3.25000000    2.76999998
   19.13722229  108.12000275    3.14000010    2.76999998
   19.14055634  105.90499878    4.00000000    2.76999998
   19.14388847  114.07499695    3.84999990    2.76999998
   19.14694405  112.04199982    2.96000004    2.78999996
   19.14777756  108.80500031    2.64000010    2.78999996
   19.15333366  108.80500031    2.13000011    2.78999996
   19.15749931  106.23999786    1.91999996    2.78999996
   19.16083336  107.14900208    1.55999994    2.76999998
   19.16416550  107.05100250    1.88000000    2.76999998
   19.16722107  109.27300262    2.05999994    2.76999998
   19.17055511  109.98200226    1.58000004    2.78999996
   19.17388916  109.67500305    1.33000004    2.78999996
   19.17694473  110.14399719    1.34000003    2.78999996
   19.18027687  112.73300171    1.25000000    2.78999996
   19.18111038  111.03199768    1.25000000    2.78999996
   19.18388748  110.11299896    1.34000003    2.80999994
   19.18694305  103.12799835    1.25000000    2.78999996
   19.19027710  108.47899628    1.50000000    2.78999996
   19.19638824  108.47899628    1.66999996    2.78999996
   19.20055580  105.96299744    1.60000002    2.78999996
   19.20361137  107.08300018    1.88000000    2.78999996
   19.20694542  106.09200287    1.88000000    2.78999996
   19.21000099  106.19000244    1.76999998    2.78999996
   19.21333504  108.16400146    1.71000004    2.78999996
   19.21444511  104.33499908    1.71000004    2.78999996
   19.21694565  110.88300323    1.88000000    2.76999998
   19.22000122  103.18099976    1.39999998    2.78999996
   19.22333336  104.62300110    1.61000001    2.78999996
   19.22666740  109.63300323    1.91999996    2.76999998
   19.22972298  106.12999725    2.28999996    2.76999998
   19.23305511  105.70099640    3.36999989    2.76999998
   19.23916626  105.70099640    3.64000010    2.75000000
   19.24333382  113.59300232    2.75000000    2.76999998
   19.24638939  108.42099762    2.40000010    2.78999996
   19.24777794  104.06199646    2.32999992    2.78999996
   19.25027847  114.51899719    2.64000010    2.76999998
   19.25333405  108.29299927    3.00000000    2.76999998
   19.25666618  105.35700226    2.89000010    2.75000000
   19.26000023  108.88600159    2.61999989    2.75000000
   19.26305580  110.52100372    2.23000002    2.76999998
   19.26638794  108.93000031    2.55999994    2.76999998
   19.26972198  105.55599976    2.59999990    2.76999998
   19.27277756  106.64299774    2.53999996    2.76999998
   19.27611160  110.76499939    2.93000007    2.76999998
   19.28194427  110.76499939    2.64000010    2.76999998
   19.28610992  107.66899872    2.51999998    2.76999998
   19.28944397  108.09999847    1.89999998    2.76999998
   19.29249954  110.92400360    1.98000002    2.76999998
   19.29583359  108.93099976    3.16000009    2.75000000
   19.29916573  107.49800110    4.90999985    2.73000002
   19.30222130  112.60800171    4.90999985    2.73000002
   19.30555534  110.70800018    4.90999985    2.73000002
   19.30861092  108.97799683    4.90999985    2.73000002
   19.31194305  111.96900177    3.59999990    2.75000000
   19.31444359  106.69499969    3.59999990    2.75000000
   19.33500099  106.69499969    2.05999994    2.76999998
   19.33916664  108.95999908    2.00000000    2.75000000
   19.34250069  109.84200287    2.11999989    2.76999998
   19.34583473  114.78199768    3.46000004    2.75000000
   19.34777832  108.28099823    3.28999996    2.75000000
   19.34944534  107.54199982    3.72000003    2.75000000
   19.35277748  108.45700073    3.61999989    2.75000000
   19.35583305  109.97000122    3.14000010    2.75000000
   19.35916710  110.49500275    3.97000003    2.75000000
   19.36250114  109.90000153    4.19999981    2.75000000
   19.36555672  107.31600189    3.55999994    2.75000000
   19.36888885  103.38899994    2.01999998    2.76999998
   19.37222290  104.38500214    1.58000004    2.76999998
   19.37777710  104.38500214    1.61000001    2.76999998
   19.38194466  109.46900177    1.78999996    2.76999998
   19.38527679  113.29699707    2.42000008    2.75000000
   19.38833237  107.82700348    2.46000004    2.76999998
   19.39166641  113.56099701    2.21000004    2.75000000
   19.39500046  106.61599731    2.86999989    2.75000000
   19.39805603  112.60600281    2.59999990    2.75000000
   19.40138817  109.52799988    2.17000008    2.75000000
   19.40472221  113.76000214    3.50000000    2.75000000
   19.40777779  105.73300171    3.78999996    2.75000000
   19.41110992  103.55599976    3.32999992    2.75000000
   19.41416550  109.02300262    3.34999990    2.73000002
   19.41472244  109.62599945    3.51999998    2.75000000
   19.42083359  109.62599945    4.86999989    2.73000002
   19.42472076  116.56900024    4.90999985    2.69000006
   19.42805481  110.33200073    4.90999985    2.69000006
   19.43138885  111.73999786    4.90999985    2.69000006
   19.43444443  110.59700012    4.90999985    2.69000006
   19.43777657  108.06300354    4.90999985    2.69000006
   19.44111061  104.75700378    4.90999985    2.69000006
   19.44416618  109.12000275    4.90999985    2.67000008
   19.44749832  110.78600311    4.90999985    2.69000006
   19.44805527  111.17299652    4.90999985    2.69000006
   19.45111275  114.11100006    4.90999985    2.66000009
   19.45444489  115.48699951    4.90999985    2.67000008
   19.45750046  114.37200165    4.90999985    2.66000009
   19.46361160  114.37200165    4.90999985    2.66000009
   19.46777916  112.72599792    4.90999985    2.69000006
   19.47083473  113.75499725    4.90999985    2.73000002
   19.47416687  109.59799957    4.90999985    2.73000002
   19.47750092  107.33899689    4.90999985    2.71000004
   19.48055649  112.43900299    4.90999985    2.73000002
   19.48139000  116.50499725    4.90999985    2.71000004
   19.48416710  108.04799652    4.90999985    2.71000004
   19.48722267  112.52600098    4.90999985    2.69000006
   19.49055672  109.37899780    4.90999985    2.69000006
   19.49388885  111.05200195    4.90999985    2.69000006
   19.49694443  112.38400269    4.90999985    2.71000004
   19.50027847  111.77400208    4.46999979    2.73000002
   19.50638962  111.77400208    3.99000001    2.75000000
   19.51055527  103.84600067    3.57999992    2.75000000
   19.51388931  102.40299988    3.93000007    2.75000000
   19.51472282  110.01200104    3.72000003    2.73000002
   19.51749992  108.24400330    3.70000005    2.73000002
   19.52083397  110.41200256    4.13999987    2.73000002
   19.52388954  112.35099792    4.19999981    2.73000002
   19.52722168  112.67099762    3.86999989    2.73000002
   19.53027725  114.48500061    4.11999989    2.71000004
   19.53361130  111.03199768    3.18000007    2.75000000
   19.53694344  113.60800171    2.51999998    2.75000000
   19.53999901  112.85600281    2.13000011    2.75000000
   19.54333305  105.58399963    1.69000006    2.75000000
   19.54916573  105.58399963    1.61000001    2.73000002
   19.55333328  105.67900085    1.46000004    2.73000002
   19.55666542  105.53700256    1.41999996    2.75000000
   19.55972099  107.81800079    1.44000006    2.75000000
   19.56305504  109.30699921    1.55999994    2.75000000
   19.56638718  109.22299957    1.69000006    2.75000000
   19.56944466  104.87300110    2.09999990    2.75000000
   19.57277870  104.22299957    2.26999998    2.75000000
   19.57611275  100.71499634    2.03999996    2.75000000
   19.57916832  106.26799774    2.13000011    2.75000000
   19.58139038  109.61299896    2.66000009    2.73000002
   19.58277893  109.97799683    3.07999992    2.73000002
   19.58611107  109.90599823    2.61999989    2.73000002
   19.59222221  109.90599823    1.94000006    2.75000000
   19.59611130  113.75800323    1.71000004    2.73000002
   19.59944534  113.87500000    1.53999996    2.73000002
   19.60277748  106.19999695    1.71000004    2.73000002
   19.60583305  105.31500244    1.71000004    2.75000000
   19.60916710  109.59500122    1.73000002    2.73000002
   19.61250114  111.32900238    2.32999992    2.75000000
   19.61472321  108.91600037    3.23000002    2.73000002
   19.61611176  105.98300171    3.80999994    2.71000004
   19.61944389  114.05200195    3.53999996    2.73000002
   19.62249947  110.43399811    3.39000010    2.73000002
   19.62583351  114.10199738    3.43000007    2.73000002
   19.62916756  108.90899658    3.53999996    2.73000002
   19.63500023  108.90899658    4.90999985    2.71000004
   19.63916588  112.91400146    4.90999985    2.69000006
   19.64222145  112.61799622    4.90999985    2.67000008
   19.64555550  110.50800323    4.90999985    2.67000008
   19.64805603  108.19200134    4.90999985    2.67000008
   19.64916611  116.72100067    4.90999985    2.67000008
   19.65250015  114.86399841    4.90999985    2.67000008
   19.65555573  117.09400177    4.90999985    2.69000006
   19.65888786  102.01100159    4.90999985    2.69000006
   19.66194344  104.58200073    4.90999985    2.69000006
   19.66527748  111.61799622    4.90999985    2.69000006
   19.66860962  106.63500214    4.90999985    2.71000004
   19.67166519  113.64199829    4.90999985    2.67000008
   19.67777634  113.64199829    4.90999985    2.66000009
   19.68194389  113.87899780    4.90999985    2.67000008
   19.68527603  115.64099884    4.90999985    2.69000006
   19.68833160  112.66200256    4.90999985    2.67000008
   19.69166565  117.66899872    4.90999985    2.67000008
   19.69472122  115.89299774    4.90999985    2.69000006
   19.69805527  112.09700012    4.90999985    2.69000006
   19.70138931  107.46399689    4.90999985    2.69000006
   19.70444489  106.57399750    4.90999985    2.69000006
   19.70777893  108.17600250    4.90999985    2.71000004
   19.71111107  102.31199646    4.90999985    2.71000004
   19.71416664  104.93699646    4.90999985    2.71000004
   19.71472359  101.70800018    4.90999985    2.71000004
   19.72055626  101.70800018    4.90999985    2.69000006
   19.72472191   99.62280273    4.90999985    2.71000004
   19.72805595  108.33499908    4.90999985    2.69000006
   19.73111153  105.67400360    4.90999985    2.71000004
   19.73444557  105.26999664    4.90999985    2.71000004
   19.73777771  109.51100159    4.90999985    2.69000006
   19.74083328  106.20999908    4.90999985    2.71000004
   19.74416733  106.58599854    4.80000019    2.71000004
   19.74749947  104.19100189    4.90999985    2.71000004
   19.74805641  101.91300201    4.90999985    2.71000004
   19.75083351  106.51499939    4.36999989    2.71000004
   19.75416756  131.61199951    4.42999983    2.71000004
   19.75722313  126.69999695    4.90999985    2.71000004
   19.76361084  126.69999695    4.90999985    2.66000009
   19.76749992  124.47299957    4.90999985    2.64000010
   19.77083397  124.34700012    4.90999985    2.66000009
   19.77416611  104.78700256    4.90999985    2.67000008
   19.77722168   99.13849640    4.90999985    2.69000006
   19.78055573  102.58899689    4.90999985    2.69000006
   19.78138924  106.68099976    4.90999985    2.69000006
   19.78416634  105.09300232    4.90999985    2.69000006
   19.78750038  102.86900330    4.90999985    2.69000006
   19.79055595  124.21099854    4.61999989    2.71000004
   19.79388809  109.01599884    4.76000023    2.69000006
   19.79722214  108.38700104    4.67999983    2.69000006
   19.80027771  136.24699402    4.11999989    2.71000004
   19.80638885  136.24699402    2.84999990    2.71000004
   19.81055450  100.00399780    2.34999990    2.71000004
   19.81361008  126.52799988    2.46000004    2.71000004
   19.81472206  107.79100037    2.39000010    2.73000002
   19.81722260   99.78880310    2.61999989    2.71000004
   19.82055664  129.15400696    2.64000010    2.71000004
   19.82361221  105.00099945    2.40000010    2.71000004
   19.82694626  100.84899902    2.40000010    2.71000004
   19.83027840  109.33799744    2.13000011    2.73000002
   19.83333397  105.79699707    3.01999998    2.71000004
   19.83666801  114.81300354    3.95000005    2.71000004
   19.83972359  101.75299835    4.28999996    2.71000004
   19.84305573   99.58409882    2.84999990    2.71000004
   19.84916687   99.58409882    2.59999990    2.71000004
   19.85333443  105.27799988    2.50000000    2.71000004
   19.85666656  109.95500183    2.73000002    2.73000002
   19.85972214  105.81500244    2.23000002    2.73000002
   19.86305618  103.58100128    2.07999992    2.73000002
   19.86611176  107.21700287    1.50000000    2.73000002
   19.86944389  106.89499664    1.71000004    2.73000002
   19.87277794  106.41100311    1.69000006    2.73000002
   19.87583351  137.58500671    1.55999994    2.73000002
   19.87916756  105.98999786    1.41999996    2.73000002
   19.88138962  100.34600067    1.36000001    2.73000002
   19.88277817  102.18000031    1.41999996    2.73000002
   19.88611031  105.35500336    1.41999996    2.73000002
   19.89194489  105.35500336    1.28999996    2.73000002
   19.89611053  113.09100342    1.34000003    2.73000002
   19.89944458  106.00499725    1.16999996    2.73000002
   19.90250015  103.51100159    2.32999992    2.71000004
   19.90583229  103.79799652    2.67000008    2.71000004
   19.90916634  108.29399872    2.57999992    2.71000004
   19.91222191  104.38899994    2.55999994    2.71000004
   19.91472244  144.83799744    1.85000002    2.71000004
   19.91583252  133.76499939    2.05999994    2.73000002
   19.91916656  105.17400360    2.19000006    2.71000004
   19.92222214  103.61799622    2.93000007    2.69000006
   19.92555428  101.59100342    3.07999992    2.69000006
   19.92888832  102.04799652    3.21000004    2.69000006
   19.93499947  102.04799652    3.20000005    2.71000004
   19.93888855  104.45099640    3.05999994    2.71000004
   19.94222069  102.79399872    2.25000000    2.71000004
   19.94555473  107.09400177    2.50000000    2.71000004
   19.94805527  105.32499695    2.48000002    2.71000004
   19.94916534  108.49199677    2.48000002    2.71000004
   19.95250130  104.51499939    2.36999989    2.71000004
   19.95555687  106.17400360    2.00000000    2.71000004
   19.95888901  107.55200195    2.55999994    2.71000004
   19.96222305  107.52100372    2.57999992    2.71000004
   19.96527863  112.70300293    2.07999992    2.69000006
   19.96861076  110.93099976    1.75000000    2.71000004
   19.97194481  106.24800110    1.89999998    2.69000006
   19.97777748  106.24800110    1.98000002    2.71000004
   19.98194504  110.71399689    1.75000000    2.71000004
   19.98500061  108.37300110    2.11999989    2.71000004
   19.98833275  108.60099792    2.55999994    2.71000004
   19.99166679  109.30400085    2.69000006    2.71000004
   19.99472237  114.01100159    2.51999998    2.71000004
   19.99805641  115.30300140    3.14000010    2.69000006
   20.00111198  113.60900116    3.89000010    2.69000006
   20.00444412  109.87699890    4.30999994    2.69000006
   20.00777817  107.68099976    4.51000023    2.69000006
   20.01083374  107.88200378    4.26999998    2.67000008
   20.01416588  105.39499664    3.82999992    2.69000006
   20.01499939  101.21900177    3.82999992    2.69000006
   20.02055550  101.21900177    4.00000000    2.69000006
   20.02472115  110.23899841    4.69999981    2.69000006
   20.02805519  111.34100342    4.90999985    2.64000010
   20.03111076  114.76399994    4.90999985    2.61999989
   20.03444481  114.50499725    4.90999985    2.64000010
   20.03777695  108.96900177    4.90999985    2.64000010
   20.04083252  114.54100037    4.90999985    2.59999990
   20.04416656  112.77700043    4.90999985    2.59999990
   20.04749870  111.04100037    4.90999985    2.57999992
   20.04833221  111.78299713    4.90999985    2.59999990
   20.05083275  111.13500214    4.90999985    2.61999989
   20.05416679  110.49400330    4.90999985    2.64000010
   20.05722237  118.82399750    4.90999985    2.61999989
   20.06333351  118.82399750    4.90999985    2.66000009
   20.06750107  110.13300323    4.90999985    2.64000010
   20.07083511  114.97599792    4.90999985    2.66000009
   20.07389069  108.40899658    4.90999985    2.66000009
   20.07722282  106.46199799    3.86999989    2.69000006
   20.08055687  111.91000366    3.23000002    2.69000006
   20.08139038  109.12300110    3.61999989    2.67000008
   20.08388901  104.63899994    3.72000003    2.67000008
   20.08722305  104.65699768    3.18000007    2.69000006
   20.09027863  111.76200104    2.57999992    2.69000006
   20.09361267  110.84500122    3.21000004    2.69000006
   20.09694481  112.92900085    3.59999990    2.69000006
   20.10000038  107.40499878    3.16000009    2.69000006
   20.10611153  107.40499878    3.57999992    2.69000006
   20.11027908  111.74199677    3.20000005    2.69000006
   20.11361122  114.26999664    4.00000000    2.67000008
   20.11472321  118.77300262    3.72000003    2.69000006
   20.11722183  113.29000092    3.34999990    2.69000006
   20.12055588  101.81099701    3.16000009    2.69000006
   20.12388992  107.50000000    3.76999998    2.67000008
   20.12694550  105.66600037    4.01999998    2.67000008
   20.13027763  110.84700012    4.00000000    2.67000008
   20.13361168  105.57599640    3.95000005    2.67000008
   20.13666725  108.66100311    3.80999994    2.67000008
   20.13999939  108.23200226    3.95000005    2.67000008
   20.14305496  109.40399933    3.72000003    2.67000008
   20.14916611  109.40399933    3.59999990    2.67000008
   20.15333366  109.39099884    4.69999981    2.67000008
   20.15638924  116.84600067    4.82999992    2.67000008
   20.15972137  114.81300354    4.90999985    2.66000009
   20.16305542  115.71499634    4.90999985    2.64000010
   20.16611099  107.76599884    4.90999985    2.66000009
   20.16944313  107.14299774    4.90999985    2.66000009
   20.17249870  111.17800140    4.90999985    2.66000009
   20.17583275  110.25000000    4.90999985    2.64000010
   20.17916679  107.65599823    4.90999985    2.64000010
   20.18138885  109.26699829    4.90999985    2.66000009
   20.18249893  108.31700134    4.90999985    2.66000009
   20.18583298  105.17600250    4.90999985    2.66000009
   20.19194412  105.17600250    4.48999977    2.66000009
   20.19610977  110.43499756    3.84999990    2.67000008
   20.19944382  112.90899658    3.43000007    2.67000008
   20.20250130  111.75599670    3.39000010    2.67000008
   20.20583344  112.73400116    3.01999998    2.67000008
   20.20916748  108.65399933    3.11999989    2.67000008
   20.21222305  108.02799988    2.61999989    2.67000008
   20.21500015  107.37100220    2.09999990    2.67000008
   20.21583366  106.33799744    2.21000004    2.67000008
   20.21916771  105.40200043    1.96000004    2.67000008
   20.22222328  105.10600281    1.80999994    2.69000006
   20.22555542  106.49099731    1.75000000    2.69000006
   20.22888947  111.55000305    1.80999994    2.67000008
   20.23472214  111.55000305    1.60000002    2.69000006
   20.23888969  109.87400055    1.55999994    2.69000006
   20.24222183  109.40299988    1.38000000    2.69000006
   20.24527740  112.52200317    1.38000000    2.69000006
   20.24833298  111.63500214    1.38000000    2.69000006
   20.24888992  113.66899872    1.38000000    2.69000006
   20.25222206  106.20899963    1.38000000    2.69000006
   20.25527763  112.92900085    1.28999996    2.69000006
   20.25861168  106.72399902    1.26999998    2.69000006
   20.26194382  106.35299683    1.30999994    2.69000006
   20.26499939  106.13099670    1.33000004    2.69000006
   20.26833344  101.38899994    1.33000004    2.69000006
   20.27166557  109.32399750    1.36000001    2.69000006
   20.27777672  109.32399750    1.48000002    2.67000008
   20.28166580  110.41600037    1.46000004    2.69000006
   20.28499985  110.43000031    1.46000004    2.67000008
   20.28833199  108.06199646    1.28999996    2.67000008
   20.29138756  108.06999969    1.28999996    2.67000008
   20.29472160  111.62400055    1.33000004    2.67000008
   20.29805565  106.76799774    1.34000003    2.67000008
   20.30111122  101.58699799    1.36000001    2.67000008
   20.30444336  107.45099640    1.26999998    2.69000006
   20.30749893  109.86900330    1.26999998    2.69000006
   20.31083298  103.02300262    1.19000006    2.67000008
   20.31416512  105.22200012    1.21000004    2.69000006
   20.31499863  103.83200073    1.21000004    2.69000006
   20.32055664  103.83200073    1.28999996    2.67000008
   20.32472229  111.63300323    1.28999996    2.67000008
   20.32777786  108.90200043    1.28999996    2.67000008
   20.33111191  106.98000336    1.33000004    2.67000008
   20.34861183  106.89700317    1.34000003    2.67000008
   20.35111237  101.98999786    1.28999996    2.67000008
   20.35416794  104.57399750    1.28999996    2.67000008
   20.35750008  104.31999969    1.26999998    2.67000008
   20.36361122  104.31999969    1.39999998    2.67000008
   20.36777878  107.11000061    1.28999996    2.67000008
   20.37083435  106.91500092    1.25000000    2.67000008
   20.37416649  110.40299988    1.19000006    2.67000008
   20.37722206  110.10199738    1.19000006    2.67000008
   20.38055611  112.13099670    1.13000000    2.67000008
   20.38194466  111.28199768    1.11000001    2.67000008
   20.38444519  113.38400269    1.11000001    2.67000008
   20.38777733  111.98699951    1.13000000    2.67000008
   20.39083290  112.84999847    1.13000000    2.67000008
   20.39416695  108.79299927    1.16999996    2.67000008
   20.39749908  105.55799866    1.19000006    2.66000009
   20.40055466  110.94000244    1.36000001    2.67000008
   20.40638924  110.94000244    1.60000002    2.67000008
   20.41055489  105.62200165    2.57999992    2.66000009
   20.41361046  115.30799866    2.66000009    2.66000009
   20.41527748  113.96199799    2.78999996    2.66000009
   20.41722107  113.28199768    3.26999998    2.64000010
   20.42055511  111.31999969    2.78999996    2.66000009
   20.42388916  115.88600159    2.66000009    2.66000009
   20.42694473  113.29399872    2.71000004    2.66000009
   20.43027687  111.45400238    2.84999990    2.66000009
   20.43333244  109.78099823    2.75000000    2.66000009
   20.43666649  107.64800262    2.64000010    2.66000009
   20.43999863  108.66400146    2.32999992    2.66000009
   20.44305420  107.13800049    2.13000011    2.66000009
   20.44916534  107.13800049    2.40000010    2.66000009
   20.45333481  110.80699921    2.96000004    2.64000010
   20.45666695  106.23100281    3.61999989    2.64000010
   20.45972252  112.52200317    3.86999989    2.64000010
   20.46305656  103.25800323    3.93000007    2.64000010
   20.46638870  106.97599792    3.51999998    2.64000010
   20.46944427  110.38899994    3.03999996    2.64000010
   20.47277832  113.31600189    2.91000009    2.64000010
   20.47611237  113.62799835    3.16000009    2.64000010
   20.47916794  116.61299896    2.91000009    2.64000010
   20.48194504  116.78600311    3.07999992    2.64000010
   20.48277855  112.45999908    3.01999998    2.64000010
   20.48611069  116.65599823    2.82999992    2.64000010
   20.49194527  116.65599823    2.71000004    2.64000010
   20.49611092  110.76399994    2.39000010    2.64000010
   20.49944496  103.43000031    2.53999996    2.64000010
   20.50250053  106.02100372    2.46000004    2.64000010
   20.50583267  108.58599854    2.34999990    2.64000010
   20.50916672  107.36699677    2.17000008    2.64000010
   20.51222229  106.67099762    2.05999994    2.64000010
   20.51527786  109.51899719    1.85000002    2.66000009
   20.51583290  108.45500183    1.80999994    2.64000010
   20.51916695  104.89199829    1.69000006    2.66000009
   20.52249908  106.59100342    1.71000004    2.64000010
   20.52555466  107.66899872    2.34999990    2.64000010
   20.52888870  113.71700287    2.26999998    2.64000010
   20.53499985  113.71700287    3.59999990    2.66000009
   20.53888893  107.07599640    2.59999990    2.57999992
   20.54222107  109.95500183    2.34999990    2.64000010
   20.54555511  105.15100098    2.21000004    2.64000010
   20.54861069  110.43399811    1.86000001    2.64000010
   20.54888916  110.68800354    1.86000001    2.64000010
   20.55222130  110.33899689    1.76999998    2.64000010
   20.55555534  108.71499634    1.78999996    2.64000010
   20.55888748  108.71199799    1.78999996    2.64000010
   20.56222153  110.49500275    1.85000002    2.64000010
   20.56527710  104.35099792    1.85000002    2.64000010
   20.56861115  106.97699738    1.75000000    2.64000010
   20.57194519  111.53800201    1.64999998    2.64000010
   20.57777786  111.53800201    1.64999998    2.64000010
   20.58194542  112.73500061    1.63000000    2.64000010
   20.58527756  108.25099945    1.73000002    2.64000010
   20.58833313  119.68699646    1.78999996    2.64000010
   20.59166718  113.29399872    1.78999996    2.64000010
   20.59472275  114.43000031    1.73000002    2.64000010
   20.59805679  113.30599976    1.60000002    2.64000010
   20.60138893  108.93599701    1.55999994    2.64000010
   20.60444450  114.16999817    1.50000000    2.64000010
   20.60777855  105.96600342    1.50000000    2.61999989
   20.61111069  112.11399841    1.41999996    2.64000010
   20.61416626  108.07099915    1.41999996    2.64000010
   20.61527824  107.46299744    1.39999998    2.64000010
   20.62055588  107.46299744    1.39999998    2.64000010
   20.62472153  109.80300140    1.44000006    2.64000010
   20.62805557  106.15200043    1.44000006    2.64000010
   20.63111115  107.72100067    1.44000006    2.64000010
   20.63444519  108.90699768    1.50000000    2.61999989
   20.63777733  110.29199982    1.55999994    2.64000010
   20.64083290  112.34300232    1.48000002    2.61999989
   20.64416695  111.86399841    1.48000002    2.61999989
   20.64749908  108.13600159    1.53999996    2.61999989
   20.64861107  108.39700317    1.58000004    2.61999989
   20.65111160  108.39600372    1.58000004    2.61999989
   20.65416718  106.53299713    1.71000004    2.64000010
   20.65749931  107.55300140    1.78999996    2.61999989
   20.66333389  107.55300140    1.71000004    2.64000010
   20.66749954  110.11199951    2.17000008    2.61999989
   20.67083359  111.33699799    4.42999983    2.61999989
   20.67388916  100.55599976    2.19000006    2.61999989
   20.67722130  108.95999908    2.23000002    2.61999989
   20.68055534  103.63400269    2.40000010    2.61999989
   20.68194389  105.38300323    2.32999992    2.61999989
   20.68416595  110.16500092    2.15000010    2.61999989
   20.68722153  106.99800110    2.15000010    2.61999989
   20.69055557  105.43499756    2.13000011    2.59999990
   20.69361115  110.70300293    2.17000008    2.61999989
   20.69694328  106.40899658    2.21000004    2.61999989
   20.70027924  109.11799622    2.23000002    2.61999989
   20.70639038  109.11799622    1.96000004    2.61999989
   20.71027946  104.01799774    1.73000002    2.61999989
   20.71361160  103.04299927    2.17000008    2.59999990
   20.71527863  107.63700104    2.39000010    2.59999990
   20.71722221  111.94100189    2.39000010    2.59999990
   20.72027779  134.78999329    2.61999989    2.61999989
   20.72361183  110.18599701    2.61999989    2.61999989
   20.72666740  109.92600250    2.61999989    2.59999990
   20.73000145  115.43499756    2.46000004    2.59999990
   20.73333359  108.98999786    2.82999992    2.59999990
   20.73638916  110.44000244    2.51999998    2.59999990
   20.73972321  103.46600342    2.34999990    2.61999989
   20.74305534  107.34500122    2.32999992    2.59999990
   20.74916649  107.34500122    3.80999994    2.57999992
   20.75333405  104.41300201    2.55999994    2.55999994
   20.75638962  101.48300171    3.76999998    2.59999990
   20.75972176  104.36299896    2.67000008    2.59999990
   20.76305580  104.86799622    2.59999990    2.57999992
   20.76611137  109.59500122    2.30999994    2.59999990
   20.76944351  108.30100250    2.21000004    2.59999990
   20.77249908  109.03399658    2.40000010    2.59999990
   20.77583313  108.02799988    2.23000002    2.59999990
   20.77916718  111.22200012    2.23000002    2.61999989
   20.78194427  109.80899811    3.89000010    2.64000010
   20.78249931  102.11399841    4.48999977    2.64000010
   20.78583336  116.08599854    4.90999985    2.64000010
   20.79194450  116.08599854    4.90999985    2.67000008
   20.79611015  111.96099854    4.90999985    2.23000002
   20.79944420  111.48100281    4.90999985    2.64000010
   20.80249977  110.72699738    4.90999985    2.61999989
   20.80583191  101.88600159    1.78999996    2.59999990
   20.80916595  110.50399780    2.07999992    2.59999990
   20.81222153  108.23799896    2.48000002    2.57999992
   20.81527710  103.99199677    2.71000004    2.55999994
   20.81583214  108.51499939    2.91000009    2.55999994
   20.81916809  106.67600250    3.21000004    2.57999992
   20.82250023  105.28399658    3.75000000    2.55999994
   20.82555580  112.49199677    4.03999996    2.55999994
   20.82888985  113.87699890    4.21999979    2.55999994
   20.83472252  113.87699890    4.90999985    2.55999994
   20.83889008  111.04000092    4.88999987    2.55999994
   20.84222221  108.83599854    4.90999985    2.53999996
   20.84583473  115.08499908    4.69999981    2.55999994
   20.84861183  121.85500336    3.84999990    2.55999994
   20.84944534  111.97100067    4.01999998    2.55999994
   20.85277748  109.06800079    3.84999990    2.55999994
   20.85611153  105.09100342    4.26000023    2.55999994
   20.85944557  107.21900177    3.89000010    2.55999994
   20.86250114  106.36000061    2.73000002    2.57999992
   20.86583328  105.14499664    2.51999998    2.57999992
   20.86888885  106.39399719    1.96000004    2.57999992
   20.87222290  106.67299652    2.09999990    2.57999992
   20.87777710  106.67299652    2.15000010    2.55999994
   20.88194466  111.69400024    2.89000010    2.55999994
   20.88222313  107.29000092    2.89000010    2.55999994
   20.88555527  106.46299744    2.82999992    2.53999996
   20.88888931  108.29100037    2.46000004    2.55999994
   20.89194489  115.84700012    2.82999992    2.55999994
   20.89527702  110.06099701    3.14000010    2.55999994
   20.89861107  109.81400299    3.11999989    2.55999994
   20.90166664  112.83300018    3.00000000    2.55999994
   20.90499878  109.07099915    2.19000006    2.55999994
   20.90805435  116.38800049    2.21000004    2.57999992
   20.91138840  111.22599792    2.05999994    2.55999994
   20.91472244  111.48300171    2.34999990    2.55999994
   20.91555595  105.33799744    2.44000006    2.55999994
   20.92055511  105.33799744    2.36999989    2.55999994
   20.92472076  107.50900269    2.32999992    2.55999994
   20.92777634  105.35299683    2.28999996    2.55999994
   20.93111038  109.60299683    2.07999992    2.55999994
   20.93444443  102.76999664    2.11999989    2.55999994
   20.93750000  105.69899750    2.00000000    2.55999994
   20.94083214  108.09999847    1.96000004    2.55999994
   20.94388771  109.66799927    1.96000004    2.55999994
   20.94722176  113.77500153    2.01999998    2.55999994
   20.94888878  107.03900146    2.07999992    2.55999994
   20.95083427  106.16899872    2.15000010    2.55999994
   20.95416832  108.09999847    2.25000000    2.55999994
   20.95722389  110.81199646    2.23000002    2.55999994
   20.96333504  110.81199646    2.17000008    2.55999994
   20.96750069  115.04799652    2.32999992    2.55999994
   20.97083473  115.48899841    2.48000002    2.55999994
   20.97389030  118.54799652    2.55999994    2.53999996
   20.97722244  103.93599701    2.55999994    2.53999996
   20.98055649  109.80699921    2.40000010    2.53999996
   20.98222351  105.81400299    2.30999994    2.53999996
   20.98416710  106.22699738    2.09999990    2.53999996
   20.98750114  105.16999817    2.17000008    2.53999996
   20.99055672  101.97899628    2.11999989    2.53999996
   20.99388885  104.51200104    2.13000011    2.53999996
   20.99694443  100.16100311    2.07999992    2.55999994
   21.00027847  107.30300140    2.05999994    2.55999994
   21.00611115  107.30300140    2.05999994    2.55999994
   21.01027870  104.02300262    2.05999994    2.55999994
   21.01361084  107.56400299    2.05999994    2.55999994
   21.01555634  102.87599945    2.05999994    2.55999994
   21.01722145  107.50800323    2.05999994    2.55999994
   21.02055550  106.14299774    2.05999994    2.55999994
   21.02361107  111.62000275    2.05999994    2.55999994
   21.02694511  109.60800171    2.05999994    2.55999994
   21.03000069  110.23799896    2.05999994    2.55999994
   21.03333282  111.81999969    2.05999994    2.55999994
   21.03666687  109.55899811    2.05999994    2.55999994
   21.03972244  109.15499878    2.05999994    2.55999994
   21.04305458  104.62899780    2.00000000    2.55999994
   21.04916573  104.62899780    2.00000000    2.51999998
   21.05305481  110.46800232    2.11999989    2.51999998
   21.05638885  108.53500366    1.13000000    2.61999989
   21.05972099  109.00399780    0.17000000    0.23000000
   21.06277657  110.23000336    0.17000000    0.23000000
   21.06611061  110.34200287    0.17000000    0.23000000
   21.06916809  109.70200348    0.17000000    0.23000000
   21.07250023  112.32299805    0.17000000    0.23000000
   21.07583427  109.78600311    0.17000000    0.23000000
   21.07888985  111.41000366    0.17000000    0.23000000
   21.08222389  114.47200012    0.17000000    0.23000000
   21.08277893  117.68099976    0.17000000    0.23000000
   21.08583450  111.95300293    0.17000000    0.23000000
   21.09194565  111.95300293    0.17000000    0.23000000
   21.09611130  110.52200317    0.17000000    0.23000000
   21.09916687  114.80599976    0.17000000    0.23000000
   21.10250092  114.11799622    0.17000000    0.23000000
   21.10555649  116.71600342    0.17000000    0.23000000
   21.10888863  114.84899902    0.17000000    0.23000000
   21.11222267  118.72599792    0.17000000    0.23000000
   21.11527824  104.57900238    0.17000000    0.23000000
   21.11611176  111.81300354    0.17000000    0.23000000
   21.11888885  114.72699738    0.17000000    0.23000000
   21.12222290  109.63200378    0.17000000    0.23000000
   21.12555504  107.34999847    0.17000000    0.23000000
   21.12861061  100.75700378    0.17000000    0.23000000
   21.13472176  100.75700378    0.17000000    0.23000000
   21.13888931  110.91699982    0.17000000    0.23000000
   21.14194489  113.44499969    0.17000000    0.23000000
   21.14527702  105.64099884    0.17000000    0.23000000
   21.14861107  106.23600006    0.17000000    0.23000000
   21.14944458  107.29799652    0.17000000    0.23000000
   21.15194321  108.16899872    0.17000000    0.23000000
   21.15527725  107.25900269    0.17000000    0.23000000
   21.15861130  106.85299683    0.17000000    0.23000000
   21.16166687  105.83300018    0.17000000    0.23000000
   21.16499901  108.59500122    0.17000000    0.23000000
   21.16805458  111.73400116    0.17000000    0.23000000
   21.17138863  109.98200226    0.17000000    0.23000000
   21.17749977  109.98200226    0.17000000    0.23000000
   21.18166542  112.59300232    0.17000000    0.23000000
   21.18277740  114.37500000    0.17000000    0.23000000
   21.18555450  111.76599884    0.17000000    0.23000000
   21.18861008  117.88200378    0.17000000    0.23000000
   21.19194412  113.66699982    0.17000000    0.23000000
   21.19527626  110.99800110    0.17000000    0.23000000
   21.19833183  119.26799774    0.17000000    0.23000000
   21.20166779  107.16000366    0.17000000    0.23000000
   21.20499992  108.41600037    0.17000000    0.23000000
   21.20805550  111.42900085    0.17000000    0.23000000
   21.21138954  109.23300171    0.17000000    0.23000000
   21.21444511  108.13500214    0.17000000    0.23000000
   21.21611214  106.90200043    0.17000000    0.23000000
   21.22055626  106.90200043    0.17000000    0.23000000
   21.22444534  112.52600098    0.17000000    0.23000000
   21.22777748  113.67299652    0.17000000    0.23000000
   21.23111153  114.93000031    0.17000000    0.23000000
   21.23416710  112.53399658    0.17000000    0.23000000
   21.23750114  111.06600189    0.17000000    0.23000000
   21.24055672  115.11399841    0.17000000    0.23000000
   21.24388885  116.75000000    0.17000000    0.23000000
   21.24722290  117.53099823    0.17000000    0.23000000
   21.24944496  122.72000122    0.17000000    0.23000000
   21.25055504  117.81999969    0.17000000    0.23000000
   21.25388908  120.00599670    0.17000000    0.23000000
   21.25722313  120.54000092    0.17000000    0.23000000
   21.26333427  120.54000092    0.17000000    0.23000000
   21.26749992  113.93599701    0.17000000    0.23000000
   21.27055550  116.80799866    0.17000000    0.23000000
   21.27388954  113.48400116    0.17000000    0.23000000
   21.27694511  112.40799713    0.17000000    0.23000000
   21.28027725  111.59400177    0.17000000    0.23000000
   21.28277779  117.12300110    0.17000000    0.23000000
   21.28388786  112.30300140    0.17000000    0.23000000
   21.28722191  114.77100372    0.17000000    0.23000000
   21.29055595  114.90100098    0.17000000    0.23000000
   21.29361153  113.73600006    0.17000000    0.23000000
   21.29694366  120.22299957    0.17000000    0.23000000
   21.30027771  113.90599823    0.17000000    0.23000000
   21.30611038  113.90599823    0.17000000    0.23000000
   21.31027794  107.85399628    0.17000000    0.23000000
   21.31333351   98.39350128    0.17000000    0.23000000
   21.31611061   95.55410004    0.17000000    0.23000000
   21.31694603  103.85299683    0.17000000    0.23000000
   21.32027817  127.50800323    0.17000000    0.23000000
   21.32361221  162.55000305    0.17000000    0.23000000
   21.32666779  190.49800110    0.17000000    0.23000000
   21.33000183  213.63400269    0.17000000    0.23000000
   21.33333397  283.08499146    0.17000000    0.23000000
   21.33638954  352.29400635    0.17000000    0.23000000
   21.33972359  253.82600403    0.17000000    0.23000000
   21.34277916   93.34169769    0.17000000    0.23000000
   21.34889030   93.34169769    0.17000000    0.23000000
   21.36722183   -1.00000000    0.17000000    0.23000000
   21.37055588   -1.00000000    0.17000000    0.23000000
   21.37388992   -1.00000000    0.17000000    0.23000000
   21.37694550   -1.00000000    0.17000000    0.23000000
   21.38027763   -1.00000000    0.17000000    0.23000000
   21.38333321   -1.00000000    0.17000000    0.23000000
