    HOUR (UT)   FLARE FACTOR    SKY TESTER    SUN TESTER
   11.95277786   -1.00000000   -1.00000000   -1.00000000
   12.01305580  191.71000671    3.59999990    2.40000010
   12.01861095  195.70399475    3.57999992    2.40000010
   12.02166653  195.75599670    3.59999990    2.40000010
   12.02499962  192.64999390    3.57999992    2.40000010
   12.02833271  193.05099487    3.57999992    2.42000008
   12.03138828  200.92300415    3.57999992    2.40000010
   12.03472233  207.59100342    3.57999992    2.40000010
   12.03777790  201.72000122    3.57999992    2.40000010
   12.04111195  205.06399536    3.57999992    2.40000010
   12.04444504  190.49699402    3.55999994    2.40000010
   12.04638958  208.81300354    3.55999994    2.39000010
   12.04805565  207.44299316    3.55999994    2.40000010
   12.05138874  202.20700073    3.55999994    2.40000010
   12.05472279  203.27699280    3.55999994    2.42000008
   12.05777836  196.29800415    3.53999996    2.40000010
   12.06111145  196.38999939    3.51999998    2.42000008
   12.06416702  200.83900452    3.51999998    2.42000008
   12.06750011  200.83200073    3.51999998    2.40000010
   12.07083321  210.10499573    3.50000000    2.42000008
   12.07388878  195.98399353    3.50000000    2.40000010
   12.07722187  219.61700439    3.48000002    2.42000008
   12.07972240  206.73699951    3.48000002    2.42000008
   12.08083344  198.02999878    3.48000002    2.40000010
   12.08416653  214.66000366    3.48000002    2.42000008
   12.08749962  216.23800659    3.48000002    2.40000010
   12.09055519  201.18699646    3.48000002    2.42000008
   12.09388828  212.36999512    3.46000004    2.42000008
   12.09694386  209.89100647    3.46000004    2.42000008
   12.10027790  214.07699585    3.46000004    2.42000008
   12.10361195  217.72099304    3.46000004    2.44000006
   12.10666752  202.41400146    3.46000004    2.42000008
   12.11000061  207.13499451    3.46000004    2.44000006
   12.11333370  230.02699280    3.48000002    2.42000008
   12.11388969  206.22700500    3.48000002    2.44000006
   12.11722279  202.68499756    3.46000004    2.42000008
   12.12055588  206.49200439    3.46000004    2.42000008
   12.12361145  209.78799438    3.46000004    2.44000006
   12.12694454  211.80200195    3.45000005    2.44000006
   12.13027763  224.97099304    3.46000004    2.44000006
   12.13333321  217.82299805    3.45000005    2.44000006
   12.13666630  214.02000427    3.46000004    2.44000006
   12.14000034  214.96400452    3.45000005    2.46000004
   12.14305496  219.56799316    3.45000005    2.44000006
   12.14638901  213.35000610    3.45000005    2.44000006
   12.14666653  199.85499573    3.45000005    2.44000006
   12.14999962  218.63000488    3.45000005    2.44000006
   12.15305519  243.47700500    3.45000005    2.44000006
   12.15638828  211.39799500    3.43000007    2.44000006
   12.15972137  226.37500000    3.43000007    2.44000006
   12.16277695  215.61599731    3.41000009    2.44000006
   12.16611099  221.16299438    3.39000010    2.46000004
   12.16944504  211.67999268    3.36999989    2.44000006
   12.17250061  211.24600220    3.36999989    2.46000004
   12.17583370  220.15199280    3.34999990    2.46000004
   12.17888927  204.94200134    3.34999990    2.46000004
   12.17972279  216.17799377    3.34999990    2.46000004
   12.18249989  215.01499939    3.32999992    2.46000004
   12.18583298  207.82099915    3.32999992    2.46000004
   12.18916702  209.52699280    3.32999992    2.44000006
   12.19222260  212.01499939    3.32999992    2.46000004
   12.19555569  208.30599976    3.32999992    2.46000004
   12.19861126  220.18400574    3.30999994    2.46000004
   12.20194435  222.91799927    3.28999996    2.44000006
   12.20527744  214.25900269    3.28999996    2.46000004
   12.20833302  200.72900391    3.30999994    2.46000004
   12.21166611  210.81300354    3.28999996    2.46000004
   12.21305561  199.94900513    3.28999996    2.46000004
   12.21527767  214.49800110    3.26999998    2.46000004
   12.21861076  210.71699524    3.26999998    2.46000004
   12.22194386  199.20599365    3.25000000    2.46000004
   12.22499943  215.72300720    3.25000000    2.46000004
   12.22833252  202.28799438    3.25000000    2.46000004
   12.23138809  193.04100037    3.25000000    2.46000004
   12.23472214  212.95700073    3.25000000    2.48000002
   12.23805618  202.53199768    3.25000000    2.48000002
   12.24111176  206.58700562    3.25000000    2.46000004
   12.24444485  211.53700256    3.25000000    2.46000004
   12.24638939  197.43299866    3.25000000    2.46000004
   12.24805546  213.30499268    3.25000000    2.48000002
   12.25138855  203.67100525    3.25000000    2.48000002
   12.25472260  213.83299255    3.23000002    2.48000002
   12.25777817  198.59500122    3.21000004    2.46000004
   12.26111126  199.50100708    3.20000005    2.48000002
   12.26416683  212.73800659    3.20000005    2.48000002
   12.26749992  210.93299866    3.20000005    2.48000002
   12.27083302  204.82000732    3.18000007    2.48000002
   12.27388859  198.22599792    3.16000009    2.48000002
   12.27722168  210.25599670    3.18000007    2.48000002
   12.27972221  203.75500488    3.16000009    2.48000002
   12.28083324  219.00500488    3.16000009    2.48000002
   12.28416729  198.51100159    3.16000009    2.48000002
   12.28750038  212.69000244    3.16000009    2.48000002
   12.29055595  214.64100647    3.14000010    2.46000004
   12.29388905  201.44700623    3.14000010    2.50000000
   12.29694462  202.16600037    3.11999989    2.48000002
   12.30027771  206.24000549    3.11999989    2.50000000
   12.30361176  191.07600403    3.11999989    2.50000000
   12.30694485  197.16000366    3.09999990    2.50000000
   12.31000042  204.52099609    3.07999992    2.50000000
   12.31305599  204.20899963    3.07999992    2.50000000
   12.31361103  201.23199463    3.07999992    2.50000000
   12.31694412  204.41600037    3.07999992    2.50000000
   12.32027817  213.28199768    3.07999992    2.48000002
   12.32333374  204.49699402    3.07999992    2.50000000
   12.32666683  207.80799866    3.05999994    2.50000000
   12.32972240  206.22200012    3.05999994    2.50000000
   12.33305550  198.30799866    3.03999996    2.50000000
   12.33638859  205.16700745    3.03999996    2.50000000
   12.33944416  200.96499634    3.01999998    2.50000000
   12.34277725  207.34700012    3.01999998    2.50000000
   12.34611034  199.78300476    3.00000000    2.51999998
   12.34666634  200.23100281    2.98000002    2.50000000
   12.34972191  198.33500671    2.98000002    2.50000000
   12.35305595  196.77900696    2.98000002    2.51999998
   12.35611153  211.63800049    2.96000004    2.51999998
   12.35944462  212.92500305    2.96000004    2.50000000
   12.36277771  190.41700745    2.96000004    2.50000000
   12.36583328  209.93800354    2.94000006    2.50000000
   12.36916637  188.55400085    2.94000006    2.51999998
   12.37250042  187.57400513    2.93000007    2.51999998
   12.37555599  187.82000732    2.93000007    2.50000000
   12.37888908  196.75799561    2.93000007    2.51999998
   12.38000011  191.94599915    2.93000007    2.51999998
   12.38249969  199.70399475    2.93000007    2.51999998
   12.38583279  195.63000488    2.91000009    2.51999998
   12.38888836  198.22300720    2.91000009    2.51999998
   12.39222240  188.91099548    2.93000007    2.51999998
   12.39555550  208.90400696    2.93000007    2.51999998
   12.39861107  191.73100281    2.93000007    2.51999998
   12.40194416  202.16900635    2.93000007    2.51999998
   12.40527725  187.92199707    2.91000009    2.51999998
   12.40833282  193.37600708    2.91000009    2.51999998
   12.41166592  208.00199890    2.91000009    2.53999996
   12.41333294  201.44700623    2.91000009    2.51999998
   12.41527748  200.44900513    2.91000009    2.51999998
   12.41861153  196.09599304    2.91000009    2.51999998
   12.42166710  197.83200073    2.89000010    2.53999996
   12.42500019  202.04699707    2.91000009    2.53999996
   12.42833328  199.35600281    2.89000010    2.51999998
   12.43138885  207.33500671    2.89000010    2.53999996
   12.43472195  193.55000305    2.89000010    2.51999998
   12.43805599  189.60800171    2.89000010    2.53999996
   12.44111156  204.50999451    2.86999989    2.51999998
   12.44444466  195.94599915    2.86999989    2.53999996
   12.44666672  214.11900330    2.86999989    2.53999996
   12.44805527  204.64799500    2.86999989    2.53999996
   12.45138836  187.12600708    2.84999990    2.53999996
   12.45444393  189.02099609    2.84999990    2.53999996
   12.45777798  186.66499329    2.84999990    2.51999998
   12.46111107  203.04200745    2.84999990    2.53999996
   12.46416664  196.09199524    2.84999990    2.53999996
   12.46749973  199.63400269    2.82999992    2.53999996
   12.47083282  188.34199524    2.84999990    2.53999996
   12.47388840  190.03599548    2.82999992    2.53999996
   12.47722149  189.70399475    2.84999990    2.53999996
   12.47999954  195.08399963    2.84999990    2.53999996
   12.48083305  189.15400696    2.84999990    2.53999996
   12.48416710  194.50000000    2.84999990    2.53999996
   12.48722267  203.35200500    2.84999990    2.53999996
   12.49055576  203.31300354    2.84999990    2.55999994
   12.49388885  207.72399902    2.82999992    2.55999994
   12.49694443  191.05499268    2.82999992    2.53999996
   12.50027752  182.76300049    2.82999992    2.53999996
   12.50361156  195.54100037    2.82999992    2.53999996
   12.50666714  184.88499451    2.82999992    2.53999996
   12.51000023  200.37100220    2.82999992    2.53999996
   12.51333332  182.64199829    2.80999994    2.53999996
   12.51361084  186.03500366    2.80999994    2.53999996
   12.51694393  193.70399475    2.80999994    2.53999996
   12.51999950  190.36300659    2.80999994    2.55999994
   12.52333355  189.74000549    2.78999996    2.55999994
   12.52666664  189.66000366    2.78999996    2.53999996
   12.52972221  181.31500244    2.78999996    2.55999994
   12.53305531  199.60600281    2.78999996    2.55999994
   12.53638935  181.86399841    2.76999998    2.55999994
   12.53944492  200.70100403    2.76999998    2.55999994
   12.54277802  184.05999756    2.75000000    2.55999994
   12.54583359  190.88800049    2.75000000    2.55999994
   12.54666710  187.08599854    2.75000000    2.53999996
   12.54944515  187.79800415    2.75000000    2.55999994
   12.55277824  181.25700378    2.73000002    2.55999994
   12.55611134  182.32499695    2.73000002    2.55999994
   12.55916691  186.15299988    2.71000004    2.55999994
   12.56250000  187.75700378    2.71000004    2.55999994
   12.56583309  198.94299316    2.71000004    2.57999992
   12.56888866  193.59199524    2.73000002    2.55999994
   12.57222176  187.29400635    2.73000002    2.55999994
   12.57527733  189.17500305    2.73000002    2.55999994
   12.57861137  189.06500244    2.73000002    2.55999994
   12.57999992  191.72300720    2.73000002    2.55999994
   12.58222198  179.57899475    2.73000002    2.55999994
   12.58555508  181.30200195    2.73000002    2.55999994
   12.58861065  189.96299744    2.71000004    2.55999994
   12.59194374  182.28599548    2.73000002    2.55999994
   12.59527779  185.24400330    2.71000004    2.55999994
   12.59833336  187.17399597    2.71000004    2.55999994
   12.60166740  189.11999512    2.71000004    2.55999994
   12.60500050  191.59399414    2.71000004    2.55999994
   12.60805607  186.48599243    2.71000004    2.55999994
   12.61138916  196.02299500    2.69000006    2.55999994
   12.61333370  181.65800476    2.69000006    2.55999994
   12.61500072  182.69999695    2.67000008    2.55999994
   12.61833382  189.88900757    2.67000008    2.57999992
   12.62166691  182.93699646    2.67000008    2.57999992
   12.62472248  189.65299988    2.67000008    2.55999994
   12.62805557  179.50500488    2.67000008    2.57999992
   12.63111115  187.84899902    2.67000008    2.57999992
   12.63444424  187.94700623    2.67000008    2.57999992
   12.63777733  192.61500549    2.67000008    2.57999992
   12.64111137  188.63400269    2.66000009    2.57999992
   12.64416695  179.47099304    2.67000008    2.59999990
   12.64666653  187.08900452    2.66000009    2.55999994
   12.64777756  197.97599792    2.66000009    2.57999992
   12.65111065  189.40699768    2.66000009    2.57999992
   12.65444374  180.62600708    2.66000009    2.57999992
   12.65749931  195.20500183    2.67000008    2.57999992
   12.66083336  181.94900513    2.66000009    2.57999992
   12.66388893  183.15299988    2.66000009    2.59999990
   12.66722298  181.12800598    2.67000008    2.57999992
   12.67055607  190.44999695    2.67000008    2.57999992
   12.67361164  196.53399658    2.67000008    2.57999992
   12.67694473  179.61999512    2.69000006    2.57999992
   12.68000031  189.73199463    2.67000008    2.59999990
   12.68055630  200.13600159    2.69000006    2.57999992
   12.68388939  182.94599915    2.69000006    2.59999990
   12.68722248  175.90699768    2.67000008    2.57999992
   12.69027805  175.46000671    2.67000008    2.57999992
   12.69361115  182.26800537    2.67000008    2.59999990
   12.69666672  176.14399719    2.67000008    2.59999990
   12.69999981  183.92300415    2.67000008    2.59999990
   12.70333290  177.54100037    2.66000009    2.57999992
   12.70638847  182.92999268    2.66000009    2.57999992
   12.70972157  184.08000183    2.64000010    2.59999990
   12.71305561  184.25900269    2.64000010    2.59999990
   12.71361065  184.36500549    2.64000010    2.59999990
   12.71666622  179.38699341    2.64000010    2.59999990
   12.71999931  183.62500000    2.64000010    2.59999990
   12.72305489  182.14500427    2.64000010    2.59999990
   12.72638798  177.50999451    2.64000010    2.59999990
   12.72972202  192.57099915    2.61999989    2.57999992
   12.73277760  179.95500183    2.64000010    2.59999990
   12.73611164  181.33099365    2.64000010    2.57999992
   12.73944473  187.75199890    2.64000010    2.57999992
   12.74250031  175.21800232    2.64000010    2.59999990
   12.74583340  176.76300049    2.64000010    2.59999990
   12.74694443  169.83299255    2.64000010    2.59999990
   12.74944496  177.16499329    2.64000010    2.59999990
   12.75277805  187.87199402    2.66000009    2.59999990
   12.75583363  171.95799255    2.64000010    2.61999989
   12.75916672  171.62500000    2.64000010    2.59999990
   12.76249981  173.23300171    2.61999989    2.59999990
   12.76555538  190.43699646    2.61999989    2.59999990
   12.76888847  188.34199524    2.61999989    2.61999989
   12.77222157  191.60099792    2.61999989    2.59999990
   12.77527714  170.61799622    2.59999990    2.61999989
   12.77861118  182.93099976    2.61999989    2.61999989
   12.78027725  186.41499329    2.59999990    2.59999990
   12.78222179  190.98599243    2.59999990    2.59999990
   12.78555584  172.77999878    2.57999992    2.61999989
   12.78861141  171.52499390    2.57999992    2.59999990
   12.79194450  182.15299988    2.57999992    2.61999989
   12.79527855  182.74800110    2.55999994    2.61999989
   12.79833412  175.42799377    2.55999994    2.61999989
   12.80166721  175.43099976    2.53999996    2.61999989
   12.80500031  181.32600403    2.55999994    2.61999989
   12.80805588  180.60299683    2.53999996    2.61999989
   12.81138897  188.04800415    2.51999998    2.59999990
   12.81361103  163.90400696    2.51999998    2.61999989
   12.81500053  179.11700439    2.51999998    2.61999989
   12.81833363  181.67599487    2.51999998    2.61999989
   12.82138920  183.17100525    2.50000000    2.61999989
   12.82472229  175.53399658    2.51999998    2.61999989
   12.82805538  181.14300537    2.50000000    2.61999989
   12.83111095  167.80700684    2.50000000    2.64000010
   12.83444405  171.96400452    2.50000000    2.61999989
   12.83777714  171.88200378    2.51999998    2.61999989
   12.84083271  189.67500305    2.50000000    2.61999989
   12.84416676  172.93299866    2.50000000    2.61999989
   12.84694386  170.66000366    2.50000000    2.61999989
   12.84777737  177.15800476    2.50000000    2.61999989
   12.85111141  174.57699585    2.50000000    2.61999989
   12.85416698  182.47200012    2.48000002    2.61999989
   12.85750008  173.14700317    2.48000002    2.61999989
   12.86083412  163.31399536    2.48000002    2.64000010
   12.86388969  163.83099365    2.46000004    2.64000010
   12.86722279  174.38499451    2.46000004    2.64000010
   12.87055588  172.13200378    2.46000004    2.64000010
   12.87361145  182.09199524    2.44000006    2.61999989
   12.87694454  185.25000000    2.44000006    2.61999989
   12.88027763  183.31900024    2.42000008    2.61999989
   12.88055611  178.15699768    2.42000008    2.61999989
   12.88388920  179.98300171    2.42000008    2.64000010
   12.88694477  176.08099365    2.42000008    2.64000010
   12.89027786  168.97999573    2.40000010    2.61999989
   12.89361095  181.13600159    2.40000010    2.64000010
   12.89666653  172.32600403    2.40000010    2.64000010
   12.89999962  186.14799500    2.40000010    2.64000010
   12.90333271  173.89900208    2.40000010    2.64000010
   12.90638828  173.10899353    2.40000010    2.64000010
   12.90972137  178.42500305    2.40000010    2.64000010
   12.91277695  178.46499634    2.39000010    2.64000010
   12.91361046  172.58599854    2.39000010    2.61999989
   12.91638851  172.79100037    2.39000010    2.64000010
   12.91972256  177.04100037    2.39000010    2.64000010
   12.92277813  173.75700378    2.39000010    2.64000010
   12.92611122  179.83299255    2.36999989    2.64000010
   12.92944431  174.93099976    2.36999989    2.64000010
   12.93249989  182.07099915    2.36999989    2.64000010
   12.93583298  174.66900635    2.36999989    2.64000010
   12.93916702  174.70300293    2.36999989    2.64000010
   12.94222260  181.04200745    2.36999989    2.64000010
   12.94555569  177.27099609    2.34999990    2.64000010
   12.94694424  170.74200439    2.36999989    2.64000010
   12.94916630  174.83599854    2.34999990    2.66000009
   12.95249939  178.15299988    2.36999989    2.64000010
   12.95583344  170.80900574    2.34999990    2.64000010
   12.95888901  181.11199951    2.34999990    2.64000010
   12.96222210  177.24499512    2.34999990    2.64000010
   12.96527767  164.81700134    2.32999992    2.66000009
   12.96861076  170.55400085    2.32999992    2.64000010
   12.97194386  172.18699646    2.32999992    2.64000010
   12.97527695  172.21299744    2.32999992    2.66000009
   12.97833252  172.84300232    2.32999992    2.66000009
   12.98027706  177.43299866    2.32999992    2.66000009
   12.98194408  170.17199707    2.32999992    2.64000010
   12.98527813  171.15100098    2.30999994    2.64000010
   12.98861122  172.84800720    2.30999994    2.66000009
   12.99166679  178.38600159    2.30999994    2.66000009
   12.99499989  174.88600159    2.30999994    2.66000009
   12.99805546  174.72700500    2.30999994    2.66000009
   13.00138855  173.74800110    2.30999994    2.64000010
   13.00472260  176.47799683    2.30999994    2.66000009
   13.00777817  181.60000610    2.30999994    2.66000009
   13.01111126  179.81900024    2.32999992    2.66000009
   13.02972221  170.36099243    2.32999992    2.66000009
   13.03083324  159.14999390    2.34999990    2.66000009
   13.03416729  177.02200317    2.32999992    2.66000009
   13.03722286  179.04400635    2.32999992    2.66000009
   13.04055595  174.52299500    2.32999992    2.66000009
   13.04388905  181.22799683    2.32999992    2.66000009
   13.04694462  171.27799988    2.30999994    2.66000009
   13.05027771  177.27600098    2.30999994    2.66000009
   13.05361176  169.33299255    2.30999994    2.67000008
   13.05666733  169.57200623    2.28999996    2.66000009
   13.06000042  174.19299316    2.28999996    2.66000009
   13.06277752  177.06399536    2.26999998    2.66000009
   13.06361103  169.57899475    2.26999998    2.66000009
   13.06694412  174.85299683    2.26999998    2.66000009
   13.06999969  168.66700745    2.26999998    2.66000009
   13.07333374  162.56500244    2.25000000    2.66000009
   13.07666683  160.48599243    2.25000000    2.64000010
   13.07972240  169.16900635    2.25000000    2.66000009
   13.08305550  155.71899414    2.25000000    2.66000009
   13.08611107  167.04899597    2.25000000    2.66000009
   13.08944416  175.43899536    2.25000000    2.67000008
   13.09277725  168.14799500    2.26999998    2.66000009
   13.09583282  176.38499451    2.26999998    2.67000008
   13.09638882  177.48300171    2.26999998    2.67000008
   13.09972191  168.11000061    2.26999998    2.66000009
   13.10305595  164.25199890    2.28999996    2.66000009
   13.10611153  165.60499573    2.28999996    2.66000009
   13.10944462  165.66999817    2.26999998    2.66000009
   13.11250019  171.55299377    2.28999996    2.66000009
   13.11583328  176.37699890    2.28999996    2.67000008
   13.11916637  170.72500610    2.28999996    2.67000008
   13.12222195  164.88200378    2.28999996    2.67000008
   13.12555599  168.88299561    2.28999996    2.67000008
   13.12888908  169.66200256    2.26999998    2.66000009
   13.12972260  168.84700012    2.26999998    2.67000008
   13.13249969  159.73899841    2.26999998    2.67000008
   13.13583279  168.37399292    2.25000000    2.67000008
   13.13888836  174.67799377    2.26999998    2.67000008
   13.14222240  172.77400208    2.25000000    2.67000008
   13.14527798  179.45599365    2.23000002    2.67000008
   13.14861107  156.58599854    2.23000002    2.67000008
   13.15194416  165.75799561    2.23000002    2.67000008
   13.15499973  173.13400269    2.21000004    2.67000008
   13.15833282  168.02999878    2.21000004    2.67000008
   13.16166592  163.38699341    2.21000004    2.67000008
   13.16305542  169.97599792    2.21000004    2.67000008
   13.16527748  176.18400574    2.19000006    2.67000008
   13.16861153  160.42799377    2.21000004    2.67000008
   13.17166710  184.67100525    2.19000006    2.67000008
   13.17500019  161.76699829    2.21000004    2.67000008
   13.17805576  167.60800171    2.21000004    2.67000008
   13.18138885  170.17700195    2.23000002    2.67000008
   13.18472195  162.85899353    2.23000002    2.67000008
   13.18777752  173.73899841    2.21000004    2.67000008
   13.19111156  166.93600464    2.23000002    2.67000008
   13.19444466  166.23899841    2.23000002    2.67000008
   13.19638920  169.55799866    2.23000002    2.67000008
   13.19805527  159.81399536    2.21000004    2.67000008
   13.20138836  166.90600586    2.23000002    2.69000006
   13.20444393  170.86099243    2.23000002    2.67000008
   13.20777798  165.93400574    2.23000002    2.67000008
   13.21083355  158.06399536    2.23000002    2.67000008
   13.21416664  168.80999756    2.23000002    2.67000008
   13.21749973  157.10000610    2.23000002    2.67000008
   13.22055531  163.43299866    2.23000002    2.67000008
   13.22388840  168.19000244    2.23000002    2.67000008
   13.22722149  172.06599426    2.21000004    2.67000008
   13.22972202  166.97399902    2.23000002    2.69000006
   13.23083305  156.73500061    2.21000004    2.67000008
   13.23416710  177.07800293    2.21000004    2.67000008
   13.23722267  168.55099487    2.21000004    2.67000008
   13.24055576  165.56599426    2.19000006    2.67000008
   13.24361134  168.86900330    2.19000006    2.67000008
   13.24694443  159.98599243    2.17000008    2.67000008
   13.25027752  160.90199280    2.17000008    2.67000008
   13.25333309  161.55400085    2.17000008    2.69000006
   13.25666714  174.23500061    2.15000010    2.69000006
   13.26000023  170.05000305    2.17000008    2.69000006
   13.26305580  158.25999451    2.17000008    2.67000008
   13.26361084  158.16900635    2.17000008    2.67000008
   13.26694393  157.30499268    2.17000008    2.69000006
   13.26999950  162.16299438    2.17000008    2.67000008
   13.27333355  165.35099792    2.17000008    2.69000006
   13.27638817  160.29699707    2.17000008    2.69000006
   13.27972221  176.10299683    2.17000008    2.69000006
   13.28305531  153.69200134    2.17000008    2.69000006
   13.28611183  169.90600586    2.19000006    2.69000006
   13.28944492  158.94700623    2.17000008    2.69000006
   13.29277802  167.03900146    2.17000008    2.67000008
   13.29583359  152.49099731    2.19000006    2.69000006
   13.29638958  160.88400269    2.19000006    2.69000006
   13.29944515  169.89799500    2.19000006    2.69000006
   13.30277824  172.17100525    2.19000006    2.69000006
   13.30583382  159.56700134    2.19000006    2.69000006
   13.30916691  172.66000366    2.19000006    2.69000006
   13.31222248  166.30299377    2.19000006    2.67000008
   13.31555557  161.26699829    2.17000008    2.69000006
   13.31888866  171.80999756    2.17000008    2.69000006
   13.32194424  158.88600159    2.17000008    2.69000006
   13.32527733  173.04200745    2.17000008    2.69000006
   13.32861137  158.08799744    2.17000008    2.69000006
   13.32972240  170.72700500    2.17000008    2.69000006
   13.33222198  151.17900085    2.17000008    2.69000006
   13.33555508  163.70399475    2.17000008    2.69000006
   13.33861065  159.55099487    2.17000008    2.69000006
   13.34194374  159.36500549    2.15000010    2.69000006
   13.34499931  164.94400024    2.15000010    2.69000006
   13.34833336  175.17700195    2.15000010    2.69000006
   13.35166740  151.57099915    2.15000010    2.69000006
   13.35472298  161.86199951    2.15000010    2.69000006
   13.35805607  171.29800415    2.13000011    2.69000006
   13.36138916  161.30099487    2.15000010    2.69000006
   13.36305618  162.65299988    2.15000010    2.69000006
   13.36500072  162.78500366    2.15000010    2.69000006
   13.36833382  163.22099304    2.15000010    2.69000006
   13.37138939  170.51400757    2.17000008    2.69000006
   13.37472248  164.75199890    2.17000008    2.69000006
   13.37805557  177.37399292    2.17000008    2.71000004
   13.38111115  152.16900635    2.19000006    2.71000004
   13.38444424  160.56100464    2.19000006    2.71000004
   13.38749981  163.75700378    2.19000006    2.69000006
   13.39083290  159.16200256    2.19000006    2.69000006
   13.39416695  156.07400513    2.21000004    2.69000006
   13.39638901  161.03700256    2.17000008    2.69000006
   13.39777756  156.10699463    2.19000006    2.69000006
   13.40111065  152.20599365    2.19000006    2.69000006
   13.40416622  162.03300476    2.21000004    2.69000006
   13.40749931  162.84399414    2.21000004    2.69000006
   13.41083336  153.42799377    2.19000006    2.69000006
   13.41388893  154.30299377    2.17000008    2.71000004
   13.41722298  159.44500732    2.17000008    2.71000004
   13.42055607  161.01800537    2.13000011    2.69000006
   13.42361164  166.62800598    2.13000011    2.71000004
   13.42694473  152.78700256    2.15000010    2.71000004
   13.42972279  156.62699890    2.13000011    2.69000006
   13.43055630  159.64100647    2.13000011    2.69000006
   13.43388939  167.65100098    2.13000011    2.71000004
   13.43694496  156.56500244    2.13000011    2.71000004
   13.44027805  156.70599365    2.13000011    2.71000004
   13.44361115  162.98199463    2.13000011    2.71000004
   13.44666672  164.47599792    2.13000011    2.71000004
   13.44999981  159.26300049    2.15000010    2.71000004
   13.45305538  160.60400391    2.15000010    2.71000004
   13.45638847  156.31300354    2.17000008    2.71000004
   13.45972157  157.68400574    2.15000010    2.69000006
   13.46277714  161.31900024    2.17000008    2.69000006
   13.46333313  164.71400452    2.19000006    2.71000004
   13.46666622  157.29100037    2.19000006    2.69000006
   13.46999931  162.99800110    2.17000008    2.71000004
   13.47305489  158.38900757    2.17000008    2.69000006
   13.47638798  160.25700378    2.17000008    2.71000004
   13.47944355  161.49600220    2.17000008    2.69000006
   13.48277760  163.70899963    2.19000006    2.69000006
   13.48611164  161.69900513    2.17000008    2.71000004
   13.48916721  158.66200256    2.17000008    2.71000004
   13.49250031  170.25599670    2.17000008    2.71000004
   13.49583340  154.98599243    2.17000008    2.71000004
   13.49666691  159.22500610    2.15000010    2.73000002
   13.49944496  158.18800354    2.15000010    2.71000004
   13.50277805  155.02400208    2.15000010    2.71000004
   13.50583363  161.37800598    2.13000011    2.71000004
   13.50916672  158.15299988    2.11999989    2.71000004
   13.51222229  151.70100403    2.09999990    2.71000004
   13.51555538  154.94500732    2.09999990    2.71000004
   13.51888847  152.12300110    2.09999990    2.71000004
   13.52194405  155.98500061    2.09999990    2.71000004
   13.52527714  161.67999268    2.09999990    2.71000004
   13.52861118  157.84599304    2.09999990    2.71000004
   13.52999973  162.40100098    2.09999990    2.71000004
   13.53222179  155.18800354    2.09999990    2.71000004
   13.53555584  153.81199646    2.09999990    2.71000004
   13.53861141  154.55200195    2.09999990    2.71000004
   13.54194450  151.32000732    2.13000011    2.71000004
   13.54500008  150.39999390    2.13000011    2.71000004
   13.54833412  149.69799805    2.13000011    2.71000004
   13.55166721  153.69900513    2.13000011    2.69000006
   13.55472279  159.22999573    2.15000010    2.71000004
   13.55805588  159.24400330    2.17000008    2.71000004
   13.56138897  158.01300049    2.15000010    2.71000004
   13.56333351  160.73699951    2.15000010    2.71000004
   13.56500053  159.98300171    2.15000010    2.71000004
   13.56833363  154.13600159    2.15000010    2.71000004
   13.57138920  154.50300598    2.13000011    2.71000004
   13.57472229  158.13600159    2.13000011    2.73000002
   13.57777786  158.70399475    2.11999989    2.71000004
   13.58111095  157.04499817    2.11999989    2.71000004
   13.58444405  162.64399719    2.11999989    2.71000004
   13.58749962  158.74499512    2.09999990    2.73000002
   13.59083271  150.17199707    2.09999990    2.71000004
   13.59416676  160.15800476    2.07999992    2.71000004
   13.59666634  148.20599365    2.05999994    2.73000002
   13.59777737  143.11099243    2.05999994    2.73000002
   13.60111141  153.60200500    2.07999992    2.71000004
   13.60416698  155.45599365    2.07999992    2.71000004
   13.60750008  161.70599365    2.05999994    2.73000002
   13.61055565  162.14500427    2.05999994    2.71000004
   13.61388969  160.79899597    2.07999992    2.71000004
   13.61722279  161.95899963    2.05999994    2.73000002
   13.62027836  154.89700317    2.05999994    2.71000004
   13.62361145  154.62399292    2.07999992    2.71000004
   13.62694454  158.63800049    2.09999990    2.73000002
   13.63000011  159.46299744    2.11999989    2.73000002
   13.63055611  154.24600220    2.11999989    2.73000002
   13.75388908   -1.00000000   -1.00000000   -1.00000000
   13.85277843   -1.00000000   -1.00000000   -1.00000000
   13.95416641   -1.00000000   -1.00000000   -1.00000000
   14.01111126   85.73549652    4.90999985    2.75000000
   14.01416683  168.85400391    4.90999985    2.76999998
   14.01944447  169.57899475    4.90999985    2.75000000
   14.02277756  168.11099243    4.90999985    2.76999998
   14.02583313  173.74000549    4.90999985    2.75000000
   14.03111076  173.74000549    4.90999985    2.75000000
   14.03527832  163.04600525    4.90999985    2.75000000
   14.03861141  181.00000000    4.90999985    2.75000000
   14.04166698  165.50300598    4.90999985    2.76999998
   14.04416752  166.80400085    4.90999985    2.76999998
   14.04555607  157.81900024    4.90999985    2.75000000
   14.04888916  177.13699341    4.90999985    2.76999998
   14.05194473  166.74499512    4.90999985    2.75000000
   14.05527782  161.79600525    4.90999985    2.76999998
   14.05833340  167.83099365    4.90999985    2.75000000
   14.06166649  167.63699341    4.90999985    2.75000000
   14.06500053  165.83500671    4.90999985    2.76999998
   14.06805515  165.21899414    4.90999985    2.75000000
   14.07416630  165.21899414    4.90999985    2.75000000
   14.07805538  162.68499756    4.90999985    2.76999998
   14.08138847  164.82800293    4.90999985    2.76999998
   14.08472157  162.97599792    4.90999985    2.76999998
   14.08777714  160.62199402    4.90999985    2.76999998
   14.09111118  155.17100525    4.90999985    2.75000000
   14.09416676  162.27400208    4.90999985    2.76999998
   14.09749985  171.89300537    4.90999985    2.75000000
   14.10083389  169.02699280    4.90999985    2.75000000
   14.10388947  163.80799866    4.90999985    2.75000000
   14.10722256  175.56500244    4.90999985    2.76999998
   14.11055565  163.72000122    4.90999985    2.75000000
   14.11083412  163.64900208    4.90999985    2.75000000
   14.11694431  163.64900208    4.90999985    2.76999998
   14.12111092  160.99099731    4.90999985    2.75000000
   14.12416649  167.95799255    4.90999985    2.76999998
   14.12750053  177.30499268    4.90999985    2.75000000
   14.13055611  170.05900574    4.90999985    2.75000000
   14.13388920  163.31700134    4.90999985    2.75000000
   14.13722229  163.78399658    4.90999985    2.76999998
   14.14027786  152.33799744    4.90999985    2.76999998
   14.14361095  165.66000366    4.90999985    2.75000000
   14.14416695  158.99600220    4.90999985    2.75000000
   14.14722252  153.18600464    4.90999985    2.76999998
   14.15055561  165.96200562    4.90999985    2.76999998
   14.15361118  165.60400391    4.90999985    2.76999998
   14.15972137  165.60400391    4.90999985    2.76999998
   14.16388893  164.05499268    4.90999985    2.76999998
   14.16722298  157.23399353    4.90999985    2.76999998
   14.17027855  162.47200012    4.90999985    2.75000000
   14.17361164  162.80599976    4.90999985    2.76999998
   14.17666721  159.95799255    4.90999985    2.76999998
   14.17777824  162.24099731    4.90999985    2.76999998
   14.18027782  171.00500488    4.90999985    2.76999998
   14.18361092  161.45899963    4.90999985    2.76999998
   14.18666649  169.32000732    4.90999985    2.76999998
   14.19000053  167.53100586    4.90999985    2.76999998
   14.19333363  159.03500366    4.90999985    2.76999998
   14.19638920  149.94099426    4.90999985    2.76999998
   14.20249939  149.94099426    4.90999985    2.76999998
   14.20666695  155.99299622    4.90999985    2.76999998
   14.21000004  161.67199707    4.90999985    2.76999998
   14.21111107  162.79299927    4.90999985    2.76999998
   14.21361065  161.81199646    4.90999985    2.78999996
   14.21694374  152.29200745    4.90999985    2.76999998
   14.21999931  156.71699524    4.90999985    2.76999998
   14.22333336  160.42300415    4.90999985    2.78999996
   14.22666645  163.87100220    4.90999985    2.78999996
   14.22972202  158.84300232    4.90999985    2.76999998
   14.23305511  148.34100342    4.90999985    2.76999998
   14.23638916  158.18899536    4.90999985    2.76999998
   14.23944473  160.36799622    4.90999985    2.76999998
   14.24555588  160.36799622    4.90999985    2.76999998
   14.24944496  162.31199646    4.90999985    2.76999998
   14.25277805  160.67500305    4.90999985    2.76999998
   14.25611115  159.97300720    4.90999985    2.78999996
   14.25916672  165.04299927    4.90999985    2.76999998
   14.26249981  166.15400696    4.90999985    2.78999996
   14.26583290  155.68699646    4.90999985    2.76999998
   14.26888847  162.73300171    4.90999985    2.76999998
   14.27222157  165.42500305    4.90999985    2.78999996
   14.27527714  161.10200500    4.90999985    2.76999998
   14.27777767  161.86199951    4.90999985    2.76999998
   14.27888870  162.01199341    4.90999985    2.76999998
   14.28222179  161.97500610    4.90999985    2.76999998
   14.28833389  161.97500610    4.90999985    2.76999998
   14.29250050  163.06300354    4.90999985    2.76999998
   14.29555607  165.22500610    4.90999985    2.76999998
   14.29888916  160.94599915    4.90999985    2.78999996
   14.30194473  165.41099548    4.90999985    2.78999996
   14.30527782  161.72099304    4.90999985    2.78999996
   14.30861092  158.96800232    4.90999985    2.78999996
   14.31111145  159.85899353    4.90999985    2.76999998
   14.31222248  156.50599670    4.90999985    2.78999996
   14.31555557  161.86199951    4.90999985    2.76999998
   14.31861115  161.97399902    4.90999985    2.76999998
   14.32194424  155.15199280    4.90999985    2.76999998
   14.32527733  161.74499512    4.90999985    2.78999996
   14.33111095  161.74499512    4.90999985    2.78999996
   14.33527756  155.69099426    4.90999985    2.78999996
   14.33833313  157.35000610    4.90999985    2.78999996
   14.34166622  157.22700500    4.90999985    2.76999998
   14.34444427  159.13200378    4.90999985    2.78999996
   14.34527779  159.97099304    4.90999985    2.76999998
   14.34861088  157.12300110    4.90999985    2.78999996
   14.35166740  159.60899353    4.90999985    2.78999996
   14.35500050  163.96800232    4.90999985    2.76999998
   14.35833359  161.27600098    4.90999985    2.76999998
   14.36138916  163.72799683    4.90999985    2.78999996
   14.36472225  159.72300720    4.90999985    2.76999998
   14.36805534  155.62300110    4.90999985    2.78999996
   14.37388897  155.62300110    4.90999985    2.78999996
   14.37805557  165.86399841    4.90999985    2.78999996
   14.38138866  160.99499512    4.90999985    2.78999996
   14.38444424  161.88600159    4.90999985    2.78999996
   14.38777733  157.91200256    4.90999985    2.78999996
   14.39111137  158.02699280    4.90999985    2.78999996
   14.39416695  162.98699951    4.90999985    2.78999996
   14.39750004  160.98899841    4.90999985    2.78999996
   14.40055561  159.16700745    4.90999985    2.78999996
   14.40388870  150.52400208    4.90999985    2.78999996
   14.40722179  157.12100220    4.90999985    2.78999996
   14.41027737  166.02999878    4.90999985    2.78999996
   14.41111088  160.80900574    4.90999985    2.78999996
   14.41666698  160.80900574    4.90999985    2.80999994
   14.42083359  155.65100098    4.90999985    2.78999996
   14.42416668  158.43200684    4.90999985    2.76999998
   14.42750072  156.31199646    4.90999985    2.78999996
   14.43055630  170.03799438    4.90999985    2.76999998
   14.43388939  157.44799805    4.90999985    2.76999998
   14.43722248  158.86900330    4.90999985    2.76999998
   14.44027805  160.03700256    4.90999985    2.78999996
   14.44361115  160.74699402    4.90999985    2.78999996
   14.44444466  159.57699585    4.90999985    2.78999996
   14.44722271  161.25300598    4.90999985    2.78999996
   14.45055580  161.01199341    4.90999985    2.78999996
   14.45388889  161.85299683    4.90999985    2.78999996
   14.45972157  161.85299683    4.90999985    2.78999996
   14.46388912  167.67799377    4.90999985    2.78999996
   14.46694374  155.69400024    4.90999985    2.78999996
   14.47027779  165.45199585    4.90999985    2.78999996
   14.47333336  161.39700317    4.90999985    2.78999996
   14.47666645  162.64700317    4.90999985    2.78999996
   14.47777748  154.01100159    4.90999985    2.78999996
   14.48027706  156.41200256    4.90999985    2.78999996
   14.48361111  166.93800354    4.90999985    2.78999996
   14.48694515  161.38800049    4.90999985    2.78999996
   14.49000072  160.69299316    4.90999985    2.78999996
   14.49333382  166.61099243    4.90999985    2.78999996
   14.49638939  161.70500183    4.90999985    2.78999996
   14.50249958  161.70500183    4.90999985    2.78999996
   14.50666714  154.16400146    4.90999985    2.78999996
   14.50972176  157.85000610    4.90999985    2.78999996
   14.51111126  163.04299927    4.90999985    2.80999994
   14.51333332  149.60000610    4.90999985    2.78999996
   14.51666641  153.12399292    4.90999985    2.80999994
   14.51999950  161.44299316    4.90999985    2.78999996
   14.52305508  156.22300720    4.90999985    2.78999996
   14.52638817  154.88999939    4.90999985    2.78999996
   14.52944374  161.34800720    4.90999985    2.78999996
   14.53277779  161.34100342    4.90999985    2.80999994
   14.53611183  156.88499451    4.90999985    2.78999996
   14.53916740  155.80900574    4.90999985    2.80999994
   14.54527855  155.80900574    4.90999985    2.80999994
   14.54944515  158.77999878    4.90999985    2.78999996
   14.55277824  162.60600281    4.90999985    2.78999996
   14.55583382  154.74800110    4.90999985    2.80999994
   14.55916691  156.78300476    4.90999985    2.80999994
   14.56250000  149.41600037    4.90999985    2.78999996
   14.56555557  149.33799744    4.90999985    2.78999996
   14.56888866  154.77099609    4.90999985    2.78999996
   14.57194424  163.35600281    4.90999985    2.80999994
   14.57527733  160.91299438    4.90999985    2.78999996
   14.57777786  165.07200623    4.90999985    2.80999994
   14.57888889  180.64799500    4.90999985    2.78999996
   14.58222198  164.76400757    4.90999985    2.78999996
   14.58805561  164.76400757    4.90999985    2.78999996
   14.59222221  155.74899292    4.90999985    2.78999996
   14.59555531  165.95899963    4.90999985    2.78999996
   14.59888840  153.86000061    4.90999985    2.80999994
   14.60194492  164.95799255    4.90999985    2.78999996
   14.60527802  164.89199829    4.90999985    2.80999994
   14.60833359  166.24299622    4.90999985    2.78999996
   14.61111164  165.22099304    4.90999985    2.80999994
   14.61194515  162.27699280    4.90999985    2.80999994
   14.61527824  170.01899719    4.90999985    2.78999996
   14.61861134  188.17300415    4.90999985    2.80999994
   14.62166691  182.00199890    4.90999985    2.80999994
   14.62500000  190.75100708    4.90999985    2.78999996
   14.63111115  190.75100708    4.90999985    2.78999996
   14.63527775  172.41200256    4.90999985    2.78999996
   14.63833332  181.75399780    4.90999985    2.78999996
   14.64166641  161.16200256    4.90999985    2.78999996
   14.64444447  195.50599670    4.90999985    2.80999994
   14.64527798  176.65800476    4.90999985    2.78999996
   14.64861107  191.96099854    4.90999985    2.78999996
   14.65194416  178.81300354    4.90999985    2.78999996
   14.65499973  169.34199524    4.90999985    2.78999996
   14.65833282  175.37199402    4.90999985    2.78999996
   14.66166592  176.02999878    4.90999985    2.78999996
   14.66472149  180.90499878    4.90999985    2.80999994
   14.66805553  182.56599426    4.90999985    2.80999994
   14.67388916  182.56599426    4.90999985    2.80999994
   14.67805576  166.92500305    4.90999985    2.80999994
   14.68111134  174.66099548    4.90999985    2.80999994
   14.68444443  169.29400635    4.90999985    2.78999996
   14.68777752  167.59199524    4.90999985    2.78999996
   14.69083309  164.20100403    4.90999985    2.78999996
   14.69416714  165.77299500    4.90999985    2.80999994
   14.69750023  170.50999451    4.90999985    2.80999994
   14.70055580  174.84199524    4.90999985    2.80999994
   14.70388889  183.13900757    4.90999985    2.82999992
   14.70694447  173.24400330    4.90999985    2.80999994
   14.71027756  169.00100708    4.90999985    2.80999994
   14.71111107  173.24299622    4.90999985    2.80999994
   14.71666622  173.24299622    4.90999985    2.80999994
   14.72083282  174.63499451    4.90999985    2.80999994
   14.72416592  173.85899353    4.90999985    2.80999994
   14.72722149  173.81599426    4.90999985    2.80999994
   14.73055553  181.04200745    4.90999985    2.80999994
   14.73388958  169.42900085    4.90999985    2.80999994
   14.73694515  160.53100586    4.90999985    2.80999994
   14.74027824  166.64900208    4.90999985    2.80999994
   14.74333382  163.92399597    4.90999985    2.80999994
   14.74444485  176.61799622    4.90999985    2.78999996
   14.74694443  174.00100708    4.90999985    2.80999994
   14.75027752  154.14900208    4.90999985    2.80999994
   14.75361156  157.68800354    4.90999985    2.80999994
   14.75944424  157.68800354    4.90999985    2.80999994
   14.76361084  167.16900635    4.90999985    2.80999994
   14.76694393  166.75000000    4.90999985    2.80999994
   14.77027798  168.82000732    4.90999985    2.80999994
   14.77333355  169.98399353    4.90999985    2.78999996
   14.77666664  159.27499390    4.90999985    2.82999992
   14.77777767  149.19299316    4.90999985    2.82999992
   14.78027725  172.80900574    4.90999985    2.80999994
   14.78361130  163.35600281    4.90999985    2.80999994
   14.78694534  170.43400574    4.90999985    2.80999994
   14.79000092  167.06300354    4.90999985    2.80999994
   14.79333401  158.82200623    4.90999985    2.80999994
   14.79666710  162.97999573    4.90999985    2.80999994
   14.80249977  162.97999573    4.90999985    2.80999994
   14.80666733  164.00100708    4.90999985    2.80999994
   14.80972195  161.97399902    4.90999985    2.80999994
   14.81111145  158.02999878    4.90999985    2.80999994
   14.81333351  165.24099731    4.90999985    2.80999994
   14.81666660  160.18099976    4.90999985    2.80999994
   14.81999969  166.27499390    4.90999985    2.80999994
   14.82305527  164.19999695    4.90999985    2.80999994
   14.82638836  160.02000427    4.90999985    2.80999994
   14.82972240  165.13299561    4.90999985    2.80999994
   14.83277798  168.72300720    4.90999985    2.80999994
   14.83611107  174.79400635    4.90999985    2.80999994
   14.83916664  165.70700073    4.90999985    2.82999992
   14.84527779  165.70700073    4.90999985    2.82999992
   14.84944439  158.95199585    4.90999985    2.82999992
   14.85249996  156.73300171    4.90999985    2.82999992
   14.85583401  155.15800476    4.90999985    2.80999994
   14.85916710  158.07699585    3.89000010    2.80999994
   14.86222267  151.48899841    3.01999998    2.80999994
   14.86555576  166.21299744    3.05999994    2.80999994
   14.86888885  157.57299805    3.11999989    2.80999994
   14.87194443  157.68400574    3.18000007    2.80999994
   14.87527752  154.87199402    3.23000002    2.80999994
   14.87777805  152.97900391    3.20000005    2.80999994
   14.87861156  152.15699768    3.32999992    2.80999994
   14.88194466  155.19999695    3.30999994    2.80999994
   14.88805580  155.19999695    3.30999994    2.80999994
   14.89222240  151.41900635    3.28999996    2.82999992
   14.89555550  164.96200562    3.28999996    2.78999996
   14.89861107  164.25199890    3.28999996    2.80999994
   14.90194416  158.96600342    3.21000004    2.80999994
   14.90527725  159.45199585    3.23000002    2.80999994
   14.90833282  154.14300537    3.21000004    2.82999992
   14.91111088  152.27900696    3.25000000    2.80999994
   14.91194439  157.64100647    3.23000002    2.80999994
   14.91527748  165.34899902    3.18000007    2.80999994
   14.91861153  152.46899414    3.18000007    2.80999994
   14.92166710  161.74400330    3.16000009    2.82999992
   14.92500019  163.35400391    3.11999989    2.80999994
   14.93083382  163.35400391    3.11999989    2.82999992
   14.93500042  156.56799316    3.09999990    2.80999994
   14.93833351  157.81100464    3.09999990    2.80999994
   14.94166660  159.96600342    3.11999989    2.80999994
   14.94444466  153.78799438    3.16000009    2.80999994
   14.94499969  155.82600403    3.11999989    2.80999994
   14.94833374  158.93200684    3.09999990    2.82999992
   14.95166683  155.80000305    3.18000007    2.80999994
   14.95472240  153.23100281    3.20000005    2.82999992
   14.95805550  167.03999329    3.28999996    2.82999992
   14.96138859  158.07000732    3.23000002    2.82999992
   14.96444416  147.01699829    3.25000000    2.82999992
   14.96777725  161.95599365    3.26999998    2.82999992
   14.97388840  161.95599365    3.30999994    2.80999994
   14.97805500  157.88800049    3.30999994    2.82999992
   14.98111057  158.17500305    3.32999992    2.82999992
   14.98444462  152.64199829    3.30999994    2.80999994
   14.98777771  152.29600525    3.30999994    2.80999994
   14.99083328  157.57600403    3.26999998    2.82999992
   14.99416733  150.22399902    3.32999992    2.82999992
   14.99722290  153.67100525    3.32999992    2.80999994
   15.00055599  153.46699524    3.28999996    2.80999994
   15.00388908  158.04699707    3.25000000    2.82999992
   15.00694466  156.92399597    3.23000002    2.80999994
   15.01027775  155.61500549    3.21000004    2.80999994
   15.01111126  154.07600403    3.21000004    2.82999992
   15.03166676  154.07600403    3.07999992    2.82999992
   15.03583336  166.77400208    3.00000000    2.82999992
   15.03916740  169.61399841    3.03999996    2.82999992
   15.04250050  161.51400757    3.01999998    2.82999992
   15.04444504  156.51899719    3.00000000    2.82999992
   15.04611111  162.48599243    3.00000000    2.82999992
   15.04916668  168.11000061    2.98000002    2.82999992
   15.05249977  163.95399475    3.00000000    2.84999990
   15.05555534  154.34100342    2.98000002    2.82999992
   15.05888939  160.26800537    3.03999996    2.82999992
   15.06222248  155.97099304    3.01999998    2.82999992
   15.06527805  154.09300232    3.07999992    2.82999992
   15.06861115  159.08399963    3.05999994    2.80999994
   15.07444477  159.08399963    3.05999994    2.82999992
   15.07861137  156.04200745    3.00000000    2.82999992
   15.08194447  152.77900696    2.98000002    2.82999992
   15.08500004  151.53599548    2.98000002    2.82999992
   15.08833313  152.86799622    2.96000004    2.82999992
   15.09166622  150.15600586    2.94000006    2.82999992
   15.09472179  156.37600708    2.93000007    2.82999992
   15.09805489  152.77200317    2.89000010    2.80999994
   15.10138893  162.27000427    2.86999989    2.82999992
   15.10444450  159.00199890    2.82999992    2.80999994
   15.10777855  151.79600525    2.82999992    2.82999992
   15.11083412  154.49600220    2.84999990    2.82999992
   15.11138916  152.75399780    2.84999990    2.82999992
   15.11750031  152.75399780    2.78999996    2.82999992
   15.12138939  154.43200684    2.78999996    2.82999992
   15.12472248  156.15699768    2.78999996    2.82999992
   15.12805557  156.05999756    2.80999994    2.80999994
   15.13111115  155.65800476    2.78999996    2.82999992
   15.13444424  153.09300232    2.76999998    2.82999992
   15.13777733  153.55000305    2.73000002    2.82999992
   15.14083290  154.99699402    2.71000004    2.82999992
   15.14416695  153.41299438    2.71000004    2.82999992
   15.14472198  148.40400696    2.71000004    2.82999992
   15.14777756  146.36199951    2.73000002    2.82999992
   15.15111065  150.39100647    2.76999998    2.82999992
   15.15416622  149.42900085    2.73000002    2.82999992
   15.16027737  149.42900085    2.71000004    2.82999992
   15.16444397  151.84100342    2.71000004    2.82999992
   15.16750050  154.48199463    2.67000008    2.84999990
   15.17083359  158.63499451    2.67000008    2.82999992
   15.17416668  145.66999817    2.69000006    2.82999992
   15.17722225  157.40400696    2.69000006    2.84999990
   15.17805576  148.65199280    2.66000009    2.84999990
   15.18083382  151.96099854    2.66000009    2.82999992
   15.18416691  147.30299377    2.66000009    2.82999992
   15.18722248  156.43299866    2.66000009    2.82999992
   15.19055557  156.73300171    2.61999989    2.82999992
   15.19388866  157.16400146    2.64000010    2.82999992
   15.19694424  158.70599365    2.59999990    2.82999992
   15.20305538  158.70599365    2.53999996    2.82999992
   15.20722198  160.32499695    2.57999992    2.84999990
   15.21055508  160.00500488    2.55999994    2.82999992
   15.21138859  161.59500122    2.61999989    2.84999990
   15.21416664  155.19099426    2.61999989    2.82999992
   15.21749973  156.95599365    2.64000010    2.82999992
   15.22055531  163.75599670    2.69000006    2.82999992
   15.22388840  157.73399353    2.73000002    2.84999990
   15.22722149  157.74600220    2.73000002    2.82999992
   15.23027706  156.92799377    2.75000000    2.82999992
   15.23361111  158.01400757    2.76999998    2.82999992
   15.23666668  152.09399414    2.75000000    2.84999990
   15.24000072  154.74400330    2.82999992    2.82999992
   15.24583340  154.74400330    2.82999992    2.82999992
   15.25000000  157.41700745    2.80999994    2.84999990
   15.25333309  159.32499695    2.84999990    2.82999992
   15.25638866  153.00500488    2.84999990    2.82999992
   15.25972176  153.83200073    2.86999989    2.84999990
   15.26305580  159.05200195    2.82999992    2.82999992
   15.26611137  152.39100647    2.84999990    2.84999990
   15.26944447  151.89100647    2.84999990    2.84999990
   15.27277756  154.82800293    2.80999994    2.84999990
   15.27583313  156.53500366    2.80999994    2.84999990
   15.27805519  158.35200500    2.80999994    2.84999990
   15.27944374  156.25900269    2.78999996    2.82999992
   15.28277779  155.29600525    2.73000002    2.84999990
   15.28888893  155.29600525    2.64000010    2.84999990
   15.29277802  158.90400696    2.64000010    2.84999990
   15.29611111  154.55499268    2.61999989    2.82999992
   15.29944515  158.21600342    2.64000010    2.84999990
   15.30249977  153.38299561    2.66000009    2.84999990
   15.30583382  165.03300476    2.67000008    2.82999992
   15.30916691  154.32000732    2.71000004    2.82999992
   15.31138897  153.88299561    2.75000000    2.84999990
   15.31277752  155.96699524    2.75000000    2.84999990
   15.31611156  154.85499573    2.82999992    2.82999992
   15.31916618  149.09399414    2.82999992    2.82999992
   15.32250023  156.14399719    2.86999989    2.84999990
   15.32583332  143.30299377    2.84999990    2.82999992
   15.33166695  143.30299377    2.91000009    2.82999992
   15.33583260  150.50500488    2.91000009    2.84999990
   15.33888817  150.39700317    2.91000009    2.84999990
   15.34222221  147.65499878    2.91000009    2.84999990
   15.34472179  153.60699463    2.91000009    2.82999992
   15.34583282  152.62300110    2.93000007    2.82999992
   15.34916592  150.57400513    2.91000009    2.82999992
   15.35222244  148.26400757    2.91000009    2.82999992
   15.35555553  162.05499268    2.93000007    2.82999992
   15.35888958  155.91900635    2.94000006    2.82999992
   15.36194515  154.05299377    2.86999989    2.82999992
   15.36527824  157.29699707    2.80999994    2.84999990
   15.36861134  148.06300354    2.78999996    2.82999992
   15.37444496  148.06300354    2.78999996    2.84999990
   15.37861156  162.37600708    2.75000000    2.82999992
   15.38194466  167.06599426    2.75000000    2.84999990
   15.38500023  154.09500122    2.73000002    2.84999990
   15.38833332  160.60299683    2.71000004    2.84999990
   15.39138889  156.53700256    2.71000004    2.82999992
   15.39472198  158.20199585    2.75000000    2.84999990
   15.39805508  152.96299744    2.76999998    2.82999992
   15.40111065  153.08000183    2.76999998    2.84999990
   15.40444374  156.64999390    2.82999992    2.84999990
   15.40777779  150.49899292    2.84999990    2.82999992
   15.41083336  153.76800537    2.86999989    2.84999990
   15.41138840  157.97399902    2.82999992    2.84999990
   15.41722298  157.97399902    2.91000009    2.84999990
   15.42138958  153.72500610    2.94000006    2.82999992
   15.42472267  156.18299866    2.91000009    2.84999990
   15.42777824  156.28799438    2.89000010    2.84999990
   15.43111134  153.75599670    2.84999990    2.84999990
   15.43444443  154.08500671    2.91000009    2.84999990
   15.43750000  144.10499573    2.86999989    2.86999989
   15.44083309  153.25199890    2.93000007    2.84999990
   15.44416714  158.52099609    2.93000007    2.84999990
   15.44499969  153.37699890    2.93000007    2.84999990
   15.44750023  152.05400085    2.94000006    2.84999990
   15.45083332  148.16299438    2.96000004    2.84999990
   15.45416641  172.29100037    2.93000007    2.84999990
   15.46027756  172.29100037    2.89000010    2.84999990
   15.46416664  145.09399414    2.86999989    2.84999990
   15.46749973  148.50100708    2.94000006    2.84999990
   15.47083282  151.94799805    2.94000006    2.82999992
   15.47388840  154.57299805    2.94000006    2.84999990
   15.47722149  149.53300476    2.94000006    2.84999990
   15.47833252  152.51699829    2.98000002    2.82999992
   15.48083305  153.12399292    3.01999998    2.82999992
   15.48416710  151.85600281    3.03999996    2.84999990
   15.48722267  154.98300171    3.05999994    2.82999992
   15.49055576  157.74400330    3.09999990    2.84999990
   15.49388885  152.29499817    3.18000007    2.84999990
   15.49694443  148.86500549    3.20000005    2.84999990
   15.50305557  148.86500549    3.21000004    2.82999992
   15.50722218  149.29299927    3.20000005    2.84999990
   15.51027775  149.29600525    3.18000007    2.84999990
   15.51166630  157.26600647    3.16000009    2.84999990
   15.51388931  149.73599243    3.14000010    2.84999990
   15.51722240  150.96800232    3.16000009    2.84999990
   15.52027798  154.29499817    3.18000007    2.82999992
   15.52361107  153.17799377    3.14000010    2.82999992
   15.52694416  152.63600159    3.07999992    2.84999990
   15.53027725  148.67599487    3.09999990    2.84999990
   15.53333378  163.91600037    3.05999994    2.84999990
   15.53666687  151.44099426    3.07999992    2.84999990
   15.53972244  153.62300110    3.03999996    2.84999990
   15.54583359  153.62300110    2.98000002    2.84999990
   15.55000019  154.46899414    3.00000000    2.84999990
   15.55333328  151.68800354    2.94000006    2.84999990
   15.55638885  157.15699768    2.98000002    2.82999992
   15.55972195  152.55900574    2.98000002    2.84999990
   15.56277752  155.34399414    3.00000000    2.84999990
   15.56611156  152.64100647    2.98000002    2.84999990
   15.56944466  162.86799622    2.98000002    2.84999990
   15.57250023  151.14799500    2.98000002    2.84999990
   15.57583332  153.03900146    3.01999998    2.84999990
   15.57833290  163.25000000    3.03999996    2.84999990
   15.57944393  150.85699463    3.09999990    2.84999990
   15.58277798  158.26899719    3.18000007    2.84999990
   15.58861065  158.26899719    3.23000002    2.84999990
   15.59277725  147.77400208    3.26999998    2.82999992
   15.59611034  146.55000305    3.30999994    2.84999990
   15.59916592  148.09399414    3.32999992    2.84999990
   15.60249996  162.52699280    3.36999989    2.84999990
   15.60583401  157.86999512    3.39000010    2.84999990
   15.60888958  151.17500305    3.36999989    2.84999990
   15.61166668  148.33200073    3.41000009    2.84999990
   15.61250019  159.28599548    3.43000007    2.84999990
   15.61583328  152.13600159    3.45000005    2.84999990
   15.61888885  147.45399475    3.45000005    2.84999990
   15.62222195  148.88200378    3.45000005    2.82999992
   15.62555599  157.45700073    3.45000005    2.82999992
   15.63138866  157.45700073    3.39000010    2.84999990
   15.63555527  151.30200195    3.34999990    2.84999990
   15.63888836  145.78700256    3.32999992    2.82999992
   15.64222240  149.46000671    3.36999989    2.82999992
   15.64499950  159.87600708    3.34999990    2.82999992
   15.64555550  159.72099304    3.34999990    2.82999992
   15.64888859  151.26499939    3.39000010    2.84999990
   15.65194416  155.51499939    3.39000010    2.82999992
   15.65527725  151.59599304    3.43000007    2.82999992
   15.65861034  158.09800720    3.45000005    2.82999992
   15.66166592  149.84800720    3.48000002    2.82999992
   15.66499996  155.30400085    3.46000004    2.82999992
   15.66833401  152.88999939    3.50000000    2.82999992
   15.67444515  152.88999939    3.59999990    2.82999992
   15.67861176  160.61599731    3.61999989    2.82999992
   15.68166733  152.70100403    3.68000007    2.82999992
   15.68500042  149.74000549    3.66000009    2.82999992
   15.68833351  158.22700500    3.68000007    2.82999992
   15.69138908  158.19599915    3.66000009    2.84999990
   15.69472218  144.75999451    3.64000010    2.84999990
   15.69777775  144.76100159    3.59999990    2.84999990
   15.70111084  159.19000244    3.66000009    2.84999990
   15.70444393  154.95599365    3.66000009    2.82999992
   15.70749950  143.36799622    3.68000007    2.84999990
   15.71083355  148.23899841    3.59999990    2.84999990
   15.71166611  146.94000244    3.59999990    2.84999990
   15.71722221  146.94000244    3.50000000    2.86999989
   15.72138882  148.59199524    3.50000000    2.84999990
   15.72444439  144.75799561    3.45000005    2.84999990
   15.72777748  148.08799744    3.43000007    2.86999989
   15.73111057  148.67900085    3.34999990    2.84999990
   15.73416710  147.26899719    3.34999990    2.84999990
   15.73750019  153.26800537    3.28999996    2.86999989
   15.74083328  148.05599976    3.30999994    2.84999990
   15.74388885  153.73800659    3.34999990    2.84999990
   15.74499989  142.57400513    3.34999990    2.84999990
   15.74750042  140.44299316    3.34999990    2.84999990
   15.75083351  142.46000671    3.28999996    2.84999990
   15.75416660  138.56599426    3.34999990    2.86999989
   15.76000023  138.56599426    3.46000004    2.84999990
   15.76416683  148.56399536    3.46000004    2.86999989
   15.76749992  149.85499573    3.50000000    2.86999989
   15.77055550  146.14500427    3.55999994    2.86999989
   15.77388859  148.91499329    4.90999985    2.86999989
   15.77722168  142.61099243    4.90999985    2.84999990
   15.77833271  147.54299927    4.90999985    2.84999990
   15.78055573  156.99099731    4.90999985    2.84999990
   15.78388977  141.18299866    4.90999985    2.84999990
   15.78722286  157.09100342    4.90999985    2.86999989
   15.79027843  149.72599792    4.90999985    2.86999989
   15.79361153  141.67399597    4.90999985    2.86999989
   15.79666710  135.51400757    4.90999985    2.84999990
   15.80277824  135.51400757    4.90999985    2.84999990
   15.80694485  144.44599915    4.90999985    2.86999989
   15.81027794  148.01699829    4.90999985    2.84999990
   15.81166649  152.46099854    4.90999985    2.84999990
   15.81388950  146.20799255    4.90999985    2.86999989
   15.81722260  156.59899902    4.90999985    2.84999990
   15.82055569  144.15600586    4.90999985    2.84999990
   15.82361126  145.32899475    4.90999985    2.84999990
   15.82694435  141.21699524    4.90999985    2.84999990
   15.82999992  149.52299500    4.90999985    2.84999990
   15.83333302  153.98300171    4.90999985    2.84999990
   15.83666611  153.53300476    4.90999985    2.84999990
   15.83972168  159.42700195    4.90999985    2.84999990
   15.84583282  159.42700195    4.90999985    2.86999989
   15.85000038  147.31399536    4.90999985    2.86999989
   15.85305595  141.04600525    4.90999985    2.84999990
   15.85638905  142.36199951    4.90999985    2.84999990
   15.85944462  146.43699646    4.90999985    2.84999990
   15.86277771  143.03700256    4.90999985    2.84999990
   15.86611176  143.85699463    4.90999985    2.82999992
   15.86916637  146.95100403    4.90999985    2.84999990
   15.87250042  148.17399597    4.90999985    2.84999990
   15.87583351  147.48800659    4.90999985    2.82999992
   15.87833309  142.42100525    4.90999985    2.84999990
   15.87916660  150.53199768    4.90999985    2.84999990
   15.88249969  146.10099792    4.90999985    2.84999990
   15.88861084  146.10099792    4.90999985    2.84999990
   15.89277744  140.21800232    4.90999985    2.84999990
   15.89583302  140.65400696    4.90999985    2.84999990
   15.89916611  138.78199768    4.90999985    2.84999990
   15.90249920  140.00199890    4.90999985    2.84999990
   15.90555477  139.99200439    4.90999985    2.84999990
   15.90888882  143.84199524    4.90999985    2.84999990
   15.91166592  145.14399719    4.90999985    2.84999990
   15.91249943  142.02299500    4.90999985    2.86999989
   15.91583252  142.19900513    4.90999985    2.86999989
   15.91916656  135.86500549    4.90999985    2.86999989
   15.92222214  143.61199951    4.90999985    2.86999989
   15.92555618  140.24899292    4.90999985    2.84999990
   15.93138885  140.24899292    4.90999985    2.86999989
   15.93555546  144.87199402    4.90999985    2.84999990
   15.93888855  141.41299438    4.90999985    2.86999989
   15.94194412  153.54899597    4.90999985    2.84999990
   15.94499969  139.01100159    4.90999985    2.86999989
   15.94555569  141.00700378    4.90999985    2.84999990
   15.94888878  147.44799805    4.90999985    2.84999990
   15.95222187  139.84199524    4.90999985    2.84999990
   15.95527744  144.21600342    4.90999985    2.86999989
   15.95861053  150.77200317    4.90999985    2.86999989
   15.96194458  134.42599487    4.90999985    2.86999989
   15.96500015  136.21400452    4.90999985    2.84999990
   15.96833324  137.02699280    4.90999985    2.86999989
   15.97416592  137.02699280    4.90999985    2.84999990
   15.97833252  140.77699280    4.90999985    2.84999990
   15.98166656  143.22999573    4.90999985    2.86999989
   15.98500061  150.43400574    4.90999985    2.84999990
   15.98805618  143.09100342    4.90999985    2.86999989
   15.99138927  141.09399414    4.90999985    2.86999989
   15.99444485  137.85899353    4.90999985    2.86999989
   15.99777794  139.89700317    4.90999985    2.86999989
   16.00111198  138.62300110    4.90999985    2.86999989
   16.00416756  135.11199951    4.90999985    2.86999989
   16.00749969  146.56300354    4.90999985    2.84999990
   16.01083374  137.86999512    4.90999985    2.84999990
   16.01166725  141.16099548    4.90999985    2.84999990
   16.01722145  141.16099548    4.90999985    2.86999989
   16.02138901  138.33900452    4.90999985    2.84999990
   16.02444458  155.98699951    4.90999985    2.84999990
   16.02777672  136.03100586    4.90999985    2.86999989
   16.04527664  138.86099243    4.90999985    2.86999989
   16.04777718  139.71600342    4.90999985    2.86999989
   16.05083275  142.80000305    4.90999985    2.86999989
   16.05416679  146.70399475    4.90999985    2.86999989
   16.06027794  146.70399475    4.90999985    2.86999989
   16.06416512  140.69900513    4.90999985    2.86999989
   16.06750107  140.63699341    4.90999985    2.86999989
   16.07083511  137.99099731    4.90999985    2.86999989
   16.07389069  140.87199402    4.90999985    2.84999990
   16.07722282  143.33999634    4.90999985    2.86999989
   16.07861137  134.85299683    4.90999985    2.84999990
   16.08083344  144.75599670    4.90999985    2.84999990
   16.08416748  137.91200256    4.90999985    2.86999989
   16.08750153  148.77400208    4.90999985    2.86999989
   16.09055710  138.67300415    4.90999985    2.84999990
   16.09388924  134.50399780    4.90999985    2.84999990
   16.09722328  138.30499268    4.90999985    2.86999989
   16.10305595  138.30499268    4.90999985    2.86999989
   16.10722351  135.09500122    4.90999985    2.86999989
   16.11027908  139.03500366    4.90999985    2.84999990
   16.11194420  143.99899292    4.90999985    2.86999989
   16.11388969  139.66099548    4.90999985    2.86999989
   16.11722183  144.89300537    4.90999985    2.86999989
   16.12055588  147.96600342    4.90999985    2.84999990
   16.12361145  140.26800537    4.90999985    2.86999989
   16.12694550  138.56199646    4.90999985    2.86999989
   16.13027763  141.17599487    4.90999985    2.86999989
   16.13333321  135.82299805    4.90999985    2.86999989
   16.13666725  141.40800476    4.90999985    2.86999989
   16.13999939  135.20899963    4.90999985    2.86999989
   16.14583397  135.20899963    4.90999985    2.86999989
   16.14999962  141.55700684    4.90999985    2.86999989
   16.15333366  136.33799744    4.90999985    2.86999989
   16.15638924  136.11700439    4.90999985    2.84999990
   16.15972137  136.89300537    4.90999985    2.86999989
   16.16277695  145.24099731    4.90999985    2.86999989
   16.16611099  135.83700562    4.90999985    2.86999989
   16.16944313  139.16000366    4.90999985    2.86999989
   16.17249870  140.23599243    4.90999985    2.86999989
   16.17583275  142.63499451    4.90999985    2.86999989
   16.17860985  138.36999512    4.90999985    2.86999989
   16.17944336  140.79699707    4.90999985    2.86999989
   16.18277740  138.87100220    4.90999985    2.86999989
   16.18861008  138.87100220    4.90999985    2.86999989
   16.19277763  149.67799377    4.90999985    2.86999989
   16.19610977  133.48599243    4.90999985    2.86999989
   16.19916534  137.31300354    4.90999985    2.86999989
   16.20250130  141.83500671    4.90999985    2.86999989
   16.20583344  142.96600342    4.90999985    2.86999989
   16.20888901  140.57699585    4.90999985    2.89000010
   16.21194458  135.73100281    4.90999985    2.86999989
   16.21277809  136.41000366    4.90999985    2.86999989
   16.21583366  145.89199829    4.90999985    2.86999989
   16.21916771  137.27600098    4.90999985    2.86999989
   16.22249985  144.61799622    4.90999985    2.89000010
   16.22555542  139.41799927    4.90999985    2.86999989
   16.23139000  139.41799927    4.90999985    2.86999989
   16.23555565  140.93699646    4.90999985    2.86999989
   16.23888969  144.38000488    4.90999985    2.86999989
   16.24222183  143.37899780    4.90999985    2.86999989
   16.24527740  141.63200378    4.90999985    2.86999989
   16.24555588  142.99400330    4.90999985    2.86999989
   16.24888992  140.57299805    4.90999985    2.86999989
   16.25222206  144.99299622    4.90999985    2.86999989
   16.25527763  142.45500183    4.90999985    2.86999989
   16.25861168  136.62600708    4.90999985    2.86999989
   16.26194382  141.35899353    4.90999985    2.86999989
   16.26499939  141.16499329    4.90999985    2.86999989
   16.26833344  136.32299805    4.19999981    2.86999989
   16.27444458  136.32299805    4.26999998    2.86999989
   16.27861023  136.33099365    4.38999987    2.86999989
   16.27888870  136.77099609    4.38999987    2.86999989
   16.28222275  136.84899902    4.42999983    2.86999989
   16.28555489  136.40699768    4.42999983    2.86999989
   16.28861046  143.67100525    4.57999992    2.86999989
   16.29194450  144.08399963    4.57999992    2.84999990
   16.29527664  138.87899780    4.57999992    2.84999990
   16.29833221  133.70799255    4.61999989    2.84999990
   16.30166626  140.15499878    4.65999985    2.82999992
   16.30499840  141.13800049    4.63999987    2.82999992
   16.30805397  139.01699829    4.69999981    2.84999990
   16.31138802  132.66900635    4.69999981    2.82999992
   16.31194305  140.70599365    4.69999981    2.82999992
   16.31722260  140.70599365    4.71999979    2.82999992
   16.32139015  140.24600220    4.65999985    2.82999992
   16.32472229  135.68499756    4.73999977    2.82999992
   16.32777786  133.05099487    4.69999981    2.82999992
   16.33111191  137.57400513    4.61999989    2.82999992
   16.33416748  132.93899536    4.57999992    2.82999992
   16.33750153  134.83900452    4.53999996    2.82999992
   16.34083366  136.30000305    4.53999996    2.82999992
   16.34388924  144.38400269    4.51000023    2.82999992
   16.34527779  139.22300720    4.48999977    2.82999992
   16.34777832  140.62300110    4.36999989    2.82999992
   16.35083389  144.53199768    4.36999989    2.82999992
   16.35416794  138.94900513    4.42999983    2.82999992
   16.36000061  138.94900513    4.32999992    2.82999992
   16.36416626  137.68800354    4.44999981    2.80999994
   16.36750031  136.96200562    4.44999981    2.80999994
   16.37055588  141.71099854    4.59999990    2.80999994
   16.37388992  134.92900085    4.59999990    2.78999996
   16.37722206  138.52999878    4.61999989    2.67000008
   16.37861061  143.33200073    4.63999987    2.57999992
   16.38083267  137.07699585    4.69999981    2.48000002
   16.38388824  142.05000305    4.65999985    2.21000004
   16.38722229  138.19099426    4.69999981    1.94000006
   16.39055634  140.33900452    4.73999977    1.63000000
   16.39361191  133.25799561    4.67999983    1.09000003
   16.39694405  137.70899963    4.73999977    0.80000001
   16.40277672  137.70899963    4.69999981    0.25999999
   16.40694427  141.14199829    4.76000023    0.07000000
   16.41027832  143.26300049    4.76000023    0.01000000
   16.41194344  142.92799377    4.76000023    0.01000000
   16.41388893  143.86500549    4.76000023    0.01000000
   16.41694450  146.75999451    4.76000023    0.01000000
   16.42027664  143.32499695    4.76000023    0.01000000
   16.42333221  143.21400452    4.76000023    0.01000000
   16.42666626  140.99400330    4.76000023    0.01000000
   16.43000031  148.66799927    4.76000023    0.01000000
   16.43305397  139.66499329    4.76000023    0.01000000
   16.43638802  139.82200623    4.76000023    0.01000000
   16.43972206  148.09300232    4.76000023    0.01000000
   16.44583321  148.09300232    4.76000023    0.01000000
   16.45000076  144.43699646    4.76000023    0.01000000
   16.45305634  148.45399475    4.76000023    0.01000000
   16.45639038  140.44900513    4.76000023    0.01000000
   16.45944595  154.11099243    4.76000023    0.01000000
   16.46277809  144.33099365    4.76000023    0.01000000
   16.46611214  140.16499329    4.76000023    0.01000000
   16.46916771  141.24400330    4.76000023    0.01000000
   16.47249985  151.83999634    4.76000023    0.01000000
   16.47583389  151.34500122    4.76000023    0.01000000
   16.47861099  141.41700745    4.76000023    0.01000000
   16.47944450  146.23699951    4.76000023    0.01000000
   16.48250008  145.13400269    4.76000023    0.01000000
   16.48861122  145.13400269    4.76000023    0.01000000
   16.49277878  145.76499939    4.76000023    0.01000000
   16.49583435  145.51199341    4.76000023    0.01000000
   16.49916649  146.46499634    4.76000023    0.01000000
   16.50250053  145.67700195    4.76000023    0.01000000
   16.50555611  143.48399353    4.76000023    0.01000000
   16.50888824  143.34399414    4.76000023    0.01000000
   16.51194382  145.89799500    4.76000023    0.01000000
   16.51250076  143.85699463    4.76000023    0.01000000
   16.51555634  145.05900574    4.76000023    0.01000000
   16.51888847  142.07099915    4.76000023    0.01000000
   16.52194405  149.88699341    4.76000023    0.01000000
   16.52527809  142.74000549    4.76000023    0.01000000
   16.53138924  142.74000549    4.76000023    0.01000000
   16.53555489  145.18499756    4.76000023    0.01000000
   16.53888893  142.37100220    4.76000023    0.01000000
   16.54194450  146.37300110    4.76000023    0.01000000
   16.54527664  137.86999512    4.76000023    0.01000000
   16.54583359  141.34899902    4.76000023    0.01000000
   16.54888916  145.51699829    4.76000023    0.01000000
   16.55222130  149.72300720    4.76000023    0.01000000
   16.55527687  145.59500122    4.76000023    0.01000000
   16.55861092  146.14799500    4.76000023    0.01000000
   16.56194305  147.10499573    4.76000023    0.01000000
   16.56499863  145.60400391    4.76000023    0.01000000
   16.56833458  140.82400513    4.76000023    0.01000000
   16.57416725  140.82400513    4.76000023    0.01000000
   16.57833481  149.58399963    4.76000023    0.01000000
   16.57888985  148.48899841    4.76000023    0.01000000
   16.58222389  144.95799255    4.76000023    0.01000000
   16.58527756  139.99899292    4.76000023    0.01000000
   16.58861160  145.48800659    4.76000023    0.01000000
   16.59194565  143.38299561    4.76000023    0.01000000
   16.59500122  144.85499573    4.76000023    0.01000000
   16.59833336  141.01100159    4.76000023    0.01000000
   16.60138893  139.61000061    4.76000023    0.01000000
   16.60472298  144.25999451    4.76000023    0.01000000
   16.60805511  136.66299438    4.76000023    0.01000000
   16.61111069  145.07200623    4.76000023    0.01000000
   16.61222267  148.63400269    4.76000023    0.01000000
   16.61722183  148.63400269    4.76000023    0.01000000
   16.62111092  138.35800171    4.76000023    0.01000000
   16.62444496  152.85000610    4.76000023    0.01000000
   16.62777710  145.21800232    4.76000023    0.01000000
   16.63083267  140.65899658    4.76000023    0.01000000
   16.63416672  139.35699463    4.76000023    0.01000000
   16.63750076  139.46200562    4.76000023    0.01000000
   16.64055634  145.66200256    4.76000023    0.01000000
   16.64388847  143.83999634    4.76000023    0.01000000
   16.64555550  146.95899963    4.76000023    0.01000000
   16.64749908  140.41200256    4.76000023    0.01000000
   16.65055466  141.65299988    4.76000023    0.01000000
   16.65388870  146.94299316    4.76000023    0.01000000
   16.65999985  146.94299316    4.76000023    0.01000000
   16.66416550  147.29800415    4.76000023    0.01000000
   16.66722107  148.95199585    4.76000023    0.01000000
   16.67055511  146.75100708    4.76000023    0.01000000
   16.67388916  141.87800598    4.76000023    0.01000000
   16.67694473  151.92799377    4.76000023    0.01000000
   16.67888832  151.17199707    4.76000023    0.01000000
   16.68083191  145.28300476    4.76000023    0.01000000
   16.68388748  140.79600525    4.76000023    0.01000000
   16.68722153  151.91200256    4.76000023    0.01000000
   16.69055557  151.25700378    4.76000023    0.01000000
   16.69361115  149.37199402    4.76000023    0.01000000
   16.69694328  146.58999634    4.76000023    0.01000000
   16.70277786  146.58999634    4.76000023    0.01000000
   16.70694542  148.93899536    4.76000023    0.01000000
   16.71027946  143.74600220    4.76000023    0.01000000
   16.71222305  150.14199829    4.76000023    0.01000000
   16.71389008  150.78399658    4.76000023    0.01000000
   16.71694565  148.07400513    4.76000023    0.01000000
   16.72027779  157.46800232    4.76000023    0.01000000
   16.72361183  145.72700500    4.76000023    0.01000000
   16.72666740  147.27600098    4.76000023    0.01000000
   16.73000145  146.53500366    4.76000023    0.01000000
   16.73333359  151.25599670    4.76000023    0.01000000
   16.73638916  147.46000671    4.76000023    0.01000000
   16.73972321  152.63499451    4.76000023    0.01000000
   16.74555588  152.63499451    4.76000023    0.01000000
   16.74972153  148.78799438    4.76000023    0.01000000
   16.75305557  152.44799805    4.76000023    0.01000000
   16.75611115  151.91099548    4.76000023    0.01000000
   16.75944519  146.53399658    4.76000023    0.01000000
   16.76277733  147.51600647    4.76000023    0.01000000
   16.76583290  149.27099609    4.76000023    0.01000000
   16.76916695  144.63099670    4.76000023    0.01000000
   16.77249908  142.37199402    4.76000023    0.01000000
   16.77555466  154.55599976    4.76000023    0.01000000
   16.77888870  142.58999634    4.76000023    0.01000000
   16.77944374  139.83399963    4.76000023    0.01000000
   16.78249931  144.45399475    4.76000023    0.01000000
   16.78861046  144.45399475    4.76000023    0.01000000
   16.79249954  144.95799255    4.76000023    0.01000000
   16.79583359  148.33000183    4.76000023    0.01000000
   16.79916573  147.42799377    4.76000023    0.01000000
   16.80222130  143.95199585    4.76000023    0.01000000
   16.80555534  147.06799316    4.76000023    0.01000000
   16.80888748  149.78399658    4.76000023    0.01000000
   16.81222153  151.71699524    4.76000023    0.01000000
   16.81277657  150.60099792    4.76000023    0.01000000
   16.81583214  149.46499634    4.76000023    0.01000000
   16.81944466  140.93499756    4.76000023    0.01000000
   16.82250023  149.53900146    4.76000023    0.01000000
   16.82583427  144.80599976    4.76000023    0.01000000
   16.83139038  144.80599976    4.76000023    0.01000000
   16.83555603  147.24800110    4.76000023    0.01000000
   16.83861160  137.23899841    4.76000023    0.01000000
   16.84194565  142.20799255    4.76000023    0.01000000
   16.84527779  149.55299377    4.76000023    0.01000000
   16.84611130  147.10499573    4.76000023    0.01000000
   16.84889030  145.21299744    4.76000023    0.01000000
   16.85222244  147.79400635    4.76000023    0.01000000
   16.85527802  143.01100159    4.76000023    0.01000000
   16.85861206  145.35400391    4.76000023    0.01000000
   16.86166763  145.07499695    4.76000023    0.01000000
   16.86499977  142.01800537    4.76000023    0.01000000
   16.86833382  142.16600037    4.76000023    0.01000000
   16.87416649  142.16600037    4.76000023    0.01000000
   16.87833405  141.38499451    4.76000023    0.01000000
   16.87944412  145.80900574    4.76000023    0.01000000
   16.88194466  146.46299744    4.76000023    0.01000000
   16.88527679  145.44400024    4.76000023    0.01000000
   16.88833237  147.21699524    4.76000023    0.01000000
   16.89166641  149.15499878    4.76000023    0.01000000
   16.89472198  144.81599426    4.76000023    0.01000000
   16.89805603  140.77400208    4.76000023    0.01000000
   16.90138817  137.70300293    4.76000023    0.01000000
   16.90444374  147.82600403    4.76000023    0.01000000
   16.90777779  147.86999512    4.76000023    0.01000000
   16.91110992  140.47000122    4.76000023    0.01000000
   16.91277695  139.77000427    4.76000023    0.01000000
   16.91694450  139.77000427    4.76000023    0.01000000
   16.92111015  145.43200684    4.76000023    0.01000000
   16.92444420  146.49200439    4.76000023    0.01000000
   16.92749977  139.30499268    4.76000023    0.01000000
   16.93083191  149.85800171    4.76000023    0.01000000
   16.93416595  145.36199951    4.76000023    0.01000000
   16.93722153  144.84700012    4.76000023    0.01000000
   16.94055557  143.98500061    4.76000023    0.01000000
   16.94388771  145.78900146    4.76000023    0.01000000
   16.94610977  140.09199524    4.76000023    0.01000000
   16.94749832  140.29600525    4.76000023    0.01000000
   16.95083427  141.71899414    4.76000023    0.01000000
   16.95388985  149.45700073    4.76000023    0.01000000
   16.96000099  149.45700073    4.76000023    0.01000000
   16.96389008  152.31599426    4.76000023    0.01000000
   16.96722221  145.19999695    4.76000023    0.01000000
   16.97055626  151.56300354    4.76000023    0.01000000
   16.97361183  143.77900696    4.76000023    0.01000000
   16.97694588  146.57400513    4.76000023    0.01000000
   16.97944450  148.79100037    4.76000023    0.01000000
   16.98055649  144.03500366    4.76000023    0.01000000
   16.98388863  158.40299988    4.76000023    0.01000000
   16.98694420  145.05999756    4.76000023    0.01000000
   16.99027824  151.02999878    4.76000023    0.01000000
   16.99333382  152.91999817    4.76000023    0.01000000
   16.99666786  146.39300537    4.76000023    0.01000000
   17.00277710  146.39300537    4.76000023    0.01000000
   17.00694466  142.90400696    4.76000023    0.01000000
   17.01000023  146.35600281    4.76000023    0.01000000
   17.01277733  147.96499634    4.76000023    0.01000000
   17.01361084  150.75900269    4.76000023    0.01000000
   17.01694489  144.66299438    4.76000023    0.01000000
   17.02000046  138.40800476    4.76000023    0.01000000
   17.02333260  147.04299927    4.76000023    0.01000000
   17.02638817  153.74499512    4.76000023    0.01000000
   17.02972221  147.59300232    4.76000023    0.01000000
   17.03305435  144.30200195    4.76000023    0.01000000
   17.03610992  146.14100647    4.76000023    0.01000000
   17.03944397  148.26699829    4.76000023    0.01000000
   17.04555511  148.26699829    4.76000023    0.01000000
   17.06388855  140.27299500    4.76000023    0.01000000
   17.06722260  145.19900513    4.76000023    0.01000000
   17.07055664  142.42700195    4.76000023    0.01000000
   17.07361221  146.97500610    4.76000023    0.01000000
   17.07694626  139.70100403    4.76000023    0.01000000
   17.08027840  140.56199646    4.76000023    0.01000000
   17.08333397  136.32699585    4.76000023    0.01000000
   17.08861160  136.32699585    4.76000023    0.01000000
   17.09277916  146.08900452    4.76000023    0.01000000
   17.09611130  136.64100647    4.76000023    0.01000000
   17.09694481  141.09500122    4.76000023    0.01000000
   17.09972191  141.49800110    4.76000023    0.01000000
   17.10305595  140.04400635    4.76000023    0.01000000
   17.10611153  147.13400269    4.76000023    0.01000000
   17.10944557  141.88000488    4.76000023    0.01000000
   17.11277771  147.75700378    4.76000023    0.01000000
   17.11583328  142.35400391    4.76000023    0.01000000
   17.11916733  144.76300049    4.76000023    0.01000000
   17.12222290  144.72000122    4.76000023    0.01000000
   17.12555504  138.10499573    4.76000023    0.01000000
   17.13166618  138.10499573    4.76000023    0.01000000
   17.13555527  141.69999695    4.76000023    0.01000000
   17.13888931  139.21499634    4.76000023    0.01000000
   17.14222145  140.66200256    4.76000023    0.01000000
   17.14527702  144.04200745    4.76000023    0.01000000
   17.14861107  135.23599243    4.76000023    0.01000000
   17.15194321  141.08599854    4.76000023    0.01000000
   17.15499878  142.53999329    4.76000023    0.01000000
   17.15833282  142.03399658    4.76000023    0.01000000
   17.16138840  149.12500000    4.76000023    0.01000000
   17.16361046  140.90400696    4.76000023    0.01000000
   17.16527748  142.98399353    4.76000023    0.01000000
   17.16860962  141.60699463    4.76000023    0.01000000
   17.17444420  141.60699463    4.76000023    0.01000000
   17.17860985  147.50900269    4.76000023    0.01000000
   17.18166542  141.40800476    4.76000023    0.01000000
   17.18499947  144.64100647    4.76000023    0.01000000
   17.18833160  142.61599731    4.76000023    0.01000000
   17.19138718  141.42399597    4.76000023    0.01000000
   17.19472122  137.56599426    4.76000023    0.01000000
   17.19694328  146.32000732    4.76000023    0.01000000
   17.19833183  144.66099548    4.76000023    0.01000000
   17.20166779  138.46899414    4.76000023    0.01000000
   17.20472336  157.69900513    4.76000023    0.01000000
   17.20805550  136.26699829    4.76000023    0.01000000
   17.21138954  143.48300171    4.76000023    0.01000000
   17.21722221  143.48300171    4.76000023    0.01000000
   17.22138977  139.30000305    4.76000023    0.01000000
   17.22472191  135.24400330    4.76000023    0.01000000
   17.22777748  141.87899780    4.76000023    0.01000000
   17.23027802  150.84199524    4.76000023    0.01000000
   17.23139000  152.43099976    4.76000023    0.01000000
   17.23472214  132.83500671    4.76000023    0.01000000
   17.23777771  140.58200073    4.76000023    0.01000000
   17.24111176  137.86199951    4.76000023    0.01000000
   17.24444389  143.06399536    4.76000023    0.01000000
   17.24749947  144.87300110    4.76000023    0.01000000
   17.25083351  138.72099304    4.76000023    0.01000000
   17.25416756  137.59500122    4.76000023    0.01000000
   17.26000023  137.59500122    4.76000023    0.01000000
   17.26416588  148.15499878    4.76000023    0.01000000
   17.26749992  143.11399841    4.76000023    0.01000000
   17.27055550  138.80099487    4.76000023    0.01000000
   17.27388954  140.10899353    4.76000023    0.01000000
   17.27722168  145.25599670    4.76000023    0.01000000
   17.28027725  141.02799988    4.76000023    0.01000000
   17.28361130  135.86099243    4.76000023    0.01000000
   17.28694344  140.83099365    4.76000023    0.01000000
   17.28999901  146.54200745    4.76000023    0.01000000
   17.29333305  138.12600708    4.76000023    0.01000000
   17.29638863  142.96699524    4.76000023    0.01000000
   17.29694366  141.85099792    4.76000023    0.01000000
   17.30305481  141.85099792    4.76000023    0.01000000
   17.30694389  136.00799561    4.76000023    0.01000000
   17.31027794  126.28600311    4.76000023    0.01000000
   17.31361008  140.90299988    4.76000023    0.01000000
   17.31666756  142.26600647    4.76000023    0.01000000
   17.32000160  133.18899536    4.76000023    0.01000000
   17.32333374  137.79499817    4.76000023    0.01000000
   17.32638931  137.59700012    4.76000023    0.01000000
   17.32972336  141.45100403    4.76000023    0.01000000
   17.33027840  141.86000061    4.76000023    0.01000000
   17.33333397  147.14199829    4.76000023    0.01000000
   17.33666801  140.16200256    4.76000023    0.01000000
   17.33972359  143.61599731    4.76000023    0.01000000
   17.34583473  143.61599731    4.76000023    0.01000000
   17.35000038  137.70199585    4.76000023    0.01000000
   17.35305595  140.81700134    4.76000023    0.01000000
   17.35639000  134.43800354    4.76000023    0.01000000
   17.35972214  144.71400452    4.76000023    0.01000000
   17.36277771  146.98399353    4.76000023    0.01000000
   17.36388969  140.13499451    4.76000023    0.01000000
   17.36638832  140.14100647    4.76000023    0.01000000
   17.36972237  141.18099976    4.76000023    0.01000000
   17.37277794  142.53700256    4.76000023    0.01000000
   17.37611198  141.72799683    4.76000023    0.01000000
   17.37944412  144.20700073    4.76000023    0.01000000
   17.38249969  138.77999878    4.76000023    0.01000000
   17.38861084  138.77999878    4.76000023    0.01000000
