    HOUR (UT)   FLARE FACTOR    SKY TESTER    SUN TESTER
   12.25722218   -1.00000000   -1.00000000   -1.00000000
   12.28444481  158.39300537    1.78999996    1.78999996
   12.28777790  164.27299500    1.78999996    1.78999996
   12.29083347  173.47999573    1.80999994    1.80999994
   12.29416752  165.64199829    1.78999996    1.80999994
   12.29750061  161.25799561    1.80999994    1.80999994
   12.30055618  175.54400635    1.78999996    1.80999994
   12.30472279  175.54400635    1.80999994    1.80999994
   12.30888939  173.43299866    1.80999994    1.80999994
   12.31222248  174.34100342    1.80999994    1.80999994
   12.31527805  174.06900024    1.80999994    1.80999994
   12.31777763  179.09599304    1.83000004    1.80999994
   12.31916618  169.55999756    1.83000004    1.80999994
   12.32222176  165.84800720    1.85000002    1.83000004
   12.32555580  172.45599365    1.86000001    1.85000002
   12.32861137  161.42799377    1.86000001    1.85000002
   12.33194447  161.38600159    1.88000000    1.85000002
   12.33527756  169.97599792    1.89999998    1.85000002
   12.33833313  162.81500244    1.89999998    1.85000002
   12.34166622  162.79699707    1.91999996    1.85000002
   12.34749985  162.79699707    1.91999996    1.86000001
   12.35166740  161.72300720    1.91999996    1.86000001
   12.35500050  161.88999939    1.94000006    1.86000001
   12.35805607  160.72300720    1.94000006    1.86000001
   12.36138916  160.72099304    1.94000006    1.88000000
   12.36472225  164.91200256    1.94000006    1.88000000
   12.36777782  160.83399963    1.94000006    1.88000000
   12.37111092  157.64599609    1.94000006    1.88000000
   12.37444496  157.17100525    1.94000006    1.88000000
   12.37750053  164.13400269    1.91999996    1.88000000
   12.38083363  162.32000732    1.89999998    1.88000000
   12.38388920  161.93200684    1.88000000    1.86000001
   12.38444424  160.87399292    1.88000000    1.86000001
   12.39055538  160.87399292    1.86000001    1.85000002
   12.39444447  167.44400024    1.83000004    1.85000002
   12.39777756  161.55299377    1.80999994    1.85000002
   12.40111065  158.69000244    1.78999996    1.85000002
   12.40416622  170.33200073    1.76999998    1.83000004
   12.40749931  163.89700317    1.75000000    1.85000002
   12.41083336  160.76699829    1.73000002    1.83000004
   12.41388893  159.97799683    1.73000002    1.83000004
   12.41722298  158.97300720    4.90999985    1.89999998
   12.41777802  157.40400696    4.90999985    1.88000000
   12.42083359  162.20799255    4.90999985    1.88000000
   12.42416668  156.40499878    4.90999985    1.88000000
   12.42722225  162.89599609    4.90999985    1.88000000
   12.43333340  162.89599609    4.90999985    1.89999998
   12.43750000  177.00100708    4.90999985    1.88000000
   12.44055557  242.00599670    4.90999985    1.88000000
   12.44388866  181.13800049    4.90999985    1.88000000
   12.44722271  204.61700439    4.90999985    1.88000000
   12.45027733  175.41600037    4.90999985    1.88000000
   12.45111084  168.44000244    4.90999985    1.89999998
   12.45388889  192.03300476    4.90999985    1.88000000
   12.45722198  165.49200439    4.90999985    1.88000000
   12.46027756  183.92799377    4.90999985    1.88000000
   12.46361065  159.34800720    4.90999985    1.89999998
   12.46694374  178.07899475    4.90999985    1.89999998
   12.46999931  186.18400574    4.90999985    1.89999998
   12.47611046  186.18400574    4.90999985    1.89999998
   12.48027706  203.94599915    4.90999985    1.91999996
   12.48361111  214.27000427    4.90999985    1.89999998
   12.48444462  228.45399475    4.90999985    1.89999998
   12.48722267  176.64799500    4.90999985    1.89999998
   12.49055576  210.75599670    4.90999985    1.89999998
   12.49361134  223.07299805    4.90999985    1.89999998
   12.49694443  210.74899292    4.90999985    1.89999998
   12.50027752  201.47099304    4.90999985    1.89999998
   12.50333309  182.27400208    4.90999985    1.89999998
   12.50666714  211.87300110    4.90999985    1.89999998
   12.51027775  184.68400574    4.90999985    1.89999998
   12.51333332  173.11300659    4.90999985    1.89999998
   12.51888847  173.11300659    4.90999985    1.91999996
   12.52305508  232.86599731    4.90999985    1.89999998
   12.52638817  196.12199402    4.90999985    1.91999996
   12.52972221  195.77900696    4.90999985    1.91999996
   12.53277779  158.49099731    4.90999985    1.94000006
   12.53611183  189.65600586    4.90999985    1.94000006
   12.53916740  159.53700256    4.90999985    1.94000006
   12.54250050  188.14999390    4.90999985    1.94000006
   12.54583359  183.14500427    4.90999985    1.91999996
   12.54888916  192.48800659    4.90999985    1.91999996
   12.55111122  182.22300720    4.90999985    1.91999996
   12.55249977  257.68499756    4.90999985    1.91999996
   12.55583382  231.07699585    4.90999985    1.91999996
   12.56194496  231.07699585    4.90999985    1.91999996
   12.56611156  176.47200012    4.90999985    1.91999996
   12.56916618  184.05599976    4.90999985    1.91999996
   12.57250023  230.70100403    4.90999985    1.94000006
   12.57555580  211.25300598    4.90999985    1.94000006
   12.57888889  182.93299866    4.90999985    1.94000006
   12.58222198  188.46899414    4.90999985    1.94000006
   12.58444405  164.59500122    4.90999985    1.94000006
   12.58583260  149.52699280    4.90999985    1.96000004
   12.58916664  180.24899292    4.90999985    1.96000004
   12.59222221  163.81199646    4.90999985    1.96000004
   12.59555531  178.37600708    4.90999985    1.98000002
   12.59888840  172.43699646    4.90999985    1.98000002
   12.60472298  172.43699646    4.90999985    1.98000002
   12.60888958  171.62600708    4.90999985    2.00000000
   12.61194515  151.24000549    4.90999985    1.98000002
   12.61527824  174.63800049    4.90999985    1.98000002
   12.61777782  172.42300415    4.90999985    2.00000000
   12.61888885  159.08500671    4.90999985    1.98000002
   12.62222195  180.66299438    4.90999985    2.00000000
   12.62527752  176.64900208    4.90999985    2.00000000
   12.62861156  164.49899292    4.90999985    1.98000002
   12.63194466  170.54100037    4.90999985    1.96000004
   12.63500023  161.53399658    4.90999985    1.94000006
   12.63833332  156.83799744    4.90999985    1.94000006
   12.64138889  160.55900574    4.90999985    1.96000004
   12.64750004  160.55900574    4.90999985    1.98000002
   12.65166664  142.71499634    4.90999985    1.98000002
   12.65499973  164.06500244    4.90999985    1.98000002
   12.65805531  157.62399292    4.90999985    1.98000002
   12.66138840  163.21299744    4.90999985    1.98000002
   12.66472149  149.50799561    4.90999985    1.98000002
   12.66777802  141.59100342    4.90999985    1.98000002
   12.67111111  158.13400269    4.90999985    1.98000002
   12.67416668  139.22599792    4.90999985    1.96000004
   12.67750072  158.08099365    4.90999985    1.94000006
   12.68083382  153.24499512    4.90999985    1.94000006
   12.68388939  165.87600708    4.90999985    1.94000006
   12.68444443  168.74000549    4.90999985    1.94000006
   12.69027805  168.74000549    4.90999985    1.94000006
   12.69444466  162.86599731    4.90999985    1.94000006
   12.69777775  158.88699341    4.90999985    1.96000004
   12.70111084  183.84399414    4.90999985    1.96000004
   12.70416641  155.01100159    4.90999985    1.96000004
   12.70749950  163.65100098    4.90999985    1.94000006
   12.71055508  171.51100159    4.90999985    1.94000006
   12.71388912  169.44000244    4.90999985    1.96000004
   12.71722221  189.71299744    4.90999985    1.94000006
   12.71777725  176.91000366    4.90999985    1.94000006
   12.72083282  174.45500183    4.90999985    1.91999996
   12.72416592  194.59899902    4.90999985    1.91999996
   12.72722149  179.14100647    4.90999985    1.89999998
   12.73333359  179.14100647    4.90999985    1.86000001
   12.73750019  230.02900696    4.90999985    1.86000001
   12.74055576  224.67199707    4.90999985    1.83000004
   12.74388885  181.52699280    4.90999985    1.85000002
   12.74694443  189.59700012    4.90999985    1.80999994
   12.75027752  201.59800720    4.90999985    1.83000004
   12.75138855  184.03599548    4.90999985    1.83000004
   12.75388908  200.00500488    4.90999985    1.86000001
   12.75722218  217.40800476    4.90999985    1.83000004
   12.76027775  234.71400452    4.90999985    1.80999994
   12.76361084  230.31300354    4.90999985    1.78999996
   12.76694393  269.36300659    4.90999985    1.73000002
   12.76999950  261.60299683    4.90999985    1.71000004
   12.77611065  261.60299683    4.90999985    1.71000004
   12.78027725  261.32199097    4.90999985    1.71000004
   12.78333378  260.07598877    4.90999985    1.71000004
   12.78472233  268.42098999    4.90999985    1.71000004
   12.78694534  257.23400879    4.90999985    1.73000002
   12.79027843  218.71800232    4.90999985    1.76999998
   12.79333401  249.34100342    4.90999985    1.76999998
   12.79666710  254.69999695    4.90999985    1.76999998
   12.80000019  262.71899414    4.90999985    1.78999996
   12.80305576  223.87699890    4.90999985    1.80999994
   12.80638885  287.38900757    4.90999985    1.80999994
   12.80972195  241.32899475    4.90999985    1.78999996
   12.81277752  259.05499268    4.90999985    1.78999996
   12.81888866  259.05499268    4.90999985    1.80999994
   12.82305527  234.56599426    4.90999985    1.83000004
   12.82638836  250.51499939    4.90999985    1.80999994
   12.82944393  262.98999023    4.90999985    1.80999994
   12.83277798  234.37899780    4.90999985    1.80999994
   12.83611107  255.89799500    4.90999985    1.78999996
   12.83916664  239.11300659    4.90999985    1.78999996
   12.84249973  258.82400513    4.90999985    1.78999996
   12.84555531  251.59899902    4.90999985    1.76999998
   12.84888840  249.79600525    4.90999985    1.76999998
   12.85138893  240.30200195    4.90999985    1.78999996
   12.85249996  234.87199402    4.90999985    1.78999996
   12.85583401  206.36500549    4.90999985    1.80999994
   12.86166668  206.36500549    4.90999985    1.86000001
   12.86583328  184.47099304    4.90999985    1.89999998
   12.86916637  178.20599365    4.90999985    1.91999996
   12.87250042  168.94999695    4.90999985    1.94000006
   12.87555599  171.75199890    4.90999985    1.94000006
   12.87888908  166.44799805    4.90999985    1.94000006
   12.88222218  164.58599854    4.90999985    1.96000004
   12.88472176  175.72799683    4.90999985    2.00000000
   12.88583279  159.83900452    4.90999985    2.00000000
   12.88916683  164.14599609    4.90999985    1.98000002
   12.89222240  165.26199341    4.90999985    1.96000004
   12.89555550  168.07000732    4.90999985    1.98000002
   12.89888859  172.33000183    4.90999985    1.98000002
   12.90472221  172.33000183    4.90999985    2.01999998
   12.90888882  144.27099609    4.90999985    2.03999996
   12.91194439  141.33099365    4.90999985    2.03999996
   12.91527748  138.85899353    4.90999985    2.03999996
   12.91805553  135.56799316    4.90999985    2.05999994
   12.91888905  137.40199280    4.90999985    2.05999994
   12.92222214  145.93200684    4.90999985    2.05999994
   12.92527771  143.92799377    4.90999985    2.03999996
   12.92861176  140.89199829    4.90999985    2.03999996
   12.93194485  153.02299500    4.90999985    2.05999994
   12.93500042  158.30900574    4.90999985    2.05999994
   12.93833351  135.04100037    4.90999985    2.05999994
   12.94166660  143.42199707    4.90999985    2.05999994
   12.94750023  143.42199707    4.90999985    2.03999996
   12.95166683  135.78700256    4.90999985    2.05999994
   12.95472240  167.78799438    4.90999985    2.07999992
   12.95805550  152.78599548    4.90999985    2.09999990
   12.96138859  148.85000610    4.90999985    2.11999989
   12.96472168  150.35499573    4.90999985    2.11999989
   12.96777725  146.00500488    4.90999985    2.13000011
   12.97111034  147.90299988    4.90999985    2.13000011
   12.97416592  134.45599365    4.90999985    2.15000010
   12.97749996  133.66499329    4.90999985    2.15000010
   12.98083305  137.95300293    4.90999985    2.13000011
   12.98388958  128.85400391    4.90999985    2.15000010
   12.98472214  131.32400513    4.90999985    2.15000010
   12.99027824  131.32400513    4.90999985    2.15000010
   12.99444485  150.66200256    4.90999985    2.15000010
   12.99777794  151.85099792    4.90999985    2.15000010
   13.00083351  155.33099365    4.90999985    2.15000010
   13.00416660  144.85000610    4.90999985    2.17000008
   13.00749969  147.90100098    4.90999985    2.15000010
   13.01055527  152.50799561    4.90999985    2.17000008
   13.01388931  135.19099426    4.90999985    2.17000008
   13.01694393  145.72700500    4.90999985    2.17000008
   13.01805496  148.87100220    4.90999985    2.17000008
   13.02055550  141.67799377    4.90999985    2.17000008
   13.02388859  141.66600037    4.90999985    2.17000008
   13.02722168  139.35000610    4.90999985    2.17000008
   13.03305531  139.35000610    4.90999985    2.17000008
   13.03722286  145.41400146    4.90999985    2.17000008
   13.04055595  137.85699463    4.90999985    2.17000008
   13.04361153  134.92599487    4.90999985    2.17000008
   13.04694462  134.03300476    4.90999985    2.17000008
   13.05027771  139.61300659    4.90999985    2.17000008
   13.05138874  146.72900391    4.90999985    2.17000008
   13.05361176  138.92999268    4.90999985    2.17000008
   13.05694485  133.02900696    4.90999985    2.17000008
   13.06027794  134.97900391    4.90999985    2.19000006
   13.06333351  133.63400269    4.90999985    2.17000008
   13.06666660  135.33399963    4.90999985    2.17000008
   13.06972218  144.38299561    4.90999985    2.13000011
   13.07611084  144.38299561    4.90999985    2.15000010
   13.07999992  149.56300354    4.90999985    2.15000010
   13.08333302  138.33500671    4.90999985    2.17000008
   13.08472157  139.34300232    4.90999985    2.17000008
   13.08694458  142.96499634    4.90999985    2.17000008
   13.09027767  136.78599548    4.90999985    2.17000008
   13.09361076  136.33599854    4.90999985    2.17000008
   13.09666634  133.06199646    4.90999985    2.17000008
   13.10000038  137.03399658    4.90999985    2.19000006
   13.10305595  151.66700745    4.90999985    2.17000008
   13.10638905  141.38099670    4.90999985    2.17000008
   13.10972214  146.46899414    4.90999985    2.17000008
   13.11277771  143.49600220    4.90999985    2.19000006
   13.11888885  143.49600220    4.90999985    2.19000006
   13.12305546  136.19400024    4.90999985    2.21000004
   13.12611103  139.25999451    4.90999985    2.21000004
   13.12944412  130.51699829    4.90999985    2.23000002
   13.13277817  135.44099426    4.90999985    2.21000004
   13.13583279  139.23100281    4.90999985    2.21000004
   13.13916683  152.48599243    4.90999985    2.19000006
   13.14249992  129.51499939    4.90999985    2.19000006
   13.14555550  147.08700562    4.90999985    2.19000006
   13.14888859  137.92599487    4.90999985    2.17000008
   13.15138817  142.08000183    4.90999985    2.17000008
   13.15249920  134.97200012    4.90999985    2.17000008
   13.15583324  136.02699280    4.90999985    2.19000006
   13.16166592  136.02699280    4.90999985    2.19000006
   13.16583252  133.42999268    4.90999985    2.19000006
   13.16916656  136.33000183    4.90999985    2.19000006
   13.17222214  138.14799500    4.90999985    2.21000004
   13.17555618  140.45399475    4.90999985    2.21000004
   13.17861176  142.85099792    4.90999985    2.21000004
   13.18194485  137.95700073    4.90999985    2.21000004
   13.18472195  144.08900452    4.90999985    2.23000002
   13.18555546  137.86000061    4.90999985    2.23000002
   13.18888855  137.50399780    4.90999985    2.23000002
   13.19222260  130.43400574    4.90999985    2.21000004
   13.19527817  132.90499878    4.90999985    2.23000002
   13.19861126  144.90800476    4.90999985    2.23000002
   13.20444393  144.90800476    4.90999985    2.23000002
   13.20861053  139.33399963    4.90999985    2.23000002
   13.21194458  141.30000305    4.90999985    2.23000002
   13.21500015  141.61300659    4.90999985    2.23000002
   13.21805477  131.11999512    4.90999985    2.25000000
   13.21861076  139.10800171    4.90999985    2.25000000
   13.22194386  146.55099487    4.90999985    2.25000000
   13.22527695  136.52600098    4.90999985    2.25000000
   13.22833252  140.88900757    4.90999985    2.25000000
   13.23166656  136.03199768    4.90999985    2.25000000
   13.23472214  140.27699280    4.90999985    2.25000000
   13.23805618  140.41799927    4.90999985    2.25000000
   13.24138927  132.97799683    4.90999985    2.25000000
   13.24750042  132.97799683    4.90999985    2.25000000
   13.25138855  131.34300232    4.90999985    2.26999998
   13.25472260  132.19200134    4.90999985    2.26999998
   13.25805569  128.29200745    4.90999985    2.26999998
   13.26111126  131.02400208    4.90999985    2.26999998
   13.26444435  135.85200500    4.90999985    2.26999998
   13.26777744  134.93800354    4.90999985    2.26999998
   13.27083302  133.78900146    4.90999985    2.28999996
   13.27416611  139.36300659    4.90999985    2.28999996
   13.27722168  130.95399475    4.90999985    2.28999996
   13.28055573  130.26600647    4.90999985    2.26999998
   13.28388977  144.95599365    4.90999985    2.28999996
   13.28472233  129.38200378    4.90999985    2.26999998
   13.30527782  129.38200378    4.90999985    2.28999996
   13.30944443  135.09100342    4.90999985    2.28999996
   13.31277752  134.45700073    4.90999985    2.28999996
   13.31583309  128.02200317    4.90999985    2.28999996
   13.31805515  143.58700562    4.90999985    2.28999996
   13.31944466  129.43600464    4.90999985    2.28999996
   13.32277775  134.82699585    4.90999985    2.28999996
   13.32611084  131.86300659    4.90999985    2.28999996
   13.32916641  135.32800293    4.90999985    2.28999996
   13.33249950  131.13299561    4.90999985    2.28999996
   13.33583260  123.00099945    4.90999985    2.28999996
   13.33888817  135.09399414    4.90999985    2.28999996
   13.34222221  135.15800476    4.90999985    2.26999998
   13.34805489  135.15800476    4.90999985    2.26999998
   13.35222244  134.37600708    4.90999985    2.26999998
   13.35555553  133.28399658    4.90999985    2.26999998
   13.35861111  134.33500671    4.90999985    2.26999998
   13.36194515  134.32400513    4.90999985    2.28999996
   13.36527824  141.46699524    4.90999985    2.26999998
   13.36833382  128.20399475    4.90999985    2.28999996
   13.37166691  135.88000488    4.90999985    2.30999994
   13.37472248  127.53500366    4.90999985    2.28999996
   13.37805557  133.30499268    4.90999985    2.28999996
   13.38138866  132.86799622    4.90999985    2.28999996
   13.38444424  133.54499817    4.90999985    2.28999996
   13.38500023  133.33599854    4.90999985    2.28999996
   13.39083290  133.33599854    4.90999985    2.26999998
   13.39499950  129.98399353    4.90999985    2.28999996
   13.39833355  136.30400085    4.90999985    2.26999998
   13.40166664  125.04900360    4.90999985    2.26999998
   13.40472221  131.95899963    4.90999985    2.26999998
   13.40805531  133.16099548    4.90999985    2.26999998
   13.41111088  146.65100098    4.90999985    2.28999996
   13.41444397  131.49400330    4.90999985    2.28999996
   13.41777802  135.83299255    4.90999985    2.28999996
   13.41833401  136.46099854    4.90999985    2.28999996
   13.42138958  137.33599854    4.90999985    2.28999996
   13.42472267  139.98199463    4.90999985    2.28999996
   13.42777824  144.43299866    4.90999985    2.28999996
   13.43388939  144.43299866    4.90999985    2.28999996
   13.43805599  138.09300232    4.90999985    2.28999996
   13.44111156  134.29699707    4.90999985    2.30999994
   13.44444466  135.09700012    4.90999985    2.30999994
   13.44750023  133.90299988    4.90999985    2.30999994
   13.45083332  128.35299683    4.90999985    2.28999996
   13.45166683  140.27600098    4.90999985    2.30999994
   13.45444393  135.29800415    4.90999985    2.30999994
   13.45749950  130.08900452    4.90999985    2.30999994
   13.46083355  125.27300262    4.90999985    2.30999994
   13.46416664  136.23199463    4.90999985    2.30999994
   13.46722221  132.70599365    4.90999985    2.30999994
   13.47055531  131.87100220    4.90999985    2.30999994
   13.47666645  131.87100220    4.90999985    2.30999994
   13.48083305  134.62399292    4.90999985    2.32999992
   13.48388958  144.45100403    4.90999985    2.32999992
   13.48500061  127.94100189    4.90999985    2.30999994
   13.48777771  130.73199463    4.90999985    2.30999994
   13.49083328  141.33799744    4.90999985    2.30999994
   13.49416733  129.81399536    4.90999985    2.30999994
   13.49750042  133.95300293    4.90999985    2.30999994
   13.50055599  145.85400391    4.90999985    2.30999994
   13.50388908  127.99099731    4.90999985    2.30999994
   13.50722218  134.68899536    4.90999985    2.30999994
   13.51027775  132.88299561    4.90999985    2.30999994
   13.51361084  135.96000671    4.90999985    2.32999992
   13.51944447  135.96000671    4.90999985    2.30999994
   13.52361107  129.83200073    4.90999985    2.30999994
   13.52694416  134.90299988    4.90999985    2.30999994
   13.52999973  138.30599976    4.90999985    2.30999994
   13.53333378  129.38499451    4.90999985    2.30999994
   13.53666687  128.73500061    4.90999985    2.30999994
   13.53972244  150.63099670    4.90999985    2.28999996
   13.54305553  138.59399414    4.90999985    2.28999996
   13.54611111  140.01300049    4.90999985    2.28999996
   13.54944515  134.13800049    4.90999985    2.28999996
   13.55166721  134.29699707    4.90999985    2.28999996
   13.55305576  126.80599976    4.90999985    2.28999996
   13.55638885  133.96299744    4.90999985    2.28999996
   13.56222248  133.96299744    4.90999985    2.28999996
   13.56638908  135.61599731    4.90999985    2.28999996
   13.56972218  131.31399536    4.90999985    2.28999996
   13.57305527  126.05699921    4.90999985    2.30999994
   13.57611084  134.33000183    4.90999985    2.28999996
   13.57944393  133.90499878    4.90999985    2.30999994
   13.58249950  129.93400574    4.90999985    2.32999992
   13.58500004  132.23199463    4.90999985    2.32999992
   13.58638859  131.94599915    4.90999985    2.30999994
   13.58972168  134.69700623    4.90999985    2.30999994
   13.59277725  137.58099365    4.90999985    2.32999992
   13.59611034  127.55200195    4.90999985    2.30999994
   13.59916592  134.47399902    4.90999985    2.32999992
   13.60527802  134.47399902    4.90999985    2.32999992
   13.60944462  139.56599426    4.90999985    2.32999992
   13.61250019  123.82299805    4.90999985    2.32999992
   13.61583328  129.76300049    4.90999985    2.32999992
   13.61833382  133.05099487    4.90999985    2.32999992
   13.61944485  121.50499725    4.90999985    2.32999992
   13.62277794  135.89500427    4.90999985    2.34999990
   13.62583351  125.28199768    4.90999985    2.34999990
   13.62916660  125.53600311    4.90999985    2.32999992
   13.63222218  127.14199829    4.90999985    2.34999990
   13.63555527  131.44000244    4.90999985    2.34999990
   13.63888836  126.89199829    4.90999985    2.34999990
   13.64222240  131.00500488    4.90999985    2.34999990
   13.64805508  131.00500488    4.90999985    2.34999990
   13.65222168  131.22300720    4.90999985    2.36999989
   13.65527725  130.18400574    4.90999985    2.34999990
   13.65861034  127.75499725    4.90999985    2.36999989
   13.66194439  128.18499756    4.90999985    2.36999989
   13.66499996  125.47499847    4.90999985    2.34999990
   13.66833401  130.49899292    4.90999985    2.34999990
   13.67166710  140.36700439    4.90999985    2.34999990
   13.67472267  138.52600098    4.90999985    2.36999989
   13.67805576  128.63400269    4.90999985    2.36999989
   13.68111134  125.36000061    4.90999985    2.34999990
   13.68444443  128.56500244    4.90999985    2.34999990
   13.68500042  127.26599884    4.90999985    2.36999989
   13.69083309  127.26599884    4.90999985    2.36999989
   13.69499969  127.51000214    4.90999985    2.36999989
   13.69833374  129.86500549    4.90999985    2.36999989
   13.70138836  124.59700012    4.90999985    2.39000010
   13.70472240  126.68900299    4.90999985    2.36999989
   13.70777798  124.38500214    4.90999985    2.36999989
   13.71111107  128.95799255    4.90999985    2.36999989
   13.71444416  125.87200165    4.90999985    2.36999989
   13.71749973  124.72699738    4.90999985    2.39000010
   13.71833324  122.78399658    4.90999985    2.39000010
   13.72111034  130.19900513    4.90999985    2.39000010
   13.72444439  124.96399689    4.90999985    2.39000010
   13.72749996  126.60099792    4.90999985    2.36999989
   13.73361111  126.60099792    4.90999985    2.39000010
   13.73777771  132.51400757    4.90999985    2.39000010
   13.74111176  126.82199860    4.90999985    2.39000010
   13.74416733  126.50700378    4.90999985    2.39000010
   13.74750042  126.68800354    4.90999985    2.39000010
   13.75083351  124.18199921    4.90999985    2.36999989
   13.75166702  125.97599792    4.90999985    2.39000010
   13.75444412  125.15399933    4.90999985    2.39000010
   13.75777817  134.05200195    4.90999985    2.36999989
   13.76083374  132.05099487    4.90999985    2.39000010
   13.76416683  126.47000122    4.90999985    2.39000010
   13.76722240  132.39300537    4.90999985    2.36999989
   13.77055550  123.55599976    4.90999985    2.39000010
   13.77666664  123.55599976    4.90999985    2.39000010
   13.78055573  128.25199890    4.90999985    2.39000010
   13.78388977  126.89299774    4.90999985    2.39000010
   13.78500080  132.00999451    4.90999985    2.39000010
   13.78750038  123.42700195    4.90999985    2.39000010
   13.79083347  128.74800110    4.90999985    2.39000010
   13.79388905  132.91299438    4.90999985    2.39000010
   13.79722309  124.49099731    4.90999985    2.39000010
   13.80027771  124.23400116    4.90999985    2.39000010
   13.80361176  133.63999939    4.90999985    2.39000010
   13.80694485  136.76899719    4.90999985    2.39000010
   13.81027794  131.74600220    4.90999985    2.39000010
   13.81333351  130.41299438    4.90999985    2.39000010
   13.81944466  130.41299438    4.90999985    2.39000010
   13.82361126  123.26899719    4.90999985    2.39000010
   13.82666683  151.44700623    4.90999985    2.40000010
   13.82999992  134.52499390    4.90999985    2.40000010
   13.83305550  134.13000488    4.90999985    2.40000010
   13.83638859  121.78399658    4.90999985    2.39000010
   13.83972168  139.97000122    4.90999985    2.39000010
   13.84277725  143.49600220    4.90999985    2.39000010
   13.84611034  142.38699341    4.90999985    2.40000010
   13.84944439  134.16299438    4.90999985    2.39000010
   13.85166740  134.65299988    4.90999985    2.40000010
   13.85305595  136.69400024    4.90999985    2.40000010
   13.85638905  138.88499451    4.90999985    2.40000010
   13.86222267  138.88499451    4.90999985    2.40000010
   13.86638927  132.72300720    4.90999985    2.40000010
   13.86944485  139.28599548    4.90999985    2.40000010
   13.87277794  128.78999329    4.90999985    2.40000010
   13.87611103  137.72000122    4.90999985    2.40000010
   13.87916660  139.49600220    4.90999985    2.40000010
   13.88249969  131.09700012    4.90999985    2.40000010
   13.88500023  135.14300537    4.90999985    2.40000010
   13.88611126  138.40699768    4.90999985    2.40000010
   13.88944435  128.20199585    4.90999985    2.40000010
   13.89249992  129.78700256    4.90999985    2.40000010
   13.89583302  125.81700134    4.90999985    2.40000010
   13.89916611  126.23999786    4.90999985    2.40000010
   13.90499973  126.23999786    4.90999985    2.40000010
   13.90916634  142.35899353    4.90999985    2.40000010
   13.91249943  141.69500732    4.90999985    2.40000010
   13.91555500  137.03799438    4.90999985    2.40000010
   13.91833401  134.19099426    4.90999985    2.40000010
   13.91916656  136.83999634    4.90999985    2.40000010
   13.92250061  133.99600220    4.90999985    2.40000010
   13.92555618  136.67900085    4.90999985    2.40000010
   13.92888927  145.08500671    4.90999985    2.40000010
   13.93194485  136.59300232    4.90999985    2.40000010
   13.93527794  133.47799683    4.90999985    2.40000010
   13.93861103  128.14300537    4.90999985    2.40000010
   13.94166660  127.35199738    4.90999985    2.40000010
   13.94805527  127.35199738    4.90999985    2.40000010
   13.95194435  133.22700500    4.90999985    2.40000010
   13.95527744  134.60499573    4.90999985    2.40000010
   13.95861053  135.79400635    4.90999985    2.40000010
   13.96166611  126.76599884    4.90999985    2.40000010
   13.96500015  137.59100342    4.90999985    2.40000010
   13.96805477  134.72099304    4.90999985    2.40000010
   13.97138882  143.83599854    4.90999985    2.40000010
   13.97472191  126.84300232    4.90999985    2.40000010
   13.97777748  131.06300354    4.90999985    2.39000010
   13.98111057  138.13200378    4.90999985    2.39000010
   13.98444462  149.81300354    4.90999985    2.39000010
   13.98500061  141.40600586    4.90999985    2.36999989
   13.99083328  141.40600586    4.90999985    2.36999989
   13.99499989  118.08000183    4.90999985    2.39000010
   13.99805546  143.43400574    4.90999985    2.39000010
   14.00138855  131.79699707    4.90999985    2.39000010
   14.00444412  129.17300415    4.90999985    2.39000010
   14.00777817  148.28399658    4.90999985    2.39000010
   14.01111126  116.12300110    4.90999985    2.36999989
   14.01416683  128.89799500    4.90999985    2.39000010
   14.01749992  128.53399658    4.90999985    2.39000010
   14.01833344  127.98000336    4.90999985    2.39000010
   14.02111053  139.64199829    4.90999985    2.39000010
   14.02444458  132.95500183    4.90999985    2.36999989
   14.02750015  131.47099304    4.90999985    2.39000010
   14.03361130  131.47099304    4.90999985    2.39000010
   14.03777790  132.52200317    4.90999985    2.39000010
   14.04083347  123.01599884    4.90999985    2.36999989
   14.04416752  132.15499878    4.90999985    2.36999989
   14.04750061  133.11000061    4.90999985    2.36999989
   14.05055618  130.61599731    4.90999985    2.34999990
   14.05166721  130.05499268    4.90999985    2.34999990
   14.05416679  133.19299316    4.90999985    2.36999989
   14.05749989  128.40199280    4.90999985    2.34999990
   14.06055546  130.89599609    4.90999985    2.32999992
   14.06388950  125.32499695    4.90999985    2.32999992
   14.06722260  134.83799744    4.90999985    2.30999994
   14.07027817  125.29900360    4.90999985    2.32999992
   14.07638836  125.29900360    4.90999985    2.30999994
   14.08055592  137.83900452    4.90999985    2.30999994
   14.08388901  131.36799622    4.90999985    2.26999998
   14.08500004  131.80400085    4.90999985    2.26999998
   14.08749962  130.55599976    4.90999985    2.26999998
   14.09083271  136.12800598    4.90999985    2.25000000
   14.09388828  129.46200562    4.90999985    2.30999994
   14.09722233  129.92399597    4.90999985    2.32999992
   14.10055637  127.86000061    4.90999985    2.28999996
   14.10361195  126.84500122    4.90999985    2.28999996
   14.10694504  136.40400696    4.90999985    2.25000000
   14.11000061  132.93899536    4.90999985    2.26999998
   14.11333370  137.47900391    4.90999985    2.26999998
   14.11944485  137.47900391    4.90999985    2.28999996
   14.12333393  136.46299744    4.90999985    2.32999992
   14.12666702  139.23599243    4.90999985    2.28999996
   14.13000011  129.49099731    4.90999985    2.25000000
   14.13305569  135.80000305    4.90999985    2.21000004
   14.13638878  131.85400391    4.90999985    2.23000002
   14.13972187  131.72300720    4.90999985    2.28999996
   14.14277744  130.76600647    4.90999985    2.30999994
   14.14611053  126.21299744    4.90999985    2.34999990
   14.14916611  130.86399841    4.90999985    2.36999989
   14.15194416  127.96900177    4.90999985    2.36999989
   14.15277767  131.46299744    4.90999985    2.36999989
   14.15611076  133.09700012    4.90999985    2.36999989
   14.16222191  133.09700012    4.90999985    2.36999989
   14.16638851  130.09399414    4.90999985    2.34999990
   14.16944504  123.79499817    4.90999985    2.36999989
   14.17277813  121.92099762    4.90999985    2.36999989
   14.17583370  130.82699585    4.90999985    2.36999989
   14.17944431  130.26699829    4.90999985    2.39000010
   14.18277836  120.29900360    4.90999985    2.36999989
   14.18527794  124.53500366    4.90999985    2.36999989
   14.18638897  123.76200104    4.90999985    2.39000010
   14.18972206  120.35399628    4.90999985    2.39000010
   14.19277763  128.88000488    4.90999985    2.39000010
   14.19611073  125.76200104    4.90999985    2.39000010
   14.19944477  126.12999725    4.90999985    2.36999989
   14.20499992  126.12999725    4.90999985    2.39000010
   14.20916653  128.38000488    4.90999985    2.40000010
   14.21222210  123.88999939    4.90999985    2.39000010
   14.21555519  126.48999786    4.90999985    2.39000010
   14.21861076  127.35199738    4.90999985    2.39000010
   14.21916580  126.91899872    4.90999985    2.39000010
   14.22249985  124.90299988    4.90999985    2.39000010
   14.22555542  127.25499725    4.90999985    2.39000010
   14.22888851  117.66999817    4.90999985    2.39000010
   14.23222160  120.34899902    4.90999985    2.39000010
   14.23527813  124.66799927    4.90999985    2.39000010
   14.23861122  132.91499329    4.90999985    2.39000010
   14.24194431  124.55400085    4.90999985    2.39000010
   14.24777794  124.55400085    4.90999985    2.40000010
   14.25194454  126.28399658    4.90999985    2.40000010
   14.25527763  121.19599915    4.90999985    2.40000010
   14.25833321  123.93900299    4.90999985    2.39000010
   14.26166630  126.79599762    4.90999985    2.39000010
   14.26500034  123.80300140    4.90999985    2.39000010
   14.26805496  121.75900269    4.90999985    2.39000010
   14.27138901  119.66999817    4.90999985    2.39000010
   14.27444458  129.13400269    4.90999985    2.39000010
   14.27777767  123.85800171    4.90999985    2.40000010
   14.28111076  124.61000061    4.90999985    2.40000010
   14.28416729  127.78800201    4.90999985    2.42000008
   14.28527832  131.04800415    4.90999985    2.42000008
   14.29083347  131.04800415    4.90999985    2.40000010
   14.29472256  125.42900085    4.90999985    2.40000010
   14.29805565  126.72100067    4.90999985    2.40000010
   14.30138874  123.75399780    4.90999985    2.42000008
   14.31888866  121.30599976    4.90999985    2.42000008
   14.32138920  126.25199890    4.90999985    2.40000010
   14.32444477  127.49199677    4.90999985    2.40000010
   14.32777786  126.04000092    4.90999985    2.40000010
   14.33361053  126.04000092    4.90999985    2.42000008
   14.33777714  128.94099426    4.90999985    2.40000010
   14.34111118  129.22399902    4.90999985    2.40000010
   14.34416676  129.44200134    4.90999985    2.36999989
   14.34749985  131.28399658    4.90999985    2.36999989
   14.35083389  126.47299957    4.90999985    2.32999992
   14.35222244  134.90199280    4.90999985    2.32999992
   14.35416698  131.41099548    4.90999985    2.32999992
   14.35750008  119.12899780    4.90999985    2.30999994
   14.36083412  128.96099854    4.90999985    2.30999994
   14.36388969  127.84799957    4.90999985    2.30999994
   14.36722279  131.92799377    4.90999985    2.32999992
   14.37027836  127.39499664    4.90999985    2.30999994
   14.37666702  127.39499664    4.90999985    2.28999996
   14.38083363  145.44099426    4.90999985    2.21000004
   14.38388920  140.89199829    4.90999985    2.17000008
   14.38555527  148.87800598    4.90999985    2.17000008
   14.38749981  143.82400513    4.90999985    2.15000010
   14.39083290  163.26400757    4.90999985    2.09999990
   14.39416695  167.87899780    4.90999985    2.03999996
   14.39750004  136.54200745    4.90999985    2.21000004
   14.40083313  125.31400299    4.90999985    2.25000000
   14.40416622  122.71700287    4.90999985    2.30999994
   14.40722179  120.51200104    4.90999985    2.32999992
   14.41055489  134.39799500    4.90999985    2.34999990
   14.41361046  126.76399994    4.90999985    2.32999992
   14.41944504  126.76399994    4.90999985    2.28999996
   14.42361164  139.87199402    4.90999985    2.25000000
   14.42666721  136.90800476    4.90999985    2.19000006
   14.43000031  141.96800232    4.90999985    2.17000008
   14.43333340  146.71600342    4.90999985    2.15000010
   14.43638897  146.59399414    4.90999985    2.13000011
   14.43972206  153.95899963    4.90999985    2.11999989
   14.44277763  148.48100281    4.90999985    2.09999990
   14.44611073  138.58099365    4.90999985    2.15000010
   14.44944477  138.14300537    4.90999985    2.19000006
   14.45222187  136.46299744    4.90999985    2.21000004
   14.45277786  146.53700256    4.90999985    2.21000004
   14.45611095  131.55599976    4.90999985    2.23000002
   14.46222210  131.55599976    4.90999985    2.25000000
   14.46638870  143.77400208    4.90999985    2.21000004
   14.46972179  142.50900269    4.90999985    2.19000006
   14.47277737  147.73500061    4.90999985    2.15000010
   14.47611046  146.13499451    4.90999985    2.09999990
   14.47944355  151.58599854    4.90999985    2.09999990
   14.48249912  140.14900208    4.90999985    2.11999989
   14.48555565  136.05900574    4.90999985    2.11999989
   14.48638916  128.06700134    4.90999985    2.13000011
   14.48944473  122.94400024    4.90999985    2.21000004
   14.49277782  134.52999878    4.90999985    2.26999998
   14.49583340  126.62799835    4.90999985    2.32999992
   14.49916649  127.32499695    4.90999985    2.32999992
   14.50500011  127.32499695    4.90999985    2.32999992
   14.50916672  126.30200195    4.90999985    2.36999989
   14.51249981  130.92900085    4.90999985    2.36999989
   14.51555538  130.96499634    4.90999985    2.32999992
   14.51888847  130.74099731    4.90999985    2.28999996
   14.51916599  130.32499695    4.90999985    2.28999996
   14.52250004  135.50000000    4.90999985    2.32999992
   14.52583313  130.97799683    4.90999985    2.26999998
   14.52888870  127.91100311    4.90999985    2.25000000
   14.53222179  137.18499756    4.90999985    2.23000002
   14.53527832  139.05099487    4.90999985    2.21000004
   14.53861141  147.93899536    4.90999985    2.15000010
   14.54194450  147.88800049    4.90999985    2.15000010
   14.54805565  147.88800049    4.90999985    2.15000010
   14.55222225  151.89100647    4.90999985    2.09999990
   14.55249977  157.94599915    4.90999985    2.09999990
   14.55583382  172.85800171    4.90999985    2.07999992
   14.55916691  174.99099731    4.90999985    1.98000002
   14.56222248  173.37399292    4.90999985    1.98000002
   14.56555557  188.46299744    4.90999985    1.94000006
   14.56861115  174.01199341    4.90999985    1.96000004
   14.57194424  190.87100220    4.90999985    2.00000000
   14.57527733  193.88800049    4.90999985    1.89999998
   14.57833290  220.56199646    4.90999985    1.89999998
   14.58166695  248.58200073    4.90999985    1.85000002
   14.58500004  275.05801392    4.90999985    1.80999994
   14.58555508  246.71000671    4.90999985    1.78999996
   14.59083271  246.71000671    4.90999985    1.78999996
   14.59499931  229.07800293    4.90999985    1.86000001
   14.59805489  202.20100403    4.90999985    1.86000001
   14.60166740  177.93499756    4.90999985    1.88000000
   14.60500050  207.14900208    4.90999985    1.91999996
   14.60805607  182.09500122    4.90999985    1.94000006
   14.61138916  187.47599792    4.90999985    1.94000006
   14.61472225  174.69900513    4.90999985    1.96000004
   14.61777782  164.87899780    4.90999985    1.96000004
   14.61888885  166.10499573    4.90999985    2.01999998
   14.62138939  164.35899353    4.90999985    2.05999994
   14.62472248  150.84399414    4.90999985    2.09999990
   14.62805557  150.17100525    4.90999985    2.11999989
   14.63361073  150.17100525    4.90999985    2.13000011
   14.63777733  148.41600037    4.90999985    2.13000011
   14.64111137  151.88499451    4.90999985    2.13000011
   14.64416695  140.99400330    4.90999985    2.09999990
   14.64750004  157.64300537    4.90999985    2.11999989
   14.65055561  153.74099731    4.90999985    2.11999989
   14.65222168  147.31700134    4.90999985    2.11999989
   14.65416622  146.29699707    4.90999985    2.13000011
   14.65749931  139.38900757    4.90999985    2.15000010
   14.66083336  143.15600586    4.90999985    2.13000011
   14.66388893  145.76699829    4.90999985    2.19000006
   14.66722298  140.79899597    4.90999985    2.17000008
   14.67055607  144.95799255    4.90999985    2.21000004
   14.67638874  144.95799255    4.90999985    2.21000004
   14.68055630  145.39100647    4.90999985    2.17000008
   14.68388939  141.49000549    4.90999985    2.19000006
   14.68555546  146.58700562    4.90999985    2.23000002
   14.68722248  138.87600708    4.90999985    2.23000002
   14.69055557  143.94999695    4.90999985    2.21000004
   14.69388866  140.43499756    4.90999985    2.19000006
   14.69694424  141.91099548    4.90999985    2.21000004
   14.70027733  139.16099548    4.90999985    2.19000006
   14.70361137  152.15299988    4.90999985    2.17000008
   14.70666695  153.91299438    4.90999985    2.17000008
   14.71000004  139.28799438    4.90999985    2.17000008
   14.71305561  132.92799377    4.90999985    2.19000006
   14.71944427  132.92799377    4.90999985    2.23000002
   14.72333336  133.24899292    4.90999985    2.21000004
   14.72666645  133.18699646    4.90999985    2.28999996
   14.72999954  141.20799255    4.90999985    2.30999994
   14.73305511  133.30799866    4.90999985    2.28999996
   14.73638916  141.67300415    4.90999985    2.32999992
   14.73972225  135.79200745    4.90999985    2.32999992
   14.74277782  135.66099548    4.90999985    2.34999990
   14.74611092  127.61900330    4.90999985    2.34999990
   14.74944496  132.61099243    4.90999985    2.34999990
   14.75222206  117.91899872    4.90999985    2.34999990
   14.75277805  132.48899841    4.90999985    2.34999990
   14.75611115  133.84399414    4.90999985    2.36999989
   14.76222229  133.84399414    4.90999985    2.42000008
   14.76638889  126.36100006    4.90999985    2.44000006
   14.76944447  132.88499451    4.90999985    2.44000006
   14.77277756  129.35600281    4.90999985    2.44000006
   14.77611065  122.97000122    4.90999985    2.46000004
   14.77916622  127.63300323    4.90999985    2.46000004
   14.78249931  119.80200195    4.90999985    2.46000004
   14.78555584  123.79199982    4.90999985    2.46000004
   14.78611183  128.44200134    4.90999985    2.46000004
   14.78916740  131.51100159    4.90999985    2.46000004
   14.79250050  126.17099762    4.90999985    2.44000006
   14.79555607  131.53700256    4.90999985    2.46000004
   14.79888916  124.15299988    4.90999985    2.44000006
   14.80500031  124.15299988    4.90999985    2.44000006
   14.80916691  131.02299500    4.90999985    2.44000006
   14.81250000  124.91899872    4.90999985    2.46000004
   14.81555557  127.95200348    4.90999985    2.46000004
   14.81888866  133.74000549    4.90999985    2.46000004
   14.81916618  133.60499573    4.90999985    2.46000004
   14.82250023  131.69099426    4.90999985    2.44000006
   14.82583332  132.95899963    4.90999985    2.46000004
   14.82888889  130.61300659    4.90999985    2.46000004
   14.83222198  124.29599762    4.90999985    2.46000004
   14.83555508  127.91400146    4.90999985    2.44000006
   14.83861065  127.33499908    4.90999985    2.40000010
   14.84194374  123.30200195    4.90999985    2.39000010
   14.84777737  123.30200195    4.90999985    2.36999989
   14.85194492  130.88200378    4.90999985    2.39000010
   14.85249996  124.94799805    4.90999985    2.39000010
   14.85583401  124.26200104    4.90999985    2.39000010
   14.85888958  129.59399414    4.90999985    2.39000010
   14.86222267  124.45800018    4.90999985    2.39000010
   14.86555576  125.83100128    4.90999985    2.36999989
   14.86861134  131.20500183    4.90999985    2.36999989
   14.87194443  129.98399353    4.90999985    2.40000010
   14.87527752  125.55599976    4.90999985    2.36999989
   14.87833309  140.16400146    4.90999985    2.34999990
   14.88166714  135.76899719    4.90999985    2.36999989
   14.88472176  131.12800598    4.90999985    2.30999994
   14.88583279  137.94700623    4.90999985    2.30999994
   14.89083290  137.94700623    4.90999985    2.19000006
   14.89472198  145.10600281    4.90999985    2.28999996
   14.89805508  133.49400330    4.90999985    2.03999996
   14.90138817  129.93699646    4.90999985    2.23000002
   14.90444374  138.98699951    4.90999985    2.28999996
   14.90777779  136.25599670    4.90999985    2.36999989
   14.91111088  128.57400513    4.90999985    2.32999992
   14.91416645  123.50000000    4.90999985    2.32999992
   14.91750050  133.02099609    4.90999985    2.39000010
   14.91916656  124.09799957    4.90999985    2.42000008
   14.92111111  124.73100281    4.90999985    2.42000008
   14.92416668  123.46399689    4.90999985    2.42000008
   14.92750072  124.43800354    4.90999985    2.44000006
   14.93361092  124.43800354    4.90999985    2.50000000
   14.93777752  122.06700134    4.90999985    2.48000002
   14.94083309  120.81400299    4.90999985    2.51999998
   14.94416714  126.06400299    4.90999985    2.50000000
   14.94750023  129.02799988    4.90999985    2.51999998
   14.95055580  129.69099426    4.90999985    2.51999998
   14.95249939  129.76199341    4.90999985    2.51999998
   14.95444393  130.51899719    4.90999985    2.50000000
   14.95749950  136.78199768    4.90999985    2.51999998
   14.96083355  139.73599243    4.90999985    2.51999998
   14.96416664  126.31500244    4.90999985    2.53999996
   14.96722221  121.75199890    4.90999985    2.51999998
   14.97055531  134.51499939    4.90999985    2.51999998
   14.97638798  134.51499939    4.90999985    2.53999996
   14.98055553  149.06100464    4.90999985    2.53999996
   14.98388958  146.20799255    4.90999985    2.51999998
   14.98583317  147.79100037    4.90999985    2.53999996
   14.98750019  124.52200317    4.90999985    2.53999996
   14.99055576  151.83700562    4.90999985    2.53999996
   14.99388885  159.38499451    4.90999985    2.50000000
   14.99722290  137.25500488    4.90999985    2.50000000
   15.00027752  154.97399902    4.90999985    2.51999998
   15.00361156  159.34100342    4.90999985    2.51999998
   15.00694466  117.43299866    4.90999985    2.51999998
   15.01000023  153.31100464    4.90999985    2.51999998
   15.01333332  120.76100159    4.90999985    2.51999998
   15.01916599  120.76100159    4.90999985    2.51999998
   15.02333355  123.90200043    4.90999985    2.51999998
   15.02666664  150.26800537    4.90999985    2.51999998
   15.02972221  138.90600586    4.90999985    2.51999998
   15.03305531  153.19599915    4.90999985    2.51999998
   15.03638935  147.04100037    4.90999985    2.51999998
   15.03944492  140.20500183    4.90999985    2.53999996
   15.04277802  128.48300171    4.90999985    2.53999996
   15.04611111  152.77699280    4.90999985    2.51999998
   15.04916668  136.66799927    4.90999985    2.53999996
   15.05249977  140.92599487    4.90999985    2.53999996
   15.05305576  125.98600006    4.90999985    2.53999996
   15.05611134  143.87699890    4.90999985    2.53999996
   15.06222248  143.87699890    4.90999985    2.53999996
   15.06611156  139.15199280    4.90999985    2.51999998
   15.06944466  146.18499756    4.90999985    2.51999998
   15.07277775  145.95300293    4.90999985    2.51999998
   15.07583332  123.85800171    4.90999985    2.51999998
   15.07916641  143.15600586    4.90999985    2.51999998
   15.08249950  125.80100250    4.90999985    2.53999996
   15.08555508  143.05999756    4.90999985    2.53999996
   15.08638859  120.70600128    4.90999985    2.53999996
   15.08916664  119.98899841    4.90999985    2.53999996
   15.09249973  121.26200104    4.90999985    2.51999998
   15.09583282  127.03800201    4.90999985    2.51999998
   15.09888840  131.36700439    4.90999985    2.51999998
   15.10500050  131.36700439    4.90999985    2.53999996
   15.10916710  112.21199799    4.90999985    2.51999998
   15.11222267  114.32299805    4.90999985    2.53999996
   15.11555576  126.98899841    4.90999985    2.53999996
   15.11888885  114.84799957    4.90999985    2.53999996
   15.11972237  113.44000244    4.90999985    2.50000000
   15.12222195  124.47899628    4.90999985    2.51999998
   15.12555599  119.89199829    4.90999985    2.51999998
   15.12888908  111.65699768    4.90999985    2.50000000
   15.13194466  114.04199982    4.90999985    2.48000002
   15.13527775  122.35399628    4.90999985    2.50000000
   15.13861084  118.29699707    4.90999985    2.51999998
   15.14166641  123.68499756    4.90999985    2.51999998
   15.14777756  123.68499756    4.90999985    2.51999998
   15.15194416  123.50499725    4.90999985    2.53999996
   15.15305519  113.88800049    4.90999985    2.53999996
   15.15555477  117.72100067    4.90999985    2.53999996
   15.15888882  122.81500244    4.90999985    2.53999996
   15.16222191  119.02500153    4.90999985    2.53999996
   15.16527748  108.83899689    4.90999985    2.53999996
   15.16861153  119.23400116    4.90999985    2.51999998
   15.17194462  114.72200012    4.90999985    2.51999998
   15.17500019  111.68099976    4.90999985    2.50000000
   15.17833328  113.34999847    4.90999985    2.53999996
   15.18138885  115.22799683    4.90999985    2.55999994
   15.18472195  121.24600220    4.90999985    2.53999996
   15.18638897  114.21800232    4.90999985    2.53999996
   15.19055557  114.21800232    4.90999985    2.51999998
   15.19472218  165.22500610    4.90999985    2.42000008
   15.19805527  126.56300354    4.90999985    2.26999998
   15.20111084  135.55799866    4.90999985    2.34999990
   15.20444393  163.08700562    4.90999985    2.23000002
   15.20777798  187.88699341    4.90999985    2.07999992
   15.21083355  143.61000061    4.90999985    2.09999990
   15.21416664  128.17100525    4.90999985    2.40000010
   15.21749973  125.67700195    4.90999985    2.39000010
   15.21972179  141.96800232    4.90999985    2.28999996
   15.22083282  147.71899414    4.90999985    2.23000002
   15.22416592  132.29699707    4.90999985    2.30999994
   15.22749996  128.77600098    4.90999985    2.21000004
   15.23361111  128.77600098    4.90999985    2.40000010
   15.23750019  123.57199860    4.90999985    2.36999989
   15.24083328  125.88200378    4.90999985    2.32999992
   15.24416733  129.22900391    4.90999985    2.32999992
   15.24722290  128.81399536    4.90999985    2.28999996
   15.35249996   -1.00000000   -1.00000000   -1.00000000
   15.46166611   -1.00000000   -1.00000000   -1.00000000
   15.58972168   -1.00000000   -1.00000000   -1.00000000
   15.87472248   89.98999786    4.90999985    2.55999994
   15.87777805  119.35099792    4.90999985    2.55999994
   15.88111115  114.18599701    4.90999985    2.55999994
   15.88444424  125.01699829    4.90999985    2.55999994
   15.88749981  115.16899872    4.90999985    2.55999994
   15.89083290  121.50299835    4.90999985    2.55999994
   15.89499950  121.50299835    4.90999985    2.55999994
   15.89916611  120.05500031    4.90999985    2.55999994
   15.90222168  117.08899689    4.90999985    2.53999996
   15.90555477  121.23300171    4.90999985    2.53999996
   15.90805531  118.79100037    4.90999985    2.55999994
   15.90916634  115.27100372    4.90999985    2.55999994
   15.91249943  120.31999969    4.90999985    2.53999996
   15.91583252  119.94499969    4.90999985    2.53999996
   15.91888905  116.13600159    4.90999985    2.53999996
   15.92222214  121.99800110    4.90999985    2.51999998
   15.92555618  118.41999817    4.90999985    2.51999998
   15.92861176  117.69200134    4.90999985    2.51999998
   15.93194485  121.15899658    4.90999985    2.53999996
   15.93777752  121.15899658    4.90999985    2.53999996
   15.94194412  120.85099792    4.90999985    2.53999996
   15.94527817  120.55999756    4.90999985    2.53999996
   15.94833374  113.54100037    4.90999985    2.51999998
   15.95166683  114.60399628    4.90999985    2.51999998
   15.95472240  116.67199707    4.90999985    2.53999996
   15.95805550  114.49199677    4.90999985    2.53999996
   15.96138859  111.19100189    4.90999985    2.53999996
   15.96444416  114.90699768    4.90999985    2.53999996
   15.96777725  115.00900269    4.90999985    2.55999994
   15.97111034  115.73999786    4.90999985    2.53999996
   15.97416592  117.54199982    4.90999985    2.55999994
   15.97472191  122.82299805    4.90999985    2.53999996
   15.98055553  122.82299805    4.90999985    2.55999994
   15.98472214  118.52200317    4.90999985    2.55999994
   15.98805618  121.28399658    4.90999985    2.55999994
   15.99111176  116.46600342    4.90999985    2.55999994
   15.99444485  121.14199829    4.90999985    2.55999994
   15.99777794  119.13500214    4.90999985    2.55999994
   16.00083351  114.52600098    4.90999985    2.55999994
   16.00416756  118.23699951    4.90999985    2.53999996
   16.00749969  116.34300232    4.90999985    2.55999994
   16.00805473  122.26899719    4.90999985    2.55999994
   16.01111031  117.29199982    4.90999985    2.57999992
   16.01416588  120.31600189    4.90999985    2.57999992
   16.01749992  120.71099854    4.90999985    2.55999994
   16.02361107  120.71099854    4.90999985    2.55999994
   16.02750015  118.99500275    4.90999985    2.55999994
   16.03083229  116.10600281    4.90999985    2.55999994
   16.03416634  116.24900055    4.90999985    2.55999994
   16.03722191  120.38300323    4.90999985    2.57999992
   16.04055595  116.55100250    4.90999985    2.55999994
   16.04138756  123.54199982    4.90999985    2.55999994
   16.04416656  114.29699707    4.90999985    2.55999994
   16.04722214  113.44599915    4.90999985    2.55999994
   16.05055428  115.51599884    4.90999985    2.55999994
   16.05388832  119.88899994    4.90999985    2.57999992
   16.05694389  118.12699890    4.90999985    2.57999992
   16.06027794  116.71800232    4.90999985    2.55999994
   16.06638718  116.71800232    4.90999985    2.55999994
   16.07055664  113.75399780    4.90999985    2.55999994
   16.07361221  114.30799866    4.90999985    2.57999992
   16.07472229  113.09999847    4.90999985    2.55999994
   16.07750130  108.66200256    4.90999985    2.55999994
   16.08055687  118.17199707    4.90999985    2.55999994
   16.08388901  116.33699799    4.90999985    2.55999994
   16.08722305  111.77600098    4.90999985    2.55999994
   16.09027863  113.47599792    4.90999985    2.55999994
   16.09361267  115.26300049    4.90999985    2.57999992
   16.09694481  112.12599945    4.90999985    2.57999992
   16.10000038  113.60800171    4.90999985    2.57999992
   16.10333443  115.31300354    4.90999985    2.57999992
   16.10916710  115.31300354    4.90999985    2.55999994
   16.11333466  114.64700317    4.90999985    2.55999994
   16.11666679  113.74700165    4.90999985    2.55999994
   16.11972237  114.93299866    4.90999985    2.55999994
   16.12305641  114.45700073    4.90999985    2.55999994
   16.12611198  113.75000000    4.90999985    2.57999992
   16.12944412  111.96299744    4.90999985    2.57999992
   16.13277817  114.96900177    4.90999985    2.57999992
   16.13583374  113.82199860    4.90999985    2.55999994
   16.13916588  112.39600372    4.90999985    2.57999992
   16.14138794  114.95300293    4.90999985    2.55999994
   16.14277840  113.19499969    4.90999985    2.55999994
   16.14583397  113.42299652    4.90999985    2.55999994
   16.15194321  113.42299652    4.90999985    2.55999994
   16.15611076  111.62000275    4.90999985    2.57999992
   16.15944481  111.29100037    4.90999985    2.55999994
   16.16250038  113.85800171    4.90999985    2.55999994
   16.16583252  109.38200378    4.90999985    2.55999994
   16.16916656  118.64399719    4.90999985    2.55999994
   16.17222214  109.45700073    4.90999985    2.53999996
   16.17472076  110.34600067    4.90999985    2.55999994
   16.17611122  112.42099762    4.90999985    2.55999994
   16.17916679  115.16500092    4.90999985    2.55999994
   16.18249893  109.70500183    4.90999985    2.55999994
   16.18583298  111.64800262    4.90999985    2.55999994
   16.18888855  112.41100311    4.90999985    2.55999994
   16.19472122  112.41100311    4.90999985    2.55999994
   16.19888878  109.40699768    4.90999985    2.55999994
   16.20222282  114.30400085    4.90999985    2.55999994
   16.20555687  114.20700073    4.90999985    2.55999994
   16.20805550  112.92400360    4.90999985    2.53999996
   16.20916748  113.29000092    4.90999985    2.53999996
   16.21222305  109.10199738    4.90999985    2.55999994
   16.21555710  114.75299835    4.90999985    2.55999994
   16.21888924  116.86199951    4.90999985    2.55999994
   16.22194481  118.46199799    4.90999985    2.53999996
   16.22527885  112.36599731    4.90999985    2.55999994
   16.22861099  110.22599792    4.90999985    2.55999994
   16.23166656  109.35500336    4.90999985    2.55999994
   16.23777771  109.35500336    4.90999985    2.55999994
   16.24194527  114.60700226    4.90999985    2.55999994
   16.24500084  118.19400024    4.90999985    2.55999994
   16.24833298  113.47599792    4.90999985    2.55999994
   16.25166702  109.75599670    4.90999985    2.55999994
   16.25472260  115.54199982    4.90999985    2.53999996
   16.25805473  112.22000122    4.90999985    2.55999994
   16.26111031  114.48000336    4.90999985    2.55999994
   16.26444435  114.93199921    4.90999985    2.55999994
   16.26777840  115.69300079    4.90999985    2.55999994
   16.27083397  115.50900269    4.90999985    2.55999994
   16.27416611  115.33599854    4.90999985    2.55999994
   16.27472115  111.44400024    4.90999985    2.55999994
   16.28055573  111.44400024    4.90999985    2.55999994
   16.28472137  113.26899719    4.90999985    2.55999994
   16.28805542  113.54399872    4.90999985    2.55999994
   16.29111099  113.42400360    4.90999985    2.55999994
   16.29444313  108.76399994    4.90999985    2.55999994
   16.29749870  114.84799957    4.90999985    2.55999994
   16.30083275  115.49500275    4.90999985    2.55999994
   16.30416679  114.41899872    4.90999985    2.55999994
   16.30722237  112.23200226    4.90999985    2.55999994
   16.30805397  117.00299835    4.90999985    2.55999994
   16.31083298  112.50599670    4.90999985    2.55999994
   16.31416512  109.75000000    4.90999985    2.55999994
   16.31722260  109.84300232    4.90999985    2.55999994
   16.32333374  109.84300232    4.90999985    2.55999994
   16.32750130  111.45300293    4.90999985    2.57999992
   16.33083344  113.10900116    4.90999985    2.57999992
   16.33416748  113.50399780    4.90999985    2.55999994
   16.33722305  108.70999908    4.90999985    2.55999994
   16.34055710  111.94100189    4.90999985    2.55999994
   16.34138870  111.57199860    4.90999985    2.55999994
   16.34416771  114.89399719    4.90999985    2.55999994
   16.34749985  113.84600067    4.90999985    2.55999994
   16.35055542  112.42400360    4.90999985    2.55999994
   16.35388947  118.08300018    4.90999985    2.55999994
   16.35694504  114.61599731    4.90999985    2.55999994
   16.36027908  112.51899719    4.90999985    2.55999994
   16.36638832  112.51899719    4.90999985    2.57999992
   16.37027740  122.19400024    4.90999985    2.55999994
   16.37361145  120.26300049    4.90999985    2.53999996
   16.37472153  120.91300201    4.90999985    2.50000000
   16.37722206  120.52500153    4.90999985    2.46000004
   16.38055611  128.17500305    4.90999985    2.25000000
   16.38361168  121.78099823    4.90999985    2.32999992
   16.38694382  117.39700317    4.90999985    2.48000002
   16.39027786  117.78700256    4.90999985    2.55999994
   16.39333344  109.37300110    4.90999985    2.59999990
   16.39666748  114.56099701    4.90999985    2.57999992
   16.39972115  116.21600342    4.90999985    2.57999992
   16.40305519  112.71299744    4.90999985    2.57999992
   16.40916634  112.71299744    4.90999985    2.57999992
   16.41333389  110.13099670    4.90999985    2.55999994
   16.41638756  111.72100067    4.90999985    2.57999992
   16.41972160  112.12100220    4.90999985    2.55999994
   16.42305565  119.84300232    4.90999985    2.57999992
   16.42611122  115.26000214    4.90999985    2.57999992
   16.42944336  115.69899750    4.90999985    2.57999992
   16.43249893  115.07099915    4.90999985    2.57999992
   16.43583298  112.37300110    4.90999985    2.57999992
   16.43916512  113.03900146    4.90999985    2.57999992
   16.44138718  112.33100128    4.90999985    2.57999992
   16.44277763  111.31199646    4.90999985    2.57999992
   16.44610977  112.66300201    4.90999985    2.57999992
   16.45194435  112.66300201    4.90999985    2.55999994
   16.45611191  111.48400116    4.90999985    2.55999994
   16.45944595  111.06999969    4.90999985    2.55999994
   16.46250153  114.01599884    4.90999985    2.55999994
   16.46583366  117.10500336    4.90999985    2.53999996
   16.46916771  112.49199677    4.90999985    2.50000000
   16.47222328  112.63400269    4.90999985    2.53999996
   16.47472191  115.82800293    4.90999985    2.51999998
   16.47583389  115.19499969    4.90999985    2.53999996
   16.47916794  113.84799957    4.90999985    2.48000002
   16.48222351  111.87300110    4.90999985    2.51999998
   16.48555565  112.92299652    4.90999985    2.57999992
   16.48861122  113.00900269    4.90999985    2.57999992
   16.49472237  113.00900269    4.90999985    2.57999992
   16.49888992  108.45800018    4.90999985    2.55999994
   16.50222206  115.99700165    4.90999985    2.57999992
   16.50527763  109.48600006    4.90999985    2.55999994
   16.50805473  114.60700226    4.90999985    2.57999992
   16.50916672  112.83999634    4.90999985    2.55999994
   16.51250076  115.78399658    4.90999985    2.57999992
   16.51555634  109.52200317    4.90999985    2.55999994
   16.51888847  113.71600342    4.90999985    2.53999996
   16.52194405  112.06300354    4.90999985    2.55999994
   16.52527809  114.21499634    4.90999985    2.55999994
   16.52861023  112.68099976    4.90999985    2.55999994
   16.53166580  111.05000305    4.90999985    2.53999996
   16.53777695  111.05000305    4.90999985    2.55999994
   16.54166603  110.54799652    4.90999985    2.55999994
   16.54500008  114.01999664    4.90999985    2.55999994
   16.54833221  109.33100128    4.90999985    2.53999996
   16.55138779  109.79799652    4.90999985    2.55999994
   16.55472183  112.96199799    4.90999985    2.55999994
   16.55805397  115.47100067    4.90999985    2.55999994
   16.56110954  109.60900116    4.90999985    2.55999994
   16.56444359  115.96800232    4.90999985    2.55999994
   16.56750107  115.81300354    4.90999985    2.55999994
   16.57083511  111.26100159    4.90999985    2.55999994
   16.57416725  111.95899963    4.90999985    2.55999994
   16.57472229  111.10500336    4.90999985    2.55999994
   16.58055687  111.10500336    4.90999985    2.53999996
   16.58472252  115.77400208    4.90999985    2.53999996
   16.58777809  115.70899963    4.90999985    2.51999998
   16.59111214  116.34999847    4.90999985    2.50000000
   16.59444427  114.67800140    4.90999985    2.46000004
   16.59749985  120.41200256    4.90999985    2.46000004
   16.60083389  120.30899811    4.90999985    2.46000004
   16.60388947  116.61100006    4.90999985    2.46000004
   16.60722351  123.60700226    4.90999985    2.46000004
   16.60805511  119.94699860    4.90999985    2.44000006
   16.61083412  115.53900146    4.90999985    2.42000008
   16.61416626  116.73600006    4.90999985    2.40000010
   16.61722183  124.79799652    4.90999985    2.40000010
   16.62333298  124.79799652    4.90999985    2.46000004
   16.62750053  117.21600342    4.90999985    2.48000002
   16.63083267  113.25299835    4.90999985    2.48000002
   16.63388824  113.04499817    4.90999985    2.51999998
   16.63722229  111.00199890    4.90999985    2.50000000
   16.64027786  115.08300018    4.90999985    2.51999998
   16.64138794  114.86399841    4.90999985    2.51999998
   16.64388847  116.41899872    4.90999985    2.51999998
   16.64722252  117.89299774    4.90999985    2.50000000
   16.65027809  118.59899902    4.90999985    2.51999998
   16.65361023  118.18699646    4.90999985    2.53999996
   16.65694427  119.26399994    4.90999985    2.53999996
   16.65999985  114.92199707    4.90999985    2.53999996
   16.66611099  114.92199707    4.90999985    2.53999996
   16.67027664  117.08599854    4.90999985    2.53999996
   16.67361069  118.35700226    4.90999985    2.53999996
   16.67472076  114.44000244    4.90999985    2.55999994
   16.67722130  118.38099670    4.90999985    2.53999996
   16.68055534  117.88300323    4.90999985    2.53999996
   16.68361092  113.65200043    4.90999985    2.55999994
   16.68694305  114.36499786    4.90999985    2.55999994
   16.69027710  116.05000305    4.90999985    2.53999996
   16.69333267  114.74199677    4.90999985    2.53999996
   16.69666672  116.17700195    4.90999985    2.53999996
   16.69972038  116.11199951    4.90999985    2.53999996
   16.70305634  119.76999664    4.90999985    2.55999994
   16.70916748  119.76999664    4.90999985    2.53999996
   16.71305656  113.57299805    4.90999985    2.53999996
   16.71638870  114.68499756    4.90999985    2.53999996
   16.71972275  118.85099792    4.90999985    2.53999996
   16.72277832  110.01499939    4.90999985    2.53999996
   16.72611237  120.31800079    4.90999985    2.55999994
   16.72944450  116.44499969    4.90999985    2.53999996
   16.73250008  115.26399994    4.90999985    2.53999996
   16.73583412  109.45800018    4.90999985    2.53999996
   16.73916626  114.36000061    4.90999985    2.55999994
   16.74138832  111.22299957    4.90999985    2.53999996
   16.74277878  113.07099915    4.90999985    2.53999996
   16.74611092  116.62799835    4.90999985    2.55999994
   16.75194359  116.62799835    4.90999985    2.55999994
   16.75611115  114.50000000    4.90999985    2.55999994
   16.75916672  112.06500244    4.90999985    2.53999996
   16.76250076  112.21399689    4.90999985    2.55999994
   16.76583290  111.87200165    4.90999985    2.53999996
   16.76888847  115.63899994    4.90999985    2.53999996
   16.77222252  116.65399933    4.90999985    2.53999996
   16.77472115  111.01100159    4.90999985    2.53999996
   16.77583313  113.59300232    4.90999985    2.53999996
   16.77916718  113.59400177    4.90999985    2.55999994
   16.78222275  110.07099915    4.90999985    2.53999996
   16.78555489  112.73999786    4.90999985    2.55999994
   16.78888893  114.37000275    4.90999985    2.55999994
   16.79472160  114.37000275    4.90999985    2.53999996
   16.79888916  110.80000305    4.90999985    2.55999994
   16.80222130  116.45200348    4.90999985    2.55999994
   16.80527687  111.58399963    4.90999985    2.53999996
   16.80805397  115.42400360    4.90999985    2.53999996
   16.80888748  114.55000305    4.90999985    2.53999996
   16.81222153  116.82299805    4.90999985    2.53999996
   16.81527710  112.66000366    4.90999985    2.53999996
   16.81861115  116.36699677    4.90999985    2.53999996
   16.82194519  119.09100342    4.90999985    2.55999994
   16.82500076  116.08000183    4.90999985    2.53999996
   16.82833481  116.21600342    4.90999985    2.55999994
   16.83139038  117.82299805    4.90999985    2.53999996
   16.83750153  117.82299805    4.90999985    2.55999994
   16.84166718  112.90799713    4.90999985    2.55999994
   16.84500122  116.81199646    4.90999985    2.55999994
   16.84805679  118.39199829    4.90999985    2.53999996
   16.85138893  116.68599701    4.90999985    2.55999994
   16.85472298  114.77999878    4.90999985    2.53999996
   16.85777855  113.60600281    4.90999985    2.55999994
   16.86111069  120.89299774    4.90999985    2.55999994
   16.86444473  115.94499969    4.90999985    2.55999994
   16.86750031  119.71299744    4.90999985    2.55999994
   16.87083435  115.77300262    4.90999985    2.55999994
   16.87388992  108.68699646    4.90999985    2.55999994
   16.87472153  113.45200348    4.90999985    2.55999994
   16.89555550  113.45200348    4.90999985    2.57999992
   16.89972115  109.98100281    4.90999985    2.55999994
   16.90277672  108.20600128    4.90999985    2.55999994
   16.90611076  115.92099762    4.90999985    2.55999994
   16.90805435  118.42600250    4.90999985    2.55999994
   16.90972137  116.43299866    4.90999985    2.55999994
   16.91305542  111.37500000    4.90999985    2.55999994
   16.91611099  113.61199951    4.90999985    2.55999994
   16.91944313  112.72299957    4.90999985    2.55999994
   16.92277718  117.87400055    4.90999985    2.55999994
   16.92583275  112.79100037    4.90999985    2.55999994
   16.92916679  112.79299927    4.90999985    2.55999994
   16.93222237  112.18299866    4.90999985    2.55999994
   16.93833160  112.18299866    4.90999985    2.53999996
   16.94249916  116.38099670    4.90999985    2.55999994
   16.94555473  115.94300079    4.90999985    2.55999994
   16.94888878  115.99400330    4.90999985    2.55999994
   16.95222282  111.71199799    4.90999985    2.57999992
   16.95527840  108.27100372    4.90999985    2.55999994
   16.95861244  117.84200287    4.90999985    2.55999994
   16.96194458  113.87999725    4.90999985    2.55999994
   16.96500015  115.71499634    4.90999985    2.55999994
   16.96833420  113.63600159    4.90999985    2.53999996
   16.97138977  109.85500336    4.90999985    2.53999996
   16.97472191  111.19799805    4.90999985    2.53999996
   16.97527885  112.49099731    4.90999985    2.53999996
   16.98111153  112.49099731    4.90999985    2.55999994
   16.98527718  119.88800049    4.90999985    2.53999996
   16.98861122  115.74500275    4.90999985    2.50000000
   16.99166679  120.73699951    4.90999985    2.50000000
   16.99500084  116.51899719    4.90999985    2.48000002
   16.99833298  120.30799866    4.90999985    2.40000010
   17.00138855  111.57900238    4.90999985    2.48000002
   17.00472260  115.16500092    4.90999985    2.50000000
   17.00777817  113.37200165    4.90999985    2.51999998
   17.00861168  109.46499634    4.90999985    2.50000000
   17.01166725  114.57800293    4.90999985    2.51999998
   17.01472282  115.46800232    4.90999985    2.53999996
   17.01805496  110.49099731    4.90999985    2.53999996
   17.02388954  110.49099731    4.90999985    2.51999998
   17.02805519  114.46800232    4.90999985    2.53999996
   17.03138924  112.44000244    4.90999985    2.53999996
   17.03472137  112.14099884    4.90999985    2.53999996
   17.03777695  118.49900055    4.90999985    2.51999998
   17.04111099  114.67900085    4.90999985    2.51999998
   17.04194450  113.51799774    4.90999985    2.53999996
   17.04472160  110.75199890    4.90999985    2.51999998
   17.04777718  117.33699799    4.90999985    2.53999996
   17.05111122  114.70500183    4.90999985    2.53999996
   17.05444336  115.94899750    4.90999985    2.53999996
   17.05749893  116.93699646    4.90999985    2.53999996
   17.06083298  119.31900024    4.90999985    2.53999996
   17.06694603  119.31900024    4.90999985    2.55999994
   17.07111168  119.33000183    4.90999985    2.53999996
   17.07416725  114.22299957    4.90999985    2.53999996
   17.07527924  117.97899628    4.90999985    2.53999996
   17.07805634  116.15200043    4.90999985    2.53999996
   17.08111191  116.21299744    4.90999985    2.53999996
   17.08444595  119.64199829    4.90999985    2.55999994
   17.08777809  118.23600006    4.90999985    2.53999996
   17.09083366  112.98200226    4.90999985    2.51999998
   17.09416771  118.24400330    4.90999985    2.53999996
   17.09722328  115.55999756    4.90999985    2.53999996
   17.10055542  119.90499878    4.90999985    2.51999998
   17.10388947  115.11599731    4.90999985    2.53999996
   17.10972214  115.11599731    4.90999985    2.51999998
   17.11388969  118.09799957    4.90999985    2.53999996
   17.11694527  119.64600372    4.90999985    2.50000000
   17.12027740  117.73999786    4.90999985    2.48000002
   17.12361145  115.69400024    4.90999985    2.50000000
   17.12666702  116.26999664    4.90999985    2.50000000
   17.13000107  116.40899658    4.90999985    2.51999998
   17.13305473  118.66600037    4.90999985    2.51999998
   17.13638878  113.87999725    4.90999985    2.51999998
   17.13972282  115.26000214    4.90999985    2.51999998
   17.14194489  120.91000366    4.90999985    2.51999998
   17.14333344  116.34200287    4.90999985    2.51999998
   17.14638901  120.58999634    4.90999985    2.51999998
   17.15250015  120.58999634    4.90999985    2.46000004
   17.15666580  118.16600037    4.90999985    2.51999998
   17.15999985  119.02400208    4.90999985    2.51999998
   17.16305542  118.36900330    4.90999985    2.51999998
   17.16638756  119.08300018    4.90999985    2.53999996
   17.16944313  116.75399780    4.90999985    2.53999996
   17.17277718  113.94699860    4.90999985    2.53999996
   17.17527771  115.49199677    4.90999985    2.53999996
   17.17666626  113.57700348    4.90999985    2.53999996
   17.17972183  117.69000244    4.90999985    2.53999996
   17.18305397  112.95899963    4.90999985    2.51999998
   17.18610954  114.92600250    4.90999985    2.53999996
   17.18944359  116.77899933    4.90999985    2.53999996
   17.19527626  116.77899933    4.90999985    2.53999996
   17.19944382  112.81700134    4.90999985    2.53999996
   17.20277786  116.75900269    4.90999985    2.53999996
   17.20583344  113.66899872    4.90999985    2.53999996
   17.20861244  115.03399658    4.90999985    2.53999996
   17.20972252  112.70400238    4.90999985    2.53999996
   17.21277809  114.37999725    4.90999985    2.53999996
   17.21611214  115.50900269    4.90999985    2.53999996
   17.21916771  114.11599731    4.90999985    2.53999996
   17.22249985  114.07700348    4.90999985    2.53999996
   17.22583389  121.19999695    4.90999985    2.55999994
   17.22916794  115.20999908    4.90999985    2.53999996
   17.23222351  113.90200043    4.90999985    2.53999996
   17.23833275  113.90200043    4.90999985    2.51999998
   17.24222183  114.76699829    4.90999985    2.53999996
   17.24555588  110.66500092    4.90999985    2.55999994
   17.24888992  116.18000031    4.90999985    2.53999996
   17.25194359  111.20700073    4.90999985    2.53999996
   17.25527763  109.49900055    4.90999985    2.55999994
   17.25861168  113.28700256    4.90999985    2.53999996
   17.26166725  114.79000092    4.90999985    2.55999994
   17.26499939  119.92199707    4.90999985    2.55999994
   17.26805496  111.04100037    4.90999985    2.55999994
   17.27138901  116.88999939    4.90999985    2.55999994
   17.27472115  106.38700104    4.90999985    2.55999994
   17.27527809  105.88300323    4.90999985    2.55999994
   17.28111076  105.88300323    4.90999985    2.55999994
   17.28527641  119.34500122    4.90999985    2.57999992
   17.28833199  113.74600220    4.90999985    2.55999994
   17.29166603  116.94899750    4.90999985    2.55999994
   17.29500008  109.86799622    4.90999985    2.55999994
   17.29805565  115.25900269    4.90999985    2.55999994
   17.30138779  113.62000275    4.90999985    2.55999994
   17.30444336  114.21099854    4.90999985    2.55999994
   17.30777740  116.45400238    4.90999985    2.57999992
   17.30861092  114.27300262    4.90999985    2.53999996
   17.31138802  113.11699677    4.90999985    2.55999994
   17.31444359  117.11699677    4.90999985    2.55999994
   17.31777954  114.68399811    4.90999985    2.55999994
   17.32389069  114.68399811    4.90999985    2.55999994
   17.32805634  115.81900024    4.90999985    2.55999994
   17.33139038  117.79599762    4.90999985    2.55999994
   17.33444595  113.04599762    4.90999985    2.53999996
   17.33777809  110.97599792    4.90999985    2.55999994
   17.34083366  112.09799957    4.90999985    2.55999994
   17.34194565  111.94200134    4.90999985    2.55999994
   17.34472275  118.72699738    4.90999985    2.55999994
   17.34777832  112.05699921    4.90999985    2.53999996
   17.35111237  116.60099792    4.90999985    2.53999996
   17.35444450  113.20400238    4.90999985    2.53999996
   17.35750008  119.40000153    4.90999985    2.53999996
   17.36083412  116.61100006    4.90999985    2.53999996
   17.36666679  116.61100006    4.90999985    2.53999996
   17.37083435  109.65299988    4.90999985    2.53999996
   17.37416649  116.37799835    4.90999985    2.53999996
   17.37527847  116.15899658    4.90999985    2.53999996
   17.37777710  114.82299805    4.90999985    2.53999996
   17.38083267  115.58699799    4.90999985    2.53999996
   17.38416672  110.70600128    4.90999985    2.53999996
   17.38750076  113.11599731    4.90999985    2.53999996
   17.39055634  109.58999634    4.90999985    2.53999996
   17.39388847  115.28600311    4.90999985    2.53999996
   17.39722252  114.61299896    4.90999985    2.53999996
   17.40027809  112.53099823    4.90999985    2.51999998
   17.40361023  117.14700317    4.90999985    2.51999998
   17.40972137  117.14700317    4.90999985    2.50000000
   17.41361046  119.10299683    4.90999985    2.51999998
   17.41694450  113.77799988    4.90999985    2.51999998
   17.42027664  114.90000153    4.90999985    2.50000000
   17.42333221  114.39499664    4.90999985    2.50000000
   17.42666626  118.65699768    4.90999985    2.51999998
   17.42972183  111.41300201    4.90999985    2.51999998
   17.43305397  115.09899902    4.90999985    2.51999998
   17.43638802  115.14700317    4.90999985    2.53999996
   17.43944359  112.15299988    4.90999985    2.51999998
   17.44194412  114.69499969    4.90999985    2.55999994
   17.44333267  109.53600311    4.90999985    2.53999996
   17.44638824  112.63300323    4.90999985    2.55999994
   17.45250130  112.63300323    4.90999985    2.55999994
   17.45666695  110.65699768    4.90999985    2.55999994
   17.45972252  113.29799652    4.90999985    2.55999994
   17.46305656  114.37899780    4.90999985    2.55999994
   17.46611214  117.06999969    4.90999985    2.55999994
   17.46944427  117.35800171    4.90999985    2.55999994
   17.47277832  115.24099731    4.90999985    2.55999994
   17.47527885  111.09500122    4.90999985    2.55999994
   17.47638893  111.72100067    4.90999985    2.55999994
   17.47972298  118.13400269    4.90999985    2.55999994
   17.48277855  112.69000244    4.90999985    2.57999992
   17.48611069  112.08599854    4.90999985    2.55999994
   17.48916626  107.27600098    4.90999985    2.55999994
   17.49527740  107.27600098    4.90999985    2.57999992
   17.49944496  116.69499969    4.90999985    2.55999994
   17.50250053  110.18399811    4.90999985    2.55999994
   17.50583267  115.99400330    4.90999985    2.55999994
   17.50861168  112.76999664    4.90999985    2.55999994
   17.50944519  113.36699677    4.90999985    2.57999992
   17.51250076  112.84500122    4.90999985    2.55999994
   17.51583290  115.43099976    4.90999985    2.57999992
   17.51916695  110.80400085    4.90999985    2.57999992
   17.52222252  117.47499847    4.90999985    2.55999994
   17.52555466  111.70600128    4.90999985    2.55999994
   17.52861023  113.37300110    4.90999985    2.55999994
   17.53194427  114.81300354    4.90999985    2.55999994
   17.53805542  114.81300354    4.90999985    2.57999992
   17.54222107  111.82199860    4.90999985    2.55999994
   17.54555511  116.99400330    4.90999985    2.55999994
   17.54888916  118.02200317    4.90999985    2.55999994
   17.55194283  113.96299744    4.90999985    2.53999996
   17.55527687  112.09999847    4.90999985    2.55999994
   17.55833244  121.24299622    4.90999985    2.53999996
   17.56166649  110.05300140    4.90999985    2.55999994
   17.56499863  115.60299683    4.90999985    2.53999996
   17.56805611  123.49900055    4.90999985    2.53999996
   17.57139015  112.58899689    4.90999985    2.53999996
   17.57472229  113.61799622    4.90999985    2.53999996
   17.57527924  120.37799835    4.90999985    2.53999996
   17.58111191  120.37799835    4.90999985    2.55999994
   17.58500099  114.89499664    4.90999985    2.55999994
   17.58833313  112.00000000    4.90999985    2.55999994
   17.59166718  111.73400116    4.90999985    2.55999994
   17.59472275  111.47299957    4.90999985    2.55999994
   17.59805679  111.85600281    4.90999985    2.53999996
   17.60138893  114.20999908    4.90999985    2.55999994
   17.60444450  115.34999847    4.90999985    2.55999994
   17.60777855  115.64600372    4.90999985    2.55999994
   17.60861206  111.35399628    4.90999985    2.55999994
   17.61138916  117.41999817    4.90999985    2.55999994
   17.61472321  113.04299927    4.90999985    2.55999994
   17.61777878  109.39199829    4.90999985    2.55999994
   17.62388992  109.39199829    4.90999985    2.55999994
   17.62805557  111.67600250    4.90999985    2.53999996
   17.63111115  111.85399628    4.90999985    2.55999994
   17.63444519  114.22299957    4.90999985    2.53999996
   17.63777733  111.42500305    4.90999985    2.51999998
   17.64083290  117.31500244    4.90999985    2.57999992
   17.64194489  112.63999939    4.90999985    2.55999994
   17.64444351  114.69899750    4.90999985    2.55999994
   17.64749908  111.16999817    4.90999985    2.55999994
   17.65083313  118.39800262    4.90999985    2.53999996
   17.65416718  113.04699707    4.90999985    2.51999998
   17.65722275  122.51300049    4.90999985    2.48000002
   17.66055489  122.88600159    4.90999985    2.46000004
   17.66666603  122.88600159    4.90999985    2.46000004
   17.67083359  124.18399811    4.90999985    2.44000006
   17.67388916  130.51100159    4.90999985    2.40000010
   17.67527771  119.03700256    4.90999985    2.40000010
   17.67777634  117.75700378    4.90999985    2.48000002
   17.68083191  114.13400269    4.90999985    2.50000000
   17.68416595  116.26999664    4.90999985    2.51999998
   17.68750000  113.93000031    4.90999985    2.51999998
   17.69055557  114.88999939    4.90999985    2.53999996
   17.69388771  117.13400269    4.90999985    2.55999994
   17.69722176  116.88700104    4.90999985    2.55999994
   17.70027924  115.76300049    4.90999985    2.53999996
   17.70361137  110.82800293    4.90999985    2.53999996
   17.70944595  110.82800293    4.90999985    2.53999996
   17.71361160  120.02600098    4.90999985    2.53999996
   17.71694565  120.13899994    4.90999985    2.53999996
   17.72000122  114.80300140    4.90999985    2.53999996
   17.72333336  112.62999725    4.90999985    2.53999996
   17.72666740  115.24400330    4.90999985    2.51999998
   17.72972298  117.76599884    4.90999985    2.53999996
   17.73305511  117.37999725    4.90999985    2.51999998
   17.73638916  115.04299927    4.90999985    2.51999998
   17.73944473  117.27799988    4.90999985    2.53999996
   17.74194527  121.87899780    4.90999985    2.53999996
   17.74305534  120.35299683    4.90999985    2.53999996
   17.74611092  116.54000092    4.90999985    2.53999996
   17.75250053  116.54000092    4.90999985    2.53999996
   17.75638962  114.69100189    4.90999985    2.55999994
   17.75972176  122.37200165    4.90999985    2.55999994
   17.76305580  117.76899719    4.90999985    2.53999996
   17.76611137  120.27600098    4.90999985    2.55999994
   17.76944351  107.94599915    4.90999985    2.55999994
   17.77249908  113.70200348    4.90999985    2.55999994
   17.77527809  114.49400330    4.90999985    2.55999994
   17.77638817  120.66799927    4.90999985    2.55999994
   17.77972221  114.52200317    4.90999985    2.55999994
   17.78277779  118.75599670    4.90999985    2.53999996
   17.78610992  118.61399841    4.90999985    2.55999994
   17.78916550  114.19899750    4.90999985    2.55999994
   17.79527664  114.19899750    4.90999985    2.55999994
   17.79944420  112.96099854    4.90999985    2.55999994
   17.80249977  110.72000122    4.90999985    2.55999994
   17.80583191  106.35900116    4.90999985    2.55999994
   17.80861092  114.42600250    4.90999985    2.55999994
   17.80944443  117.27100372    4.90999985    2.55999994
   17.81277657  116.14600372    4.90999985    2.55999994
   17.81583214  117.01200104    4.90999985    2.55999994
   17.81916809  119.42600250    4.90999985    2.55999994
   17.82222366  106.44899750    4.90999985    2.55999994
   17.82555580  116.66799927    4.90999985    2.55999994
   17.82888985  117.48400116    4.90999985    2.55999994
   17.83194542  117.85700226    4.90999985    2.55999994
   17.83805656  117.85700226    4.90999985    2.55999994
   17.84222221  113.68000031    4.90999985    2.55999994
   17.84527779  117.83799744    4.90999985    2.55999994
   17.84861183  120.22699738    4.90999985    2.53999996
   17.85194397  111.76499939    4.90999985    2.53999996
   17.85499954  113.08499908    4.90999985    2.53999996
   17.85833359  109.40799713    4.90999985    2.55999994
   17.86166763  103.84400177    4.90999985    2.55999994
   17.86472321  106.82399750    4.90999985    2.55999994
   17.86805534  111.27999878    4.90999985    2.55999994
   17.87111092  108.40799713    4.90999985    2.53999996
   17.87444496  111.76599884    4.90999985    2.55999994
   17.87527847  110.91100311    4.90999985    2.55999994
   17.88083267  110.91100311    4.90999985    2.55999994
   17.88500023  111.25399780    4.90999985    2.55999994
   17.88833237  113.62899780    4.90999985    2.53999996
   17.89138794  117.13999939    4.90999985    2.53999996
   17.90916634  115.14600372    4.90999985    2.53999996
   17.91138840  111.68499756    4.90999985    2.53999996
   17.91472244  116.49099731    4.90999985    2.53999996
   17.91805458  110.32700348    4.90999985    2.53999996
   17.92388916  110.32700348    4.90999985    2.53999996
   17.92805481  110.65399933    4.90999985    2.53999996
   17.93138885  113.12500000    4.90999985    2.53999996
   17.93444443  116.52600098    4.90999985    2.53999996
   17.93777657  109.79900360    4.90999985    2.53999996
   17.94083214  113.87599945    4.90999985    2.53999996
   17.94222069  109.78500366    4.90999985    2.53999996
   17.94444275  112.86599731    4.90999985    2.53999996
   17.94777679  118.37000275    4.90999985    2.53999996
   17.95083427  111.69999695    4.90999985    2.51999998
   17.95416832  110.54900360    4.90999985    2.51999998
   17.95750046  118.51000214    4.90999985    2.51999998
   17.96055603  113.80400085    4.90999985    2.51999998
   17.96666718  113.80400085    4.90999985    2.51999998
   17.97083473  113.23300171    4.90999985    2.51999998
   17.97416687  117.55300140    4.90999985    2.51999998
   17.97555542  115.63600159    4.90999985    2.51999998
   17.97777748  115.48100281    4.90999985    2.51999998
   17.98111153  117.44200134    4.90999985    2.51999998
   17.98416710  113.71700287    4.90999985    2.51999998
   17.98750114  112.24400330    4.90999985    2.51999998
   17.99083328  116.14700317    4.90999985    2.53999996
   17.99388885  111.24299622    4.90999985    2.51999998
   17.99722290  110.38600159    4.90999985    2.51999998
   18.00055504  112.65299988    4.90999985    2.51999998
   18.00361061  110.86100006    4.90999985    2.50000000
   18.00972176  110.86100006    4.90999985    2.51999998
   18.01361084  111.75099945    4.90999985    2.51999998
   18.01694489  112.85500336    4.90999985    2.51999998
   18.02027702  106.63099670    4.90999985    2.51999998
   18.02333260  111.54100037    4.90999985    2.51999998
   18.02666664  114.87400055    4.90999985    2.51999998
   18.03000069  115.02200317    4.90999985    2.51999998
   18.03305435  111.61699677    4.90999985    2.51999998
   18.03638840  112.73999786    4.90999985    2.50000000
   18.03944397  111.21600342    4.90999985    2.51999998
   18.04222107  112.11299896    4.90999985    2.51999998
   18.04305458  109.95800018    4.90999985    2.51999998
   18.04638863  107.80000305    4.90999985    2.51999998
   18.05249977  107.80000305    4.90999985    2.50000000
   18.05666542  110.88999939    4.90999985    2.51999998
   18.05972099  111.48500061    4.90999985    2.51999998
   18.06305504  109.87000275    4.90999985    2.51999998
   18.06638718  112.19300079    4.90999985    2.50000000
   18.06944466  112.82399750    4.90999985    2.51999998
   18.07277870  109.96099854    4.90999985    2.51999998
   18.07555580  110.36399841    4.90999985    2.50000000
   18.07638931  113.28700256    4.90999985    2.50000000
   18.07972336  106.30999756    4.90999985    2.51999998
   18.08305550  110.13400269    4.90999985    2.51999998
   18.08611107  109.74099731    4.90999985    2.51999998
   18.08944511  115.50199890    4.90999985    2.51999998
   18.09527779  115.50199890    4.90999985    2.51999998
   18.09944534  112.17099762    4.90999985    2.51999998
   18.10277748  110.50199890    4.90999985    2.51999998
   18.10583305  114.02600098    4.90999985    2.51999998
   18.10916710  112.69899750    4.90999985    2.51999998
   18.10944557  108.26799774    4.90999985    2.51999998
   18.11277771  113.15899658    4.90999985    2.50000000
   18.11583328  110.08000183    4.90999985    2.50000000
   18.11916733  116.57299805    4.90999985    2.51999998
   18.12249947  112.69999695    4.90999985    2.51999998
   18.12555504  113.51499939    4.90999985    2.51999998
   18.12888908  112.26100159    4.90999985    2.51999998
   18.13194466  106.51200104    4.90999985    2.51999998
   18.13805580  106.51200104    4.90999985    2.51999998
   18.14249992  112.07099915    4.90999985    2.51999998
   18.14277840  113.28500366    4.90999985    2.51999998
   18.14611053  118.44100189    4.90999985    2.51999998
   18.14916611  115.36499786    4.90999985    2.51999998
   18.15250015  113.27300262    4.90999985    2.51999998
   18.15583229  113.02300262    4.90999985    2.51999998
   18.15888786  113.59100342    4.90999985    2.51999998
   18.16222191  114.94000244    4.90999985    2.51999998
   18.16555595  113.94599915    4.90999985    2.51999998
   18.16860962  114.05599976    4.90999985    2.51999998
   18.17194366  112.18399811    4.90999985    2.51999998
   18.17499924  113.00299835    4.90999985    2.51999998
   18.17583275  113.01399994    4.90999985    2.51999998
   18.18111038  113.01399994    4.90999985    2.50000000
   18.18499947  113.25900269    4.90999985    2.51999998
   18.18833160  111.26399994    4.90999985    2.51999998
   18.19166565  112.92900085    4.90999985    2.51999998
   18.19472122  110.26000214    4.90999985    2.50000000
   18.19805527  110.59500122    4.90999985    2.51999998
   18.20138931  111.11299896    4.90999985    2.50000000
   18.20444489  121.34999847    4.90999985    2.50000000
   18.20777893  114.79100037    4.90999985    2.50000000
   18.20916748  115.02999878    4.90999985    2.50000000
   18.21138954  114.26300049    4.90999985    2.50000000
   18.21472359  112.83300018    4.90999985    2.50000000
   18.21777916  112.51300049    4.90999985    2.48000002
   18.22389030  112.51300049    4.90999985    2.50000000
   18.22805595  111.88899994    4.90999985    2.50000000
   18.23111153  110.75399780    4.90999985    2.50000000
   18.23444557  109.74099731    4.90999985    2.51999998
   18.23777771  108.82199860    4.90999985    2.51999998
   18.24083328  108.94999695    4.90999985    2.50000000
   18.24250031  114.87799835    4.90999985    2.50000000
   18.24444389  113.95700073    4.90999985    2.51999998
   18.24777794  113.74500275    4.90999985    2.51999998
   18.25083351  109.17600250    4.90999985    2.51999998
   18.25416756  115.12699890    4.90999985    2.51999998
   18.25749969  114.26799774    4.90999985    2.50000000
   18.26055527  113.58599854    4.90999985    2.50000000
   18.26666641  113.58599854    4.90999985    2.48000002
   18.27083397  110.90100098    4.90999985    2.48000002
   18.27416611  115.14499664    4.90999985    2.46000004
   18.27583313  112.84400177    4.90999985    2.46000004
   18.27750015  117.32599640    4.90999985    2.48000002
   18.28083229  116.30799866    4.90999985    2.46000004
   18.28388786  116.33100128    4.90999985    2.46000004
   18.28722191  118.83100128    4.90999985    2.46000004
   18.29055595  118.30100250    4.90999985    2.46000004
   18.29361153  115.25599670    4.90999985    2.48000002
   18.29694366  117.81500244    4.90999985    2.46000004
   18.30027771  121.19799805    4.90999985    2.46000004
   18.30333328  122.03199768    4.90999985    2.46000004
   18.30944443  122.03199768    4.90999985    2.40000010
   18.31361008  119.32599640    4.90999985    2.36999989
   18.31694603  125.53800201    4.90999985    2.39000010
   18.32027817  125.09799957    4.90999985    2.36999989
   18.32333374  126.91100311    4.90999985    2.34999990
   18.32666779  118.22000122    4.90999985    2.32999992
   18.33000183  123.15899658    4.90999985    2.34999990
   18.33305550  125.88700104    4.90999985    2.36999989
   18.33638954  126.13099670    4.90999985    2.34999990
   18.33944511  123.53900146    4.90999985    2.30999994
   18.34250069  120.42199707    4.90999985    2.36999989
   18.34305573  118.09400177    4.90999985    2.36999989
   18.34638977  119.71499634    4.90999985    2.36999989
   18.35250092  119.71499634    4.90999985    2.39000010
   18.35639000  127.68399811    4.90999985    2.30999994
   18.35972214  124.89299774    4.90999985    2.28999996
   18.36305618  130.73699951    4.90999985    2.36999989
   18.36611176  128.30099487    4.90999985    2.34999990
   18.36944389  136.88699341    4.90999985    2.26999998
   18.37277794  134.12699890    4.90999985    2.23000002
   18.37583351  135.64399719    4.90999985    2.21000004
   18.37611198  136.87399292    4.90999985    2.21000004
   18.37944412  126.84300232    4.90999985    2.30999994
   18.38249969  141.57699585    4.90999985    2.09999990
   18.38583374  130.63099670    4.90999985    2.15000010
   18.38916588  133.69700623    4.90999985    2.28999996
   18.39527702  133.69700623    4.90999985    2.36999989
   18.39944458  122.40399933    4.90999985    2.40000010
   18.40250015  120.79199982    4.90999985    2.39000010
   18.40583229  124.96299744    4.90999985    2.36999989
   18.40916634  123.38400269    4.90999985    2.34999990
   18.40944481  120.59400177    4.90999985    2.36999989
   18.41277695  120.59799957    4.90999985    2.36999989
   18.41583252  127.15599823    4.90999985    2.39000010
   18.41916656  124.18800354    4.90999985    2.34999990
   18.42249870  118.28700256    4.90999985    2.36999989
   18.42555428  129.61000061    4.90999985    2.34999990
   18.42888832  118.92800140    4.90999985    2.36999989
   18.43222237  118.46600342    4.90999985    2.34999990
   18.43805504  118.46600342    4.90999985    2.30999994
   18.44222069  127.64900208    4.90999985    2.26999998
   18.44277763  122.16999817    4.90999985    2.26999998
   18.44583321  128.47999573    4.90999985    2.28999996
   18.44916534  122.75099945    4.90999985    2.30999994
   18.45250130  129.17500305    4.90999985    2.30999994
   18.45555687  131.63299561    4.90999985    2.32999992
   18.45888901  133.90199280    4.90999985    2.32999992
   18.46222305  126.87400055    4.90999985    2.28999996
   18.46527863  123.20300293    4.90999985    2.30999994
   18.46861076  135.68699646    4.90999985    2.23000002
   18.47166634  146.08599854    4.90999985    2.25000000
   18.47500038  133.30200195    4.90999985    2.17000008
   18.47611237  131.97700500    4.90999985    2.19000006
   18.48083305  131.97700500    4.90999985    2.17000008
   18.48500061  136.05599976    4.90999985    2.13000011
   18.48833275  136.75100708    4.90999985    2.15000010
   18.49138832  132.50999451    4.90999985    2.21000004
   18.49472237  131.88600159    4.90999985    2.26999998
   18.49805641  126.79399872    4.90999985    2.19000006
   18.50138855  131.30599976    4.90999985    2.19000006
   18.50444412  130.00500488    4.90999985    2.26999998
   18.50777817  129.54299927    4.90999985    2.26999998
   18.50944519  135.71099854    4.90999985    2.26999998
   18.51138878  138.44299316    4.90999985    2.19000006
   18.51444435  152.32600403    4.90999985    2.01999998
   18.51777840  140.39799500    4.90999985    2.07999992
   18.52388954  140.39799500    4.90999985    2.05999994
   18.52777672  137.72599792    4.90999985    2.25000000
   18.53111076  132.86599731    4.90999985    2.23000002
   18.53444481  204.35000610    4.90999985    2.01999998
   18.53750038  146.94400024    4.90999985    1.85000002
   18.54083252  131.02200317    4.90999985    2.13000011
   18.54277802  123.34899902    4.90999985    2.26999998
   18.54472160  124.34400177    4.90999985    2.34999990
   18.54777718  134.22000122    4.90999985    2.30999994
   18.55111122  131.91900635    4.90999985    2.23000002
   18.55416679  132.76699829    4.90999985    2.11999989
   18.55749893  142.27299500    4.90999985    2.07999992
   18.56083298  138.44500732    4.90999985    2.11999989
   18.56666756  138.44500732    4.90999985    2.34999990
   18.57083511  116.86499786    4.90999985    2.42000008
   18.57389069  119.16799927    4.90999985    2.46000004
   18.57611275  123.04299927    4.90999985    2.34999990
   18.57777786  127.51399994    4.90999985    2.30999994
   18.58083344  120.61699677    4.90999985    2.32999992
   18.58416748  120.38099670    4.90999985    2.30999994
   18.58722305  122.51799774    4.90999985    2.36999989
   18.59055710  117.53800201    4.90999985    2.39000010
   18.59388924  120.87400055    4.90999985    2.40000010
   18.59694481  114.27200317    4.90999985    2.44000006
   18.60027885  119.70899963    4.90999985    2.40000010
   18.60361099  115.50099945    4.90999985    2.30999994
   18.60944557  115.50099945    4.90999985    2.36999989
   18.61361122  119.19899750    4.90999985    2.30999994
   18.61694527  129.27600098    4.90999985    2.30999994
   18.62000084  123.66899872    4.90999985    2.32999992
   18.62361145  116.46499634    4.90999985    2.32999992
   18.62694550  122.77300262    4.90999985    2.30999994
   18.63027763  118.35600281    4.90999985    2.34999990
   18.63361168  121.18399811    4.90999985    2.39000010
   18.63694382  114.56099701    4.90999985    2.40000010
   18.63999939  118.08799744    4.90999985    2.36999989
   18.64277840  120.39199829    4.90999985    2.39000010
   18.64388847  121.22100067    4.90999985    2.42000008
   18.64694405  116.38700104    4.90999985    2.42000008
   18.65222168  116.38700104    4.90999985    2.46000004
   18.65638924  108.67900085    4.90999985    2.46000004
   18.65972137  116.88200378    4.90999985    2.46000004
   18.66277695  117.27600098    4.90999985    2.40000010
   18.66611099  114.02700043    4.90999985    2.40000010
   18.66944313  135.10499573    4.90999985    2.34999990
   18.67249870  120.24600220    4.90999985    2.36999989
   18.67583275  120.70500183    4.90999985    2.40000010
   18.67638779  113.31999969    4.90999985    2.42000008
   18.67972183  120.74199677    4.90999985    2.39000010
   18.68277740  119.32599640    4.90999985    2.32999992
   18.68610954  117.98000336    4.90999985    2.40000010
   18.68916512  118.78399658    4.90999985    2.36999989
   18.69527626  118.78399658    4.90999985    2.36999989
   18.69916534  129.05599976    4.90999985    2.19000006
   18.70250130  133.12600708    4.90999985    2.21000004
   18.70583344  125.66899872    4.90999985    2.25000000
   18.70888901  125.17800140    4.90999985    2.23000002
   18.70972252  125.77100372    4.90999985    2.25000000
   18.71277809  133.59300232    4.90999985    2.34999990
   18.71583366  129.64599609    4.90999985    2.25000000
   18.71916771  129.16999817    4.90999985    2.23000002
   18.72222328  132.37100220    4.90999985    2.13000011
   18.72555542  128.50500488    4.90999985    2.23000002
   18.72888947  145.45300293    4.90999985    2.23000002
   18.73194504  190.14399719    4.90999985    1.96000004
   18.73805618  190.14399719    4.90999985    1.83000004
   18.74222183  156.21299744    4.90999985    1.71000004
   18.74305534  184.38299561    4.90999985    1.71000004
   18.74583435  185.11300659    4.90999985    1.78999996
   18.74888992  185.80700684    4.90999985    1.89999998
   18.75222206  240.80799866    4.90999985    1.73000002
   18.75527763  206.48300171    4.90999985    1.73000002
   18.75861168  112.51499939    4.90999985    1.69000006
   18.76194382  106.33599854    4.90999985    1.61000001
   18.76499939   -1.00000000    4.90999985    1.51999998
   18.76833344   23.57019997    4.90999985    1.46000004
   18.77166557   -1.00000000   -1.00000000   -1.00000000
   18.77472115   -1.00000000    4.90999985    1.50000000
   18.77638817   90.44789886    4.90999985    1.50000000
   18.78083229   90.44789886    4.90999985    1.39999998
   18.78499985   -1.00000000   -1.00000000   -1.00000000
   18.78833199   -1.00000000    4.90999985    1.61000001
   18.79138756   51.20669937    4.90999985    1.41999996
   18.79472160  154.29200745    4.90999985    1.51999998
   18.79777718  171.21600342    4.90999985    1.61000001
   18.80111122  103.77200317    4.90999985    1.63000000
   18.80444336  185.81399536    4.90999985    1.51999998
   18.80749893  245.99200439    4.90999985    1.80999994
   18.80972099  152.47700500    4.90999985    1.76999998
   18.81138802  250.75199890    4.90999985    1.75000000
   18.81444359  254.80499268    4.90999985    1.78999996
   18.81777954  133.24299622    4.90999985    1.75000000
   18.82361221  133.24299622    4.90999985    2.30999994
   18.82777786  124.27100372    4.90999985    2.30999994
   18.83111191  142.86999512    4.90999985    2.21000004
   18.83444595  127.44200134    4.90999985    1.80999994
   18.83750153  137.15600586    4.90999985    2.05999994
   18.84083366  137.25799561    4.90999985    2.17000008
   18.84305573  140.74299622    4.90999985    2.19000006
   18.84444427  149.13499451    4.90999985    2.07999992
   18.84749985  150.14799500    4.90999985    1.53999996
   18.85083389   -1.00000000    4.90999985    1.23000002
   18.85388947   -1.00000000    4.90999985    1.16999996
   18.85722351   87.29810333    4.90999985    1.36000001
   18.86055565   -1.00000000    4.90999985    1.51999998
   18.87055588   -1.00000000    4.90999985    0.86000001
   18.87388992   -1.00000000    4.90999985    0.98000002
   18.87722206   -1.00000000    4.90999985    0.94000000
   18.88055611   -1.00000000    4.90999985    1.33000004
   18.88361168  139.86999512    4.90999985    1.50000000
   18.88694382  192.63200378    4.90999985    1.55999994
   18.89027786  152.24400330    4.90999985    1.98000002
   18.89333344  176.20199585    4.90999985    1.96000004
   18.89666748  198.82099915    4.90999985    1.89999998
   18.89999962   23.57019997    4.90999985    1.58000004
   18.90305519   96.08370209    4.90999985    1.53999996
   18.90944481   96.08370209    4.90999985    1.80999994
   18.92777634  249.03199768    4.90999985    1.76999998
   18.93111038  157.69500732    4.90999985    1.76999998
   18.93416595  166.66700745    4.90999985    1.96000004
   18.93750000  252.17999268    4.90999985    1.91999996
   18.94055557   -1.00000000    4.90999985    1.71000004
   18.94388771   -1.00000000    4.90999985    1.33000004
   18.94722176   -1.00000000    4.90999985    1.16999996
   18.95666695   -1.00000000    4.90999985    0.79000002
   18.95972252   -1.00000000    4.90999985    0.95999998
   18.96333504   -1.00000000    4.90999985    0.94000000
   18.96666718   -1.00000000    4.90999985    1.05999994
   18.97000122   -1.00000000    4.90999985    1.21000004
   18.97305679   -1.00000000    4.90999985    1.19000006
   18.97638893  134.88800049    4.90999985    1.53999996
   18.97944450  218.25500488    4.90999985    1.66999996
   18.98277855  197.52699280    4.90999985    1.78999996
   18.98611069  175.38099670    4.90999985    1.98000002
   18.98916626  188.61900330    4.90999985    2.01999998
   18.99527740  188.61900330    4.90999985    2.00000000
   18.99944496  146.95500183    4.90999985    1.86000001
   19.00277710   -1.00000000    4.90999985    1.36000001
   19.00583267   -1.00000000    4.90999985    0.83999997
   19.00916672   -1.00000000    4.90999985    1.33000004
   19.01250076   -1.00000000    4.90999985    1.26999998
   19.01555634  125.69599915    4.90999985    1.28999996
   19.01888847   -1.00000000    4.90999985    1.48000002
   19.02194405   -1.00000000    4.90999985    1.26999998
   19.02527809   -1.00000000    4.90999985    1.14999998
   19.02861023   -1.00000000    4.90999985    1.03999996
   19.03194427   -1.00000000    4.90999985    0.81999999
   19.04222107   -1.00000000    4.90999985    0.73000002
   19.04555511   -1.00000000    4.90999985    0.88000000
   19.04861069   -1.00000000    4.90999985    1.00000000
   19.05194283   -1.00000000    4.90999985    1.01999998
   19.05499840   -1.00000000    4.90999985    0.98000002
   19.05833244   -1.00000000    4.90999985    1.01999998
   19.06166649   -1.00000000    4.90999985    0.89999998
   19.06499863   -1.00000000    4.90999985    0.83999997
   19.06833458   -1.00000000    4.90999985    0.79000002
   19.07139015   -1.00000000    4.90999985    0.80000001
   19.07472229   -1.00000000    4.90999985    0.95999998
   19.08500099   -1.00000000    4.90999985    0.56999999
   19.08833313   -1.00000000    4.90999985    0.63000000
   19.09138870   -1.00000000    4.90999985    0.73000002
   19.09500122   -1.00000000    4.90999985    0.75000000
   19.09833336   -1.00000000    4.90999985    0.76999998
   19.10166740   -1.00000000    4.90999985    0.80000001
   19.10472298   -1.00000000    4.90999985    0.83999997
   19.10805511   -1.00000000    4.90999985    0.73000002
   19.11138916   -1.00000000    4.90999985    0.86000001
   19.11444473   -1.00000000    4.90999985    1.01999998
   19.11777878   -1.00000000    4.90999985    1.13000000
   19.12805557   -1.00000000    4.90999985    1.19000006
   19.13111115   -1.00000000    4.90999985    0.88000000
   19.13444519   -1.00000000    4.90999985    0.92000002
   19.13750076   -1.00000000    4.90999985    0.94000000
   19.14083290   -1.00000000    4.90999985    0.94000000
   19.14416695   -1.00000000    4.90999985    0.92000002
   19.14722252   -1.00000000    4.90999985    0.79000002
   19.15055466   -1.00000000    4.90999985    0.67000002
   19.15388870   -1.00000000    4.90999985    0.64999998
   19.15694427   -1.00000000    4.90999985    0.73000002
   19.16027832   -1.00000000    4.90999985    1.11000001
   19.16666603   -1.00000000    4.90999985    1.34000003
   19.17083359   -1.00000000    4.90999985    1.28999996
   19.17416573   -1.00000000    4.90999985    1.19000006
   19.17722130   -1.00000000    4.90999985    1.30999994
   19.18055534   -1.00000000    4.90999985    1.46000004
   19.18388748   -1.00000000    4.90999985    1.14999998
   19.18694305   -1.00000000    4.90999985    1.25000000
   19.19027710   -1.00000000    4.90999985    1.36000001
   19.19333267   -1.00000000    4.90999985    1.21000004
   19.19694328   -1.00000000    4.90999985    1.28999996
   19.20027924   -1.00000000    4.90999985    1.26999998
   19.20361137  143.35299683    4.90999985    1.34000003
   19.20944595  143.35299683    4.90999985    1.75000000
   19.21361160   -1.00000000    4.90999985    1.51999998
   19.21694565   -1.00000000    4.90999985    1.44000006
   19.22027779   -1.00000000    4.90999985    1.28999996
   19.22333336   -1.00000000    4.90999985    1.19000006
   19.22666740   -1.00000000    4.90999985    1.14999998
   19.23000145   -1.00000000    4.90999985    1.21000004
   19.23333359   -1.00000000    4.90999985    1.60000002
   19.23666763   -1.00000000    4.90999985    1.34000003
   19.23972321   -1.00000000    4.90999985    1.25000000
   19.24305534   -1.00000000    4.90999985    1.21000004
   19.24638939   -1.00000000    4.90999985    1.19000006
   19.25250053   -1.00000000    4.90999985    1.21000004
   19.25666618   -1.00000000    4.90999985    1.23000002
   19.25972176   -1.00000000    4.90999985    1.26999998
   19.26333427   -1.00000000    4.90999985    1.39999998
   19.26638794   -1.00000000    4.90999985    1.46000004
   19.26972198   -1.00000000    4.90999985    1.44000006
   19.27277756   -1.00000000    4.90999985    1.36000001
   19.27611160   -1.00000000    4.90999985    1.25000000
   19.27944374   -1.00000000    4.90999985    1.30999994
   19.28249931   -1.00000000    4.90999985    1.30999994
   19.28583336   -1.00000000    4.90999985    1.26999998
   19.28916550   -1.00000000    4.90999985    1.14999998
   19.29944420   -1.00000000    4.90999985    0.88000000
   19.30249977   -1.00000000    4.90999985    0.69000000
   19.30583191   -1.00000000    4.90999985    0.56999999
   19.30888748   -1.00000000    4.90999985    0.41999999
   19.31222153   -1.00000000    4.90999985    0.40000001
   19.31555557   -1.00000000    4.90999985    0.31999999
   19.31861115   -1.00000000    4.90999985    0.30000001
   19.32194519   -1.00000000    4.90999985    0.25999999
   19.32527924   -1.00000000    4.90999985    0.25999999
   19.32861137   -1.00000000    4.90999985    0.25000000
   19.33194542   -1.00000000    4.90999985    0.25000000
   19.34222221   -1.00000000    4.90999985    0.28000000
   19.34527779   -1.00000000    4.90999985    0.31999999
   19.34861183   -1.00000000    4.90999985    0.38000000
   19.35194397   -1.00000000    4.90999985    0.41999999
   19.35499954   -1.00000000    4.90999985    0.40000001
   19.35833359   -1.00000000    4.90999985    0.40000001
   19.36166763   -1.00000000    4.90999985    0.46000001
   19.36499977   -1.00000000    4.90999985    0.40000001
   19.36833382   -1.00000000    4.90999985    0.36000001
   19.37138939   -1.00000000    4.90999985    0.34000000
   19.37472153   -1.00000000    4.90999985    0.28000000
   19.38500023   -1.00000000    4.90999985    0.25999999
   19.38833237   -1.00000000    4.90999985    0.34000000
   19.39138794   -1.00000000    4.90999985    0.34000000
   19.39500046   -1.00000000    4.90999985    0.34000000
   19.39833260   -1.00000000    4.90999985    0.34000000
   19.40166664   -1.00000000    4.90999985    0.34000000
   19.40472221   -1.00000000    4.90999985    0.34000000
   19.40805435   -1.00000000    4.90999985    0.31999999
   19.41138840   -1.00000000    4.90999985    0.30000001
   19.41444397   -1.00000000    4.90999985    0.28000000
   19.41777802   -1.00000000    4.90999985    0.30000001
   19.42777634   -1.00000000    4.90999985    0.25999999
   19.43111038   -1.00000000    4.90999985    0.23000000
   19.43444443   -1.00000000    4.90999985    0.20999999
   19.43750000   -1.00000000    4.90999985    0.20999999
   19.44083214   -1.00000000    4.90999985    0.25000000
   19.44388771   -1.00000000    4.90999985    0.28000000
   19.44722176   -1.00000000    4.90999985    0.34000000
   19.45055580   -1.00000000    4.90999985    0.34000000
   19.45361137   -1.00000000    4.90999985    0.38000000
   19.45694542   -1.00000000    4.90999985    0.40000001
   19.46027946   -1.00000000    4.90999985    0.40000001
   19.47083473   -1.00000000    4.90999985    0.28000000
   19.47389030   -1.00000000    4.90999985    0.25000000
   19.47722244   -1.00000000    4.90999985    0.23000000
   19.48027802   -1.00000000    4.90999985    0.28000000
   19.48361206   -1.00000000    4.90999985    0.31999999
   19.48694420   -1.00000000    4.90999985    0.38000000
   19.48999977   -1.00000000    4.90999985    0.38000000
   19.49333382   -1.00000000    4.90999985    0.40000001
   19.49694443   -1.00000000    4.90999985    0.40000001
   19.50000000   -1.00000000    4.90999985    0.47999999
   19.50333405   -1.00000000    4.90999985    0.55000001
   19.51361084   -1.00000000    4.90999985    0.63000000
   19.51666641   -1.00000000    4.90999985    0.69000000
   19.52000046   -1.00000000    4.90999985    0.80000001
   19.52333260   -1.00000000    4.90999985    0.80000001
   19.52638817   -1.00000000    4.90999985    0.79000002
   19.53000069   -1.00000000    4.90999985    0.81999999
   19.53305435   -1.00000000    4.90999985    0.89999998
   19.53638840   -1.00000000    4.90999985    0.88000000
   19.53944397   -1.00000000    4.90999985    0.73000002
   19.54277802   -1.00000000    4.90999985    0.73000002
   19.54611015   -1.00000000    4.90999985    0.67000002
   19.55638885   -1.00000000    4.90999985    0.69000000
   19.55972099   -1.00000000    4.90999985    0.81999999
   19.56333351   -1.00000000    4.90999985    0.73000002
   19.56638718   -1.00000000    4.90999985    0.89999998
   19.56972313   -1.00000000    4.90999985    1.11000001
   19.57277870  215.42500305    4.90999985    1.34000003
   19.57611275  173.39300537    4.90999985    1.61000001
   19.57944489  228.90499878    4.90999985    1.71000004
   19.58250046   79.66590118    4.90999985    1.75000000
   19.58583450   35.58300018    4.90999985    1.61000001
   19.58916664  126.75800323    4.90999985    1.44000006
   19.59527779  126.75800323    4.90999985    1.63000000
   19.59944534  197.72000122    4.90999985    1.58000004
   19.60250092  176.08200073    4.90999985    1.80999994
   19.60583305  206.63200378    4.90999985    1.88000000
   19.60916710  174.69000244    4.90999985    1.73000002
   19.61222267  151.28900146    4.90999985    1.76999998
   19.61555672  103.31600189    4.90999985    1.85000002
   19.61861038  137.34899902    4.90999985    1.58000004
   19.62194443  190.30999756    4.90999985    1.89999998
   19.62527847  253.24000549    4.90999985    2.28999996
   19.62750053  225.88299561    4.90999985    2.11999989
   19.62888908  292.63699341    4.90999985    2.17000008
   19.63222313  301.27999878    4.90999985    2.25000000
   19.63805580  301.27999878    4.90999985    2.28999996
   19.64222145   -1.00000000    4.90999985    2.17000008
   19.64527702   -1.00000000    4.90999985    2.00000000
   19.64861107   -1.00000000    4.90999985    1.98000002
   19.65194321   -1.00000000    4.90999985    1.96000004
   19.65499878   -1.00000000    4.90999985    2.09999990
   19.65833282   -1.00000000    4.90999985    2.28999996
   19.66194344   -1.00000000    4.90999985    1.96000004
   19.66499901   -1.00000000    4.90999985    1.69000006
   19.66833305   -1.00000000    4.90999985    2.13000011
   19.67138863   -1.00000000    4.90999985    2.36999989
   19.67472076   -1.00000000    4.90999985    2.34999990
   19.68499947   -1.00000000    4.90999985    2.36999989
   19.68805504   -1.00000000    4.90999985    2.34999990
   19.69138718   -1.00000000    4.90999985    2.34999990
   19.69499969   -1.00000000    4.90999985    2.32999992
   19.69805527   -1.00000000    4.90999985    2.32999992
   19.70138931   -1.00000000    4.90999985    2.32999992
   19.70444489   -1.00000000    4.90999985    2.34999990
   19.70777893   -1.00000000    4.90999985    2.32999992
   19.71111107   -1.00000000    4.90999985    2.34999990
   19.71416664   -1.00000000    4.90999985    2.32999992
   19.71750069   -1.00000000    4.90999985    2.32999992
   19.72777748   -1.00000000    4.90999985    2.32999992
   19.73111153   -1.00000000    4.90999985    2.32999992
   19.73416710   -1.00000000    4.90999985    2.32999992
   19.73750114   -1.00000000    4.90999985    2.32999992
   19.74083328   -1.00000000    4.90999985    2.32999992
   19.74388885   -1.00000000    4.90999985    2.34999990
   19.74722290   -1.00000000    4.90999985    2.32999992
   19.75027847   -1.00000000    4.90999985    2.32999992
   19.75361061   -1.00000000    4.90999985    2.32999992
   19.75694466   -1.00000000    4.90999985    2.32999992
   19.76000023   -1.00000000    4.90999985    2.32999992
   19.77055550   -1.00000000    4.90999985    2.32999992
   19.77388954   -1.00000000    4.90999985    2.30999994
   19.77722168   -1.00000000    4.90999985    2.32999992
   19.78027725   -1.00000000    4.90999985    2.32999992
   19.78361130   -1.00000000    4.90999985    2.30999994
   19.78666687   -1.00000000    4.90999985    2.32999992
   19.78999901   -1.00000000    4.90999985    2.32999992
   19.79333305   -1.00000000    4.90999985    2.32999992
   19.79694366   -1.00000000    4.90999985    2.32999992
   19.79999924   -1.00000000    4.90999985    2.32999992
   19.80333328   -1.00000000    4.90999985    2.30999994
   19.81361008   -1.00000000    4.90999985    2.32999992
   19.81666756   -1.00000000    4.90999985    2.32999992
   19.82000160   -1.00000000    4.90999985    2.32999992
   19.82305717   -1.00000000    4.90999985    2.32999992
   19.82638931   -1.00000000    4.90999985    2.30999994
   19.83000183   -1.00000000    4.90999985    2.32999992
   19.83305550   -1.00000000    4.90999985    2.32999992
   19.83638954   -1.00000000    4.90999985    2.30999994
   19.83972359   -1.00000000    4.90999985    2.30999994
   19.84277916   -1.00000000    4.90999985    2.30999994
   19.84611130   -1.00000000    4.90999985    2.30999994
   19.85639000   -1.00000000    4.90999985    2.30999994
