    HOUR (UT)   FLARE FACTOR    SKY TESTER    SUN TESTER
   11.19388866   -1.00000000   -1.00000000   -1.00000000
   11.21472168  136.88600159    4.90999985    1.33000004
   11.21805477  141.41499329    4.90999985    1.33000004
   11.22138882  138.61599731    4.90999985    1.34000003
   11.22444439  159.40699768    4.90999985    1.34000003
   11.22777748  140.80400085    4.90999985    1.34000003
   11.23361111  184.11999512    4.90999985    1.36000001
   11.23694515  178.44999695    4.90999985    1.36000001
   11.24027824  207.80299377    4.90999985    1.36000001
   11.24361134  200.92199707    4.90999985    1.38000000
   11.24666691  215.13200378    4.90999985    1.38000000
   11.24805546  234.83900452    4.90999985    1.38000000
   11.25027752  227.78100586    4.90999985    1.39999998
   11.25361156  230.19400024    4.90999985    1.39999998
   11.25666714  253.86000061    4.90999985    1.39999998
   11.26000023  254.47900391    4.90999985    1.39999998
   11.26305580  278.01098633    4.90999985    1.41999996
   11.26638889  275.20498657    4.90999985    1.41999996
   11.26972198  263.12100220    4.90999985    1.41999996
   11.27277756  254.53300476    4.90999985    1.44000006
   11.27611065  273.92098999    4.90999985    1.44000006
   11.27944374  326.17001343    4.90999985    1.46000004
   11.28138828  265.19198608    4.90999985    1.46000004
   11.28305531  323.08200073    4.90999985    1.46000004
   11.28638935  275.11499023    4.90999985    1.46000004
   11.28944492  282.98599243    4.90999985    1.48000002
   11.29277802  269.91699219    4.90999985    1.48000002
   11.29611111  289.18399048    4.90999985    1.48000002
   11.29916668  292.95498657    4.90999985    1.50000000
   11.30249977  290.17001343    4.90999985    1.50000000
   11.30555534  286.35699463    4.90999985    1.50000000
   11.30888939  253.97700500    4.90999985    1.51999998
   11.31222248  255.40499878    4.90999985    1.51999998
   11.31472206  270.65100098    4.90999985    1.51999998
   11.31583309  293.94400024    4.90999985    1.51999998
   11.31916618  251.43099976    4.90999985    1.53999996
   11.32222176  251.17599487    4.90999985    1.53999996
   11.32555580  257.63101196    4.90999985    1.53999996
   11.32888889  230.03700256    4.90999985    1.53999996
   11.33194447  251.44400024    4.90999985    1.53999996
   11.33527756  233.50000000    4.90999985    1.55999994
   11.33888817  256.28500366    4.90999985    1.55999994
   11.34194374  234.50900269    4.90999985    1.58000004
   11.34527779  234.14700317    4.90999985    1.58000004
   11.34805489  229.01499939    4.90999985    1.58000004
   11.34888840  255.28799438    4.90999985    1.58000004
   11.35222244  240.78199768    4.90999985    1.58000004
   11.35527802  227.60099792    4.90999985    1.60000002
   11.35861111  260.43899536    4.90999985    1.60000002
   11.36194515  239.18800354    4.90999985    1.60000002
   11.36500072  223.65100098    4.90999985    1.61000001
   11.36833382  220.24800110    4.90999985    1.61000001
   11.37138939  221.96699524    4.90999985    1.61000001
   11.37472248  208.44000244    4.90999985    1.61000001
   11.37805557  234.50000000    4.90999985    1.61000001
   11.38111115  240.86500549    4.90999985    1.63000000
   11.38166714  232.28599548    4.90999985    1.63000000
   11.38500023  250.58500671    4.90999985    1.63000000
   11.38833332  226.22700500    4.90999985    1.63000000
   11.39138889  217.87899780    4.90999985    1.64999998
   11.39472198  214.45899963    4.90999985    1.64999998
   11.39777756  216.25199890    4.90999985    1.64999998
   11.40111065  242.16999817    4.90999985    1.64999998
   11.40444374  228.84199524    4.90999985    1.64999998
   11.40805531  226.06399536    4.90999985    1.66999996
   11.41138840  205.88299561    4.90999985    1.66999996
   11.41444397  224.44700623    4.90999985    1.66999996
   11.41499996  228.86799622    4.90999985    1.66999996
   11.41805553  233.92399597    4.90999985    1.66999996
   11.42138958  212.51899719    4.90999985    1.69000006
   11.42444515  235.64599609    4.90999985    1.69000006
   11.42777824  205.87600708    4.90999985    1.71000004
   11.43111134  236.85699463    4.90999985    1.71000004
   11.43416691  216.67100525    4.90999985    1.71000004
   11.43750000  218.29699707    4.90999985    1.71000004
   11.44055557  213.15100098    4.90999985    1.71000004
   11.44388866  219.80200195    4.90999985    1.71000004
   11.44722271  221.02099609    4.90999985    1.73000002
   11.44833374  223.73300171    4.90999985    1.73000002
   11.45083332  190.36999512    4.90999985    1.73000002
   11.45416641  206.98300171    4.90999985    1.73000002
   11.45722198  184.47900391    4.90999985    1.73000002
   11.46055508  213.25999451    4.90999985    1.75000000
   11.46388912  206.18400574    4.90999985    1.75000000
   11.46694374  197.90299988    4.90999985    1.75000000
   11.47027779  206.22300720    4.90999985    1.75000000
   13.27388859  115.94799805    2.25000000    2.59999990
   13.39944458   -1.00000000   -1.00000000   -1.00000000
   13.49694443   -1.00000000   -1.00000000   -1.00000000
   13.60000038   -1.00000000   -1.00000000   -1.00000000
   13.72777748   -1.00000000   -1.00000000   -1.00000000
   13.82583332   -1.00000000   -1.00000000   -1.00000000
   13.92666721   -1.00000000   -1.00000000   -1.00000000
   14.02444458   -1.00000000   -1.00000000   -1.00000000
   14.12250042   -1.00000000   -1.00000000   -1.00000000
   14.23361111   -1.00000000   -1.00000000   -1.00000000
   14.26500034   77.38520050    1.46000004    2.71000004
   14.26805496  140.59899902    1.44000006    2.71000004
   14.27138901  137.64399719    1.46000004    2.71000004
   14.27472210  131.91999817    1.46000004    2.69000006
   14.27777767  129.03300476    1.46000004    2.71000004
   14.28111076  130.28599548    1.44000006    2.69000006
   14.28527832  130.28599548    1.44000006    2.71000004
   14.28944492  125.70700073    1.44000006    2.71000004
   14.29250050  128.12600708    1.44000006    2.71000004
   14.29583359  131.09399414    1.44000006    2.71000004
   14.29833412  133.55799866    1.44000006    2.71000004
   14.29944515  131.18899536    1.44000006    2.71000004
   14.30277824  132.13299561    1.44000006    2.71000004
   14.30611134  129.82600403    1.44000006    2.71000004
   14.30916691  127.40799713    1.44000006    2.71000004
   14.31250000  133.19200134    1.46000004    2.71000004
   14.31583309  129.35200500    1.44000006    2.69000006
   14.31888866  133.90299988    1.46000004    2.71000004
   14.32222176  129.51199341    1.44000006    2.71000004
   14.32805538  129.51199341    1.44000006    2.71000004
   14.33222198  135.44400024    1.46000004    2.71000004
   14.33555508  134.07699585    1.44000006    2.71000004
   14.33861065  136.22200012    1.44000006    2.71000004
   14.34194374  131.43499756    1.44000006    2.71000004
   14.34527779  131.58799744    1.44000006    2.71000004
   14.34833336  134.36700439    1.44000006    2.71000004
   14.35166740  131.17900085    1.44000006    2.71000004
   14.35472298  128.86099243    1.44000006    2.71000004
   14.35805607  124.45700073    1.44000006    2.71000004
   14.36138916  128.38499451    1.44000006    2.71000004
   14.36444473  135.23699951    1.44000006    2.71000004
   14.36500072  132.19400024    1.44000006    2.71000004
   14.37083340  132.19400024    1.41999996    2.71000004
   14.37500000  133.73899841    1.44000006    2.69000006
   14.37833309  127.53900146    1.44000006    2.71000004
   14.38166714  127.19599915    1.44000006    2.71000004
   14.38472176  121.79699707    1.44000006    2.71000004
   14.38805580  134.35000610    1.44000006    2.71000004
   14.39111137  119.16200256    1.44000006    2.71000004
   14.39444447  129.47799683    1.44000006    2.71000004
   14.39777756  116.95600128    1.41999996    2.71000004
   14.39833355  120.70500183    1.41999996    2.71000004
   14.40138817  121.43699646    1.41999996    2.71000004
   14.40472221  122.19699860    1.41999996    2.73000002
   14.40777779  119.30400085    1.41999996    2.71000004
   14.41388893  119.30400085    1.41999996    2.71000004
   14.41805553  132.13800049    1.44000006    2.71000004
   14.42111111  122.42199707    1.44000006    2.71000004
   14.42444515  135.79699707    1.44000006    2.71000004
   14.42750072  140.86700439    1.44000006    2.71000004
   14.43083382  133.11399841    1.46000004    2.71000004
   14.43166733  135.39599609    1.46000004    2.71000004
   14.43444443  122.38200378    1.44000006    2.71000004
   14.43777752  134.14100647    1.44000006    2.71000004
   14.44083309  134.40600586    1.46000004    2.71000004
   14.44416714  121.98799896    1.46000004    2.71000004
   14.44722271  133.62100220    1.44000006    2.71000004
   14.45055580  130.71699524    1.44000006    2.71000004
   14.45666695  130.71699524    1.44000006    2.71000004
   14.46083355  128.36700439    1.41999996    2.71000004
   14.46388912  125.88300323    1.41999996    2.71000004
   14.46500015  129.72500610    1.39999998    2.73000002
   14.46777725  125.69100189    1.39999998    2.71000004
   14.47111034  129.22200012    1.41999996    2.71000004
   14.47416592  121.70300293    1.41999996    2.71000004
   14.47749996  127.73600006    1.41999996    2.71000004
   14.48055553  125.55000305    1.44000006    2.71000004
   14.48388958  126.03700256    1.46000004    2.73000002
   14.48722267  128.98300171    1.46000004    2.71000004
   14.49027824  130.74200439    1.46000004    2.73000002
   14.49361134  118.68299866    1.51999998    2.71000004
   14.49944496  118.68299866    1.50000000    2.73000002
   14.50361156  131.90400696    1.50000000    2.71000004
   14.50694466  135.28300476    1.48000002    2.73000002
   14.51000023  118.88700104    1.41999996    2.73000002
   14.51333332  117.05599976    1.41999996    2.73000002
   14.51666641  130.18699646    1.41999996    2.71000004
   14.51972198  127.50099945    1.41999996    2.71000004
   14.52305508  129.19799805    1.44000006    2.73000002
   14.52638817  119.69200134    1.41999996    2.73000002
   14.52944374  129.53700256    1.41999996    2.73000002
   14.53194427  123.88300323    1.38000000    2.71000004
   14.53333378  130.12399292    1.38000000    2.71000004
   14.53666687  132.18600464    1.38000000    2.73000002
   14.54250050  132.18600464    1.38000000    2.71000004
   14.54666710  114.97100067    1.38000000    2.73000002
   14.54972267  120.87200165    1.38000000    2.71000004
   14.55305576  119.39900208    1.38000000    2.73000002
   14.55638885  120.46099854    1.38000000    2.71000004
   14.55944443  128.89700317    1.38000000    2.71000004
   14.56277752  123.48200226    1.38000000    2.73000002
   14.56527805  124.78399658    1.38000000    2.73000002
   14.56638908  113.42600250    1.38000000    2.73000002
   14.56972218  113.83799744    1.38000000    2.71000004
   14.57305527  120.15499878    1.38000000    2.73000002
   14.57638836  134.62600708    1.38000000    2.73000002
   14.57944393  119.80200195    1.38000000    2.73000002
   14.58555508  119.80200195    1.38000000    2.71000004
   14.58972168  126.72699738    1.39999998    2.71000004
   14.59277725  127.14499664    1.38000000    2.73000002
   14.59611034  115.37799835    1.38000000    2.71000004
   14.59861088  115.97100067    1.38000000    2.71000004
   14.59972191  109.98999786    1.38000000    2.71000004
   14.60305595  121.12599945    1.38000000    2.73000002
   14.60638905  121.66100311    1.38000000    2.73000002
   14.60972214  116.70999908    1.38000000    2.71000004
   14.61277771  122.11900330    1.38000000    2.71000004
   14.61611176  118.53299713    1.38000000    2.73000002
   14.61944485  121.04399872    1.36000001    2.71000004
   14.62250042  123.66200256    1.36000001    2.71000004
   14.62805557  123.66200256    1.34000003    2.73000002
   14.63222218  118.45899963    1.34000003    2.73000002
   14.63555527  110.58000183    1.34000003    2.73000002
   14.63888836  122.98400116    1.34000003    2.73000002
   14.64194393  121.00099945    1.34000003    2.73000002
   14.64527798  117.08499908    1.34000003    2.73000002
   14.64861107  121.56900024    1.34000003    2.73000002
   14.65166664  114.42600250    1.33000004    2.73000002
   14.65499973  123.01499939    1.34000003    2.73000002
   14.65805531  128.15600586    1.34000003    2.73000002
   14.66138840  126.84600067    1.33000004    2.73000002
   14.66472149  120.32599640    1.34000003    2.73000002
   14.66527748  116.37300110    1.34000003    2.73000002
   14.67083359  116.37300110    1.33000004    2.73000002
   14.67500019  123.04000092    1.33000004    2.73000002
   14.67833328  127.67800140    1.33000004    2.73000002
   14.68166733  131.59599304    1.33000004    2.73000002
   14.68500042  116.59300232    1.33000004    2.73000002
   14.68833351  118.37000275    1.30999994    2.73000002
   14.69138908  113.81099701    1.33000004    2.71000004
   14.69472218  118.11799622    1.30999994    2.73000002
   14.69777775  108.39600372    1.30999994    2.73000002
   14.69861126  124.86000061    1.30999994    2.73000002
   14.70138836  119.97100067    1.30999994    2.73000002
   14.70472240  114.42800140    1.30999994    2.73000002
   14.70805550  124.71600342    1.33000004    2.73000002
   14.71361065  124.71600342    1.33000004    2.73000002
   14.71777725  117.41799927    1.30999994    2.73000002
   14.72111034  117.60700226    1.30999994    2.73000002
   14.72416592  110.69699860    1.30999994    2.73000002
   14.72749996  112.20300293    1.30999994    2.73000002
   14.73083305  124.78399658    1.30999994    2.73000002
   14.73194408  121.39800262    1.30999994    2.73000002
   14.73416710  119.36199951    1.33000004    2.73000002
   14.73750019  122.81099701    1.33000004    2.73000002
   14.74083328  110.02200317    1.30999994    2.73000002
   14.74388885  124.87100220    1.30999994    2.75000000
   14.74722290  115.17199707    1.33000004    2.73000002
   14.75055599  129.42399597    1.33000004    2.73000002
   14.75666714  129.42399597    1.33000004    2.75000000
   14.76083374  127.83100128    1.30999994    2.75000000
   14.76388931  120.21299744    1.30999994    2.73000002
   14.76527786  122.08999634    1.30999994    2.73000002
   14.76749992  109.96800232    1.33000004    2.73000002
   14.77083302  125.15399933    1.30999994    2.73000002
   14.77416611  122.93099976    1.33000004    2.73000002
   14.77722168  120.68099976    1.33000004    2.73000002
   14.78055573  127.64700317    1.34000003    2.73000002
   14.78388977  119.91500092    1.36000001    2.75000000
   14.78694534  103.00900269    1.36000001    2.75000000
   14.79027843  115.01100159    1.36000001    2.75000000
   14.79361153  126.23899841    1.36000001    2.75000000
   14.79944515  126.23899841    1.36000001    2.75000000
   14.80361176  112.93800354    1.36000001    2.75000000
   14.80666733  125.36199951    1.36000001    2.75000000
   14.81027794  122.79900360    1.36000001    2.75000000
   14.81361103  119.65100098    1.36000001    2.75000000
   14.81666660  117.63899994    1.36000001    2.73000002
   14.81999969  121.92199707    1.38000000    2.73000002
   14.82333374  121.06600189    1.38000000    2.75000000
   14.82638836  116.30000305    1.39999998    2.73000002
   14.82972240  128.77000427    1.39999998    2.73000002
   14.83194447  127.58799744    1.39999998    2.73000002
   14.83333302  121.52200317    1.39999998    2.73000002
   14.83666611  122.35600281    1.39999998    2.73000002
   14.84222221  122.35600281    1.41999996    2.73000002
   14.84638882  123.26599884    1.41999996    2.73000002
   14.84972191  125.65299988    1.41999996    2.75000000
   14.85277843  119.34899902    1.41999996    2.75000000
   14.85611153  124.69699860    1.39999998    2.75000000
   14.85944462  128.66600037    1.39999998    2.73000002
   14.86250019  116.42199707    1.39999998    2.73000002
   14.86527824  105.24900055    1.38000000    2.73000002
   14.86611176  113.40200043    1.38000000    2.73000002
   14.86944485  127.42700195    1.39999998    2.75000000
   14.87277794  114.87500000    1.38000000    2.75000000
   14.87583351  115.23500061    1.39999998    2.73000002
   14.87916660  120.24400330    1.39999998    2.73000002
   14.88500023  120.24400330    1.34000003    2.75000000
   14.88916683  124.82399750    1.34000003    2.75000000
   14.89249992  110.09799957    1.34000003    2.75000000
   14.89555550  121.87000275    1.33000004    2.73000002
   14.89861107  120.27999878    1.33000004    2.75000000
   14.89916611  126.10500336    1.33000004    2.75000000
   14.90249920  111.29799652    1.33000004    2.73000002
   14.90583324  126.18399811    1.33000004    2.73000002
   14.90888882  115.24700165    1.33000004    2.73000002
   14.91222191  125.97100067    1.33000004    2.75000000
   14.91555500  114.03700256    1.30999994    2.73000002
   14.91861153  120.76399994    1.30999994    2.75000000
   14.92194462  127.71499634    1.30999994    2.75000000
   14.92805576  127.71499634    1.30999994    2.75000000
   14.93194485  116.08499908    1.30999994    2.75000000
   14.93527794  115.83899689    1.30999994    2.73000002
   14.93861103  117.53800201    1.30999994    2.73000002
   14.94166660  111.60399628    1.30999994    2.75000000
   14.94499969  119.44100189    1.30999994    2.75000000
   14.94833374  109.52799988    1.33000004    2.75000000
   14.95166683  118.09300232    1.33000004    2.75000000
   14.95499992  116.20600128    1.33000004    2.75000000
   14.95833302  116.54499817    1.30999994    2.75000000
   14.96138859  121.30699921    1.34000003    2.75000000
   14.96472168  111.97100067    1.34000003    2.75000000
   14.96527767  117.83000183    1.34000003    2.75000000
   14.97083282  117.83000183    1.34000003    2.75000000
   14.97499943  112.31300354    1.33000004    2.75000000
   14.97805500  117.40299988    1.34000003    2.75000000
   14.98138809  124.48100281    1.33000004    2.75000000
   14.98472214  133.71200562    1.33000004    2.75000000
   14.98777771  123.60900116    1.33000004    2.75000000
   14.99111176  130.47000122    1.33000004    2.75000000
   14.99444485  121.18299866    1.28999996    2.75000000
   14.99750042  122.33499908    1.25000000    2.75000000
   14.99861145  135.05299377    1.25000000    2.75000000
   15.00138855  119.34700012    1.25000000    2.75000000
   15.00472260  118.05000305    1.25000000    2.75000000
   15.00777817  114.06199646    1.25000000    2.75000000
   15.01361084  114.06199646    1.26999998    2.75000000
   15.01777744  116.98100281    1.26999998    2.75000000
   15.02083302  109.01499939    1.25000000    2.75000000
   15.02416611  122.97799683    1.25000000    2.75000000
   15.02750015  125.36599731    1.23000002    2.75000000
   15.03083324  111.06400299    1.23000002    2.75000000
   15.03194427  123.50599670    1.21000004    2.75000000
   15.03444481  112.46700287    1.21000004    2.75000000
   15.03750038  126.94300079    1.21000004    2.75000000
   15.04083347  129.75500488    1.21000004    2.76999998
   15.04388905  117.63800049    1.21000004    2.76999998
   15.04722309  128.01100159    1.21000004    2.75000000
   15.05055618  118.96800232    1.21000004    2.75000000
   15.05638885  118.96800232    1.21000004    2.75000000
   15.06055546  116.40399933    1.19000006    2.76999998
   15.06388950  119.17400360    1.19000006    2.75000000
   15.06527805  121.19100189    1.19000006    2.75000000
   15.06750011  125.97699738    1.19000006    2.75000000
   15.07083321  116.13200378    1.19000006    2.75000000
   15.07416630  123.86299896    1.19000006    2.75000000
   15.07722187  119.69999695    1.16999996    2.76999998
   15.08055592  106.86100006    1.16999996    2.75000000
   15.08388901  122.71299744    1.16999996    2.75000000
   15.08694458  117.59100342    1.16999996    2.75000000
   15.09027767  105.80300140    1.14999998    2.75000000
   15.09361076  114.33000183    1.14999998    2.75000000
   15.09944439  114.33000183    1.14999998    2.75000000
   15.10333347  115.39800262    1.13000000    2.73000002
   15.10666752  113.33999634    1.14999998    2.75000000
   15.11000061  110.60199738    1.13000000    2.76999998
   15.11305618  109.82399750    1.13000000    2.75000000
   15.11638927  122.45600128    1.14999998    2.76999998
   15.11944485  118.85600281    1.14999998    2.76999998
   15.12277794  120.32199860    1.16999996    2.75000000
   15.12611103  118.56800079    1.16999996    2.75000000
   15.12916660  117.91799927    1.19000006    2.75000000
   15.13194466  121.96399689    1.19000006    2.75000000
   15.13277817  115.80500031    1.19000006    2.75000000
   15.13611126  109.50199890    1.21000004    2.75000000
   15.14222240  109.50199890    1.23000002    2.75000000
   15.14638901  113.60199738    1.25000000    2.75000000
   15.14944458  125.09300232    1.25000000    2.76999998
   15.15527725  121.20400238    1.23000002    2.75000000
   15.15861034  112.35199738    1.21000004    2.76999998
   15.16166592  119.37899780    1.21000004    2.76999998
   15.16499996  120.63999939    1.21000004    2.75000000
   15.16555500  111.58200073    1.21000004    2.75000000
   15.16888905  122.42500305    1.21000004    2.78999996
   15.17194462  121.44000244    1.19000006    2.75000000
   15.17527771  121.47799683    1.19000006    2.75000000
   15.17861176  122.93399811    1.16999996    2.75000000
   15.18500042  122.93399811    1.16999996    2.76999998
   15.18916702  105.68800354    1.16999996    2.76999998
   15.19222260  107.54900360    1.16999996    2.75000000
   15.19555569  114.51000214    1.16999996    2.76999998
   15.19888878  102.08399963    1.16999996    2.75000000
   15.19944477  107.40200043    1.16999996    2.75000000
   15.20249939  111.27700043    1.21000004    2.76999998
   15.20583344  121.23699951    1.21000004    2.76999998
   15.20888901  112.03900146    1.21000004    2.76999998
   15.21222210  119.11199951    1.19000006    2.76999998
   15.21555519  113.92099762    1.19000006    2.76999998
   15.21861076  114.65899658    1.16999996    2.76999998
   15.22194386  106.09899902    1.14999998    2.76999998
   15.22777748  106.09899902    1.14999998    2.76999998
   15.23194408  111.40000153    1.14999998    2.75000000
   15.23249912  123.53600311    1.14999998    2.75000000
   15.23583317  121.24099731    1.13000000    2.76999998
   15.23888874  115.64900208    1.14999998    2.76999998
   15.24222279  125.56400299    1.13000000    2.75000000
   15.24555588  107.18000031    1.13000000    2.76999998
   15.24861145  123.96299744    1.13000000    2.75000000
   15.25194454  123.49199677    1.14999998    2.75000000
   15.25500011  121.79000092    1.14999998    2.76999998
   15.25833321  112.22299957    1.13000000    2.75000000
   15.26166630  121.98200226    1.13000000    2.75000000
   15.26472187  120.54699707    1.13000000    2.76999998
   15.28194427  107.35299683    1.14999998    2.76999998
   15.28611183  107.35299683    1.14999998    2.76999998
   15.29027843  116.64700317    1.13000000    2.76999998
   15.29333401  117.61900330    1.13000000    2.78999996
   15.29666710  107.84999847    1.13000000    2.76999998
   15.30000019  114.40299988    1.13000000    2.76999998
   15.30305576  118.90499878    1.13000000    2.76999998
   15.30638885  114.00000000    1.13000000    2.76999998
   15.30972195  105.35700226    1.14999998    2.76999998
   15.31277752  116.34999847    1.14999998    2.76999998
   15.31527805  117.70200348    1.13000000    2.75000000
   15.31638908  114.08300018    1.13000000    2.75000000
   15.31972218  117.91799927    1.13000000    2.76999998
   15.32305527  116.98100281    1.13000000    2.76999998
   15.32888889  116.98100281    1.13000000    2.76999998
   15.33305550  109.07199860    1.13000000    2.76999998
   15.33638859  120.51999664    1.13000000    2.76999998
   15.33944416  121.16100311    1.13000000    2.76999998
   15.34277725  116.33000183    1.13000000    2.76999998
   15.34611034  118.41200256    1.13000000    2.76999998
   15.34861088  105.75000000    1.13000000    2.76999998
   15.34972191  117.27400208    1.13000000    2.76999998
   15.35305595  107.23500061    1.13000000    2.76999998
   15.35638905  119.41500092    1.13000000    2.76999998
   15.35944462  116.77400208    1.13000000    2.76999998
   15.36277771  109.28500366    1.13000000    2.76999998
   15.36611176  110.36599731    1.13000000    2.76999998
   15.37166691  110.36599731    1.13000000    2.76999998
   15.37583351  114.29199982    1.13000000    2.78999996
   15.37916660  110.17500305    1.13000000    2.76999998
   15.38194466  116.26999664    1.13000000    2.76999998
   15.38277817   99.64469910    1.13000000    2.76999998
   15.38611126  121.66600037    1.11000001    2.76999998
   15.38944435  111.18000031    1.09000003    2.76999998
   15.39249992  119.89700317    1.09000003    2.76999998
   15.39583302  119.98100281    1.09000003    2.76999998
   15.39916611  110.66799927    1.09000003    2.76999998
   15.40249920  111.01200104    1.11000001    2.78999996
   15.40583324  112.34999847    1.11000001    2.76999998
   15.40916634  112.13099670    1.11000001    2.76999998
   15.41472149  112.13099670    1.11000001    2.76999998
   15.41888905  113.06999969    1.11000001    2.76999998
   15.42194462  106.67199707    1.11000001    2.76999998
   15.42527771  107.81900024    1.13000000    2.76999998
   15.42833328  111.85099792    1.11000001    2.76999998
   15.43166733  105.82099915    1.11000001    2.76999998
   15.43500042  106.92199707    1.11000001    2.76999998
   15.43805599  115.94699860    1.11000001    2.76999998
   15.44138908  120.18000031    1.11000001    2.76999998
   15.44472218  116.18299866    1.11000001    2.76999998
   15.44777775  125.55300140    1.11000001    2.76999998
   15.44972229  109.19400024    1.11000001    2.76999998
   15.45166683  113.92199707    1.11000001    2.76999998
   15.45749950  113.92199707    1.11000001    2.76999998
   15.46166611  106.52700043    1.11000001    2.78999996
   15.46500015  100.06600189    1.13000000    2.76999998
   15.46805477  108.46499634    1.13000000    2.76999998
   15.47138882  110.26899719    1.13000000    2.76999998
   15.47444439  105.33999634    1.13000000    2.76999998
   15.47777748  114.78399658    1.13000000    2.78999996
   15.48111057  114.40100098    1.13000000    2.78999996
   15.48305511  113.07199860    1.13000000    2.78999996
   15.48472214  113.91500092    1.13000000    2.76999998
   15.48805618  107.49500275    1.11000001    2.78999996
   15.49111176  118.98300171    1.13000000    2.76999998
   15.49444485  115.31099701    1.11000001    2.76999998
   15.50027752  115.31099701    1.09000003    2.78999996
   15.50444412  117.13200378    1.09000003    2.78999996
   15.50777817  115.11199951    1.09000003    2.78999996
   15.51083374  106.79399872    1.09000003    2.76999998
   15.51416683  133.91499329    1.09000003    2.78999996
   15.51666641  131.53399658    1.09000003    2.76999998
   15.51777744  119.85099792    1.09000003    2.76999998
   15.52111053  136.25300598    1.09000003    2.76999998
   15.52444458  117.50099945    1.09000003    2.76999998
   15.52750015  135.50999451    1.09000003    2.76999998
   15.53083324  129.78599548    1.09000003    2.76999998
   15.53388977  131.18800354    1.09000003    2.78999996
   15.53722286  107.31800079    1.09000003    2.78999996
   15.54305553  107.31800079    1.11000001    2.76999998
   15.54722309  122.46099854    1.13000000    2.80999994
   15.55000019  120.36900330    1.11000001    2.78999996
   15.55083370  126.14299774    1.11000001    2.78999996
   15.55416679  120.81600189    1.11000001    2.76999998
   15.55749989  125.55400085    1.11000001    2.76999998
   15.56055546  114.37599945    1.11000001    2.76999998
   15.56388950  119.92299652    1.11000001    2.76999998
   15.56694412  125.74900055    1.13000000    2.76999998
   15.57027817  113.53700256    1.11000001    2.78999996
   15.57361126  131.23800659    1.13000000    2.76999998
   15.57666683  109.50800323    1.11000001    2.76999998
   15.57999992  123.57199860    1.11000001    2.76999998
   15.58611107  123.57199860    1.11000001    2.76999998
   15.59027767  140.19500732    1.11000001    2.76999998
   15.59333324  121.66699982    1.11000001    2.78999996
   15.59666634  121.22499847    1.11000001    2.76999998
   15.60000038  111.56300354    1.11000001    2.76999998
   15.60305595  112.02999878    1.11000001    2.76999998
   15.60638905  110.77700043    1.09000003    2.76999998
   15.60944462  110.71299744    1.09000003    2.76999998
   15.61277771  123.08899689    1.09000003    2.76999998
   15.61611176  125.99600220    1.09000003    2.78999996
   15.61694431  114.24500275    1.09000003    2.78999996
   15.61972237  122.43599701    1.07000005    2.78999996
   15.62277794  115.20400238    1.09000003    2.78999996
   15.62888908  115.20400238    1.11000001    2.76999998
   15.63305569  118.15100098    1.11000001    2.78999996
   15.63611126  124.82599640    1.11000001    2.78999996
   15.63944435  123.74500275    1.11000001    2.78999996
   15.64277744  117.26799774    1.11000001    2.78999996
   15.64583302  114.21199799    1.13000000    2.78999996
   15.64916611   97.71630096    1.14999998    2.76999998
   15.65027714  113.72399902    1.14999998    2.76999998
   15.65305519  114.07399750    1.13000000    2.78999996
   15.65611076  112.59999847    1.13000000    2.76999998
   15.65944386  114.22200012    1.13000000    2.76999998
   15.66249943  116.08699799    1.13000000    2.78999996
   15.66583252  117.27100372    1.11000001    2.76999998
   15.67166710  117.27100372    1.09000003    2.76999998
   15.67583370  121.09799957    1.09000003    2.78999996
   15.67916679  122.87799835    1.09000003    2.78999996
   15.68222237  111.12999725    1.07000005    2.78999996
   15.68388939  125.72599792    1.07000005    2.76999998
   15.68583298  112.59400177    1.05999994    2.76999998
   15.68916702  123.65699768    1.05999994    2.78999996
   15.69250011  127.72100067    1.05999994    2.76999998
   15.69555569  112.92700195    1.05999994    2.76999998
   15.69888878  122.30999756    1.03999996    2.78999996
   15.70222187  121.18099976    1.03999996    2.78999996
   15.70527744  118.01499939    1.03999996    2.78999996
   15.70861053  115.24199677    1.03999996    2.76999998
   15.71472168  115.24199677    1.01999998    2.76999998
   15.71861076  121.27100372    1.01999998    2.78999996
   15.72194386  126.16600037    1.01999998    2.78999996
   15.72527695  115.28800201    1.03999996    2.76999998
   15.72833252  116.54000092    1.03999996    2.78999996
   15.73166656  119.29100037    1.03999996    2.78999996
   15.73527813  108.99900055    1.01999998    2.76999998
   15.73833370  120.40799713    1.03999996    2.78999996
   15.74166679  108.09600067    1.03999996    2.78999996
   15.74472237  113.19499969    1.03999996    2.78999996
   15.74805546  111.24400330    1.05999994    2.78999996
   15.75055599  120.30000305    1.05999994    2.78999996
   15.75166702  120.10099792    1.05999994    2.76999998
   15.75749969  120.10099792    1.05999994    2.78999996
   15.76138878  118.31300354    1.05999994    2.78999996
   15.76472187  138.78999329    1.05999994    2.78999996
   15.76805496  153.58500671    1.05999994    2.78999996
   15.77111053  105.75299835    1.05999994    2.78999996
   15.77444458  101.77300262    1.05999994    2.78999996
   15.77777767  113.38500214    1.05999994    2.76999998
   15.78083324  114.22899628    1.05999994    2.76999998
   15.78388977  112.80400085    1.05999994    2.76999998
   15.78444481  112.22699738    1.05999994    2.76999998
   15.78777790  111.73400116    1.03999996    2.78999996
   15.79111195  113.57599640    1.03999996    2.78999996
   15.79416752  115.72699738    1.05999994    2.78999996
   15.80027771  115.72699738    1.05999994    2.78999996
   15.80444431  102.72200012    1.05999994    2.76999998
   15.80749989  113.97599792    1.05999994    2.78999996
   15.81083393  117.59200287    1.05999994    2.78999996
   15.81416702  111.29399872    1.05999994    2.78999996
   15.81722260  113.20700073    1.05999994    2.76999998
   15.81750011  126.89099884    1.05999994    2.76999998
   15.82083321  119.45600128    1.05999994    2.78999996
   15.82416630  111.19000244    1.05999994    2.78999996
   15.82722187  122.99700165    1.05999994    2.78999996
   15.83055592  126.56199646    1.07000005    2.78999996
   15.83361053  119.54399872    1.07000005    2.78999996
   15.83694458  107.87699890    1.05999994    2.78999996
   15.84305477  107.87699890    1.07000005    2.78999996
   15.84722233  107.34600067    1.07000005    2.80999994
   15.85055637  116.46700287    1.07000005    2.76999998
   15.85083389  118.51699829    1.07000005    2.76999998
   15.85416698  114.31800079    1.09000003    2.78999996
   15.85750008  116.08200073    1.11000001    2.78999996
   15.86055565  114.38600159    1.11000001    2.76999998
   15.86388969  116.24500275    1.11000001    2.78999996
   15.86694431  121.93900299    1.11000001    2.78999996
   15.87111092  117.31400299    1.13000000    2.78999996
   15.87444496  111.16400146    1.11000001    2.78999996
   15.87750053  108.78199768    1.13000000    2.78999996
   15.88083363  108.96900177    1.13000000    2.76999998
   15.88583279  108.96900177    1.16999996    2.78999996
   15.89000034  115.77799988    1.14999998    2.78999996
   15.89333344  118.96399689    1.14999998    2.78999996
   15.89666653  107.59600067    1.14999998    2.78999996
   15.89972210  111.26699829    1.16999996    2.78999996
   15.90305519  120.07700348    1.16999996    2.78999996
   15.90611076  117.40899658    1.16999996    2.78999996
   15.90944386  110.82299805    1.14999998    2.78999996
   15.91277695  115.75900269    1.14999998    2.78999996
   15.91611099  101.23400116    1.13000000    2.78999996
   15.91722298  113.58200073    1.13000000    2.78999996
   15.91972256  115.89700317    1.13000000    2.78999996
   15.92277813  109.32800293    1.13000000    2.76999998
   15.92888927  109.32800293    1.14999998    2.78999996
   15.93277836  109.13800049    1.14999998    2.78999996
   15.93611145  109.65200043    1.14999998    2.78999996
   15.93944454  110.51999664    1.16999996    2.78999996
   15.94250011  101.05100250    1.14999998    2.78999996
   15.94583321  113.58699799    1.13000000    2.78999996
   15.94916630  112.55100250    1.13000000    2.78999996
   15.95055580  111.45099640    1.11000001    2.76999998
   15.95277786  111.50099945    1.13000000    2.78999996
   15.95583344  106.86900330    1.11000001    2.78999996
   15.95916653  116.42700195    1.11000001    2.78999996
   15.96222210  113.13999939    1.11000001    2.78999996
   15.96555519  108.45999908    1.13000000    2.78999996
   15.97166634  108.45999908    1.11000001    2.78999996
   15.97583294  112.16799927    1.11000001    2.76999998
   15.97888851  112.67099762    1.11000001    2.76999998
   15.98222160  116.73999786    1.11000001    2.78999996
   15.98416710  109.08100128    1.13000000    2.78999996
   15.98583317  105.70800018    1.13000000    2.78999996
   15.98916721  111.64900208    1.11000001    2.78999996
   15.99222279  113.69000244    1.09000003    2.78999996
   15.99555588  109.25399780    1.09000003    2.78999996
   15.99888897  105.59600067    1.09000003    2.78999996
   16.00222206  105.87300110    1.09000003    2.78999996
   16.00555611  108.80200195    1.11000001    2.78999996
   16.00861168  105.94699860    1.11000001    2.78999996
   16.01444435  105.94699860    1.11000001    2.78999996
   16.01861000  114.14700317    1.09000003    2.78999996
   16.02194405  125.01200104    1.07000005    2.78999996
   16.02499962   98.05030060    1.05999994    2.78999996
   16.02833366  116.48400116    1.05999994    2.78999996
   16.03138924  109.61100006    1.05999994    2.78999996
   16.03472137  117.10800171    1.05999994    2.78999996
   16.03805542   98.46209717    1.07000005    2.78999996
   16.04138756  120.78600311    1.07000005    2.78999996
   16.04444313  115.21700287    1.09000003    2.78999996
   16.04777718  109.63999939    1.13000000    2.78999996
   16.05083275  107.87799835    1.13000000    2.78999996
   16.05138779  105.10800171    1.13000000    2.78999996
   16.05722237  105.10800171    1.14999998    2.78999996
   16.06138802  119.42600250    1.13000000    2.78999996
   16.06472206  117.23699951    1.14999998    2.78999996
   16.06777954  115.64099884    1.14999998    2.78999996
   16.07111168  112.30300140    1.14999998    2.78999996
   16.07444572  116.46499634    1.14999998    2.76999998
   16.07750130  114.87799835    1.14999998    2.76999998
   16.08083344  118.11499786    1.14999998    2.78999996
   16.08416748  112.04900360    1.14999998    2.78999996
   16.08444595  117.18099976    1.14999998    2.78999996
   16.08777809  122.31300354    1.16999996    2.76999998
   16.09083366  121.75900269    1.16999996    2.78999996
   16.09416771  110.14900208    1.19000006    2.78999996
   16.10027885  110.14900208    1.19000006    2.78999996
   16.10416794  117.47299957    1.19000006    2.76999998
   16.10750008  110.93199921    1.19000006    2.78999996
   16.11083412  115.36399841    1.21000004    2.78999996
   16.11388969  118.04000092    1.23000002    2.78999996
   16.11722183  115.43800354    1.23000002    2.76999998
   16.11777878  113.49600220    1.23000002    2.76999998
   16.12111092  112.29900360    1.21000004    2.78999996
   16.12416649  108.28600311    1.21000004    2.78999996
   16.12750053  116.31500244    1.19000006    2.78999996
   16.13055611  108.39600372    1.19000006    2.78999996
   16.13388824  111.87699890    1.16999996    2.78999996
   16.13722229  115.79299927    1.14999998    2.78999996
   16.14305496  115.79299927    1.16999996    2.78999996
   16.14722252  119.06400299    1.14999998    2.78999996
   16.15027809  113.41100311    1.13000000    2.78999996
   16.15111160  108.66600037    1.13000000    2.78999996
   16.15416718  113.50700378    1.13000000    2.78999996
   16.15722275  120.28800201    1.13000000    2.78999996
   16.16055489  120.81800079    1.13000000    2.78999996
   16.16361046  106.19799805    1.11000001    2.78999996
   16.16694450  111.77400208    1.13000000    2.78999996
   16.17027664  118.84500122    1.13000000    2.78999996
   16.17333221  118.95300293    1.13000000    2.78999996
   16.17666626  109.10900116    1.25000000    2.78999996
   16.18000031  108.04499817    1.28999996    2.76999998
   16.18583298  108.04499817    1.26999998    2.78999996
   16.18999863  107.78199768    1.25000000    2.78999996
   16.19333267  107.51899719    1.28999996    2.78999996
   16.19638824  117.47299957    1.26999998    2.78999996
   16.19972038  116.21399689    1.23000002    2.76999998
   16.20277786  119.30699921    1.21000004    2.78999996
   16.20611191  111.65200043    1.23000002    2.76999998
   16.20944595   91.39589691    1.21000004    2.78999996
   16.21277809  120.76499939    1.16999996    2.78999996
   16.21583366  107.26000214    1.16999996    2.78999996
   16.21777916  113.61000061    1.14999998    2.78999996
   16.21972275  114.67099762    1.14999998    2.78999996
   16.22277832  111.88500214    1.11000001    2.78999996
   16.22861099  111.88500214    1.05999994    2.80999994
   16.23277855  111.74600220    1.05999994    2.78999996
   16.23611069  123.71499634    1.05999994    2.78999996
   16.23944473  124.57499695    1.07000005    2.78999996
   16.24250031  118.83399963    1.07000005    2.78999996
   16.24583435  124.13800049    1.09000003    2.78999996
   16.24888992  129.23100281    1.09000003    2.78999996
   16.25111198  113.14099884    1.09000003    2.78999996
   16.25277710  123.43399811    1.13000000    2.78999996
   16.25583267  110.05799866    1.13000000    2.78999996
   16.25916672  114.12200165    1.14999998    2.78999996
   16.26250076  128.13699341    1.16999996    2.78999996
   16.26555634  120.46800232    1.16999996    2.78999996
   16.27166557  120.46800232    1.16999996    2.78999996
   16.27555466  140.09800720    1.19000006    2.78999996
   16.27888870  122.23899841    1.25000000    2.78999996
   16.28222275  126.60299683    1.25000000    2.78999996
   16.29916573  133.31500244    1.28999996    2.78999996
   16.30222130  119.18599701    1.28999996    2.78999996
   16.30555534  126.64600372    1.28999996    2.78999996
   16.30861092  134.64300537    1.26999998    2.78999996
   16.31472206  134.64300537    1.25000000    2.78999996
   16.31888962  135.41200256    1.23000002    2.76999998
   16.32194519  129.80599976    1.21000004    2.78999996
   16.32527924  108.16100311    1.19000006    2.78999996
   16.32861137  136.28599548    1.19000006    2.78999996
   16.33166695  129.80999756    1.19000006    2.76999998
   16.33250046  131.39399719    1.19000006    2.76999998
   16.33555603  140.19299316    1.13000000    2.78999996
   16.33861160  128.31100464    1.14999998    2.78999996
   16.34194565  118.28900146    1.13000000    2.78999996
   16.34527779  119.68900299    1.13000000    2.78999996
   16.34861183  129.02299500    1.13000000    2.78999996
   16.35166740  118.70600128    1.13000000    2.78999996
   16.35750008  118.70600128    1.11000001    2.78999996
   16.36166763  115.14299774    1.11000001    2.78999996
   16.36472321  133.10699463    1.11000001    2.78999996
   16.36583328  133.49200439    1.11000001    2.78999996
   16.36861038  124.97399902    1.11000001    2.78999996
   16.37166595  126.99600220    1.11000001    2.78999996
   16.37500000  139.57899475    1.13000000    2.78999996
   16.37833405  119.58200073    1.13000000    2.78999996
   16.38138962  112.55500031    1.14999998    2.78999996
   16.38472176  117.73799896    1.14999998    2.78999996
   16.38805580  122.41600037    1.14999998    2.78999996
   16.39111137  115.62000275    1.14999998    2.78999996
   16.39444351  119.20999908    1.16999996    2.78999996
   16.40027809  119.20999908    1.19000006    2.78999996
   16.40444374  129.66499329    1.19000006    2.76999998
   16.40777779  129.37699890    1.21000004    2.78999996
   16.41083336  133.05799866    1.19000006    2.78999996
   16.41416550  134.91000366    1.19000006    2.78999996
   16.41749954  131.97200012    1.21000004    2.78999996
   16.42055511  124.72799683    1.19000006    2.78999996
   16.42388916  132.28300476    1.19000006    2.78999996
   16.42722130  107.46700287    1.19000006    2.78999996
   16.43027687  122.59700012    1.19000006    2.78999996
   16.43249893  127.72000122    1.21000004    2.78999996
   16.43416595  108.89099884    1.21000004    2.78999996
   16.43722153  119.15200043    1.21000004    2.78999996
   16.44305420  119.15200043    1.21000004    2.78999996
   16.44722176  122.59700012    1.16999996    2.78999996
   16.45055580  110.69599915    1.16999996    2.80999994
   16.45388985  124.43599701    1.14999998    2.78999996
   16.45694542  121.45500183    1.14999998    2.80999994
   16.46027946  124.33100128    1.13000000    2.80999994
   16.46333504  120.80100250    1.09000003    2.78999996
   16.46583366  121.91100311    1.09000003    2.80999994
   16.46722221   98.66889954    1.07000005    2.78999996
   16.47027779  112.15799713    1.07000005    2.80999994
   16.47361183  115.65799713    1.05999994    2.78999996
   16.47694588  110.61699677    1.05999994    2.80999994
   16.48000145  106.32299805    1.05999994    2.78999996
   16.48611069  106.32299805    1.05999994    2.80999994
   16.49027824  113.91200256    1.03999996    2.78999996
   16.49333382  115.64399719    1.03999996    2.82999992
   16.49666786  116.78800201    1.03999996    2.78999996
   16.49916649  111.48500061    1.03999996    2.78999996
   16.50027847  121.33999634    1.03999996    2.80999994
   16.50333405  117.54100037    1.03999996    2.80999994
   16.50666618  127.00599670    1.05999994    2.78999996
   16.51000023  115.90699768    1.05999994    2.78999996
   16.51305580  112.02899933    1.09000003    2.78999996
   16.51638794  121.65299988    1.26999998    2.80999994
   16.51972198  113.11499786    1.25000000    2.78999996
   16.52277756  113.99299622    1.25000000    2.78999996
   16.52888870  113.99299622    1.21000004    2.78999996
   16.53305435  119.59799957    1.23000002    2.78999996
   16.53610992  124.65399933    1.21000004    2.80999994
   16.53944397  113.81500244    1.16999996    2.76999998
   16.54277802  106.63700104    1.16999996    2.78999996
   16.54583359  112.28299713    1.16999996    2.78999996
   16.54916573  108.14399719    1.16999996    2.80999994
   16.55249977  119.08200073    1.16999996    2.78999996
   16.55638885  125.72799683    1.13000000    2.78999996
   16.55972099  103.17700195    1.11000001    2.78999996
   16.56277657  132.96800232    1.11000001    2.78999996
   16.56583214  117.20700073    1.09000003    2.78999996
   16.56666756  123.52700043    1.09000003    2.78999996
   16.57166672  123.52700043    1.11000001    2.78999996
   16.57583427  115.36399841    1.09000003    2.78999996
   16.57916832  114.35800171    1.09000003    2.78999996
   16.58222389  105.46199799    1.09000003    2.80999994
   16.58555603  122.55599976    1.07000005    2.78999996
   16.58861160  106.37200165    1.07000005    2.78999996
   16.59194565  112.46399689    1.07000005    2.78999996
   16.59527779  115.68000031    1.05999994    2.78999996
   16.59833336  118.67199707    1.05999994    2.78999996
   16.59916687  121.96600342    1.03999996    2.78999996
   16.60222244  120.38400269    1.03999996    2.78999996
   16.60527802  120.47799683    1.03999996    2.78999996
   16.60861206  124.45400238    1.03999996    2.78999996
   16.61444473  124.45400238    1.01999998    2.78999996
   16.61861038  119.83899689    1.01999998    2.78999996
   16.62194443  126.82299805    1.01999998    2.78999996
   16.62527847  122.54900360    1.01999998    2.78999996
   16.62833405  107.52400208    1.01999998    2.80999994
   16.63166618  121.42400360    1.01999998    2.80999994
   16.63249969  106.15100098    1.01999998    2.80999994
   16.63527679  120.27700043    1.01999998    2.78999996
   16.63833237  113.48400116    1.03999996    2.80999994
   16.64166641  107.78399658    1.05999994    2.80999994
   16.64500046  116.89199829    1.05999994    2.78999996
   16.64805603  114.74400330    1.05999994    2.78999996
   16.65138817  115.23500061    1.07000005    2.80999994
   16.65749931  115.23500061    1.09000003    2.78999996
   16.66138840  111.11399841    1.11000001    2.78999996
   16.66472244  118.38600159    1.11000001    2.78999996
   16.66583252  117.04699707    1.13000000    2.78999996
   16.66833305  113.12500000    1.14999998    2.78999996
   16.67138863  106.23000336    1.14999998    2.80999994
   16.67472076  104.67099762    1.14999998    2.78999996
   16.67805481  107.04199982    1.14999998    2.80999994
   16.68111038  105.55899811    1.13000000    2.78999996
   16.68444443  105.74500275    1.13000000    2.80999994
   16.68777657  120.40499878    1.13000000    2.78999996
   16.69083214  112.30500031    1.13000000    2.78999996
   16.69416618  114.97200012    1.11000001    2.80999994
   16.70027924  114.97200012    1.09000003    2.78999996
   16.70444489  123.49700165    1.09000003    2.78999996
   16.70750046  112.99600220    1.09000003    2.78999996
   16.71083450  124.00800323    1.07000005    2.78999996
   16.71416664  122.73699951    1.03999996    2.78999996
   16.71722221  114.79699707    1.01999998    2.80999994
   16.72055626  118.41799927    1.00000000    2.78999996
   16.72389030  122.80500031    1.00000000    2.78999996
   16.72722244  113.81099701    0.98000002    2.80999994
   16.73027802  117.58699799    0.98000002    2.80999994
   16.73250008  111.13500214    0.98000002    2.80999994
   16.73416710  117.84999847    0.98000002    2.80999994
   16.73722267  113.17199707    0.95999998    2.80999994
   16.74305534  113.17199707    0.98000002    2.78999996
   16.74722290  113.91699982    1.00000000    2.78999996
   16.75055504  115.13600159    1.00000000    2.78999996
   16.75361061  115.72799683    0.98000002    2.78999996
   16.75694466  118.37000275    0.98000002    2.78999996
   16.76027870  115.82900238    1.00000000    2.80999994
   16.76333427  119.25800323    1.00000000    2.80999994
   16.76583290  122.33399963    1.00000000    2.80999994
   16.76722145  120.32599640    1.00000000    2.80999994
   16.77027702  119.21399689    1.00000000    2.78999996
   16.77361107  116.17099762    1.00000000    2.78999996
   16.77694511  125.25199890    1.01999998    2.80999994
   16.78000069  114.19200134    1.03999996    2.80999994
   16.78583336  114.19200134    1.03999996    2.78999996
   16.78999901  124.99299622    1.05999994    2.78999996
   16.79333305  110.79199982    1.03999996    2.80999994
   16.79666710  121.79499817    1.05999994    2.78999996
   16.79916573  117.69799805    1.05999994    2.78999996
   16.80027771  113.03700256    1.05999994    2.80999994
   16.80333328  118.26000214    1.05999994    2.80999994
   16.80666542  123.57399750    1.07000005    2.78999996
   16.80999947  117.68099976    1.07000005    2.78999996
   16.81305504  117.71700287    1.05999994    2.78999996
   16.81638718  118.86900330    1.05999994    2.80999994
   16.81972313  115.44499969    1.03999996    2.78999996
   16.82277870  120.69400024    1.03999996    2.80999994
   16.82888985  120.69400024    1.03999996    2.78999996
   16.83277893  118.19400024    1.03999996    2.78999996
   16.83611107  106.45200348    1.03999996    2.78999996
   16.83944511  105.70400238    1.03999996    2.78999996
   16.84250069  111.15899658    1.05999994    2.82999992
   16.84583473  112.50199890    1.05999994    2.82999992
   16.84916687  110.82599640    1.05999994    2.78999996
   16.85222244  115.59700012    1.05999994    2.78999996
   16.85555649  115.64800262    1.03999996    2.80999994
   16.85861206  100.56800079    1.03999996    2.80999994
   16.86194420  110.80899811    1.03999996    2.78999996
   16.86527824  119.96399689    1.05999994    2.78999996
   16.86583328  122.24199677    1.05999994    2.78999996
   16.87166595  122.24199677    1.03999996    2.80999994
   16.87583351  118.80500031    1.05999994    2.78999996
   16.87888908  115.39900208    1.05999994    2.78999996
   16.88222313  115.08300018    1.05999994    2.78999996
   16.88555527  117.61000061    1.07000005    2.78999996
   16.88888931  120.67400360    1.07000005    2.80999994
   16.89194489  117.37999725    1.09000003    2.78999996
   16.89527702  113.40399933    1.09000003    2.80999994
   16.89833260  107.59500122    1.09000003    2.78999996
   16.89916611  119.25499725    1.09000003    2.78999996
   16.90222168  108.85700226    1.09000003    2.78999996
   16.90527725  114.32499695    1.09000003    2.78999996
   16.90861130  123.63999939    1.09000003    2.78999996
   16.91444397  123.63999939    1.09000003    2.78999996
   16.91860962  120.71099854    1.09000003    2.78999996
   16.92194366  119.50499725    1.09000003    2.78999996
   16.92499924  127.80799866    1.09000003    2.80999994
   16.92833328  123.48799896    1.09000003    2.80999994
   16.93166542  121.25000000    1.11000001    2.78999996
   16.93249893  121.21399689    1.11000001    2.78999996
   16.93527603  120.15100098    1.11000001    2.80999994
   16.93833160  124.70099640    1.09000003    2.78999996
   16.94166565  115.49900055    1.09000003    2.80999994
   16.94499969  121.39600372    1.09000003    2.78999996
   16.94805527  119.02700043    1.09000003    2.78999996
   16.95138931  115.41799927    1.03999996    2.78999996
   16.95722389  115.41799927    1.01999998    2.78999996
   16.96138954  120.09999847    1.01999998    2.78999996
   16.96472359  116.52100372    1.01999998    2.78999996
   16.96583366  113.33599854    1.01999998    2.80999994
   16.96833420  112.43800354    1.01999998    2.80999994
   16.97166634  105.11799622    1.00000000    2.78999996
   16.97472191  108.96600342    0.98000002    2.80999994
   16.97805595  108.46499634    0.98000002    2.80999994
   16.98139000  113.76999664    0.98000002    2.78999996
   16.98444557  113.29199982    1.00000000    2.80999994
   16.98777771  111.55400085    1.00000000    2.80999994
   16.99111176  110.04399872    0.98000002    2.78999996
   16.99416733  112.94200134    0.95999998    2.78999996
   17.00027847  112.94200134    0.98000002    2.80999994
   17.00444412  108.45200348    0.98000002    2.80999994
   17.00749969  121.35500336    0.98000002    2.78999996
   17.01083374  104.97200012    0.98000002    2.80999994
   17.01388931  114.86100006    0.98000002    2.78999996
   17.01722145  116.40299988    1.00000000    2.78999996
   17.02055550  125.25800323    1.00000000    2.78999996
   17.02361107  115.93699646    1.01999998    2.78999996
   17.02694511  120.23699951    1.00000000    2.78999996
   17.03027725  121.09700012    1.01999998    2.78999996
   17.03249931  112.38400269    1.01999998    2.78999996
   17.03388786  114.79100037    1.03999996    2.78999996
   17.03722191  111.98300171    1.05999994    2.80999994
   17.04305458  111.98300171    1.07000005    2.78999996
   17.04722214  110.09799957    1.07000005    2.80999994
   17.05027771  109.45600128    1.07000005    2.80999994
   17.05360985  114.22599792    1.07000005    2.78999996
   17.05694389  110.51799774    1.07000005    2.80999994
   17.05999947  108.72399902    1.03999996    2.80999994
   17.06333351  112.28299713    1.05999994    2.80999994
   17.06583214  118.29100037    1.03999996    2.80999994
   17.06694603  111.21700287    1.03999996    2.80999994
   17.07027817  115.25900269    1.03999996    2.80999994
   17.07333374  107.74800110    1.01999998    2.80999994
   17.07666779  116.25099945    1.01999998    2.78999996
   17.07972336  113.65299988    1.01999998    2.80999994
   17.08583450  113.65299988    1.01999998    2.80999994
   17.09000015  112.66400146    1.01999998    2.80999994
   17.09333420  115.54499817    1.00000000    2.78999996
   17.09638977  114.68499756    1.00000000    2.78999996
   17.09916687  111.55500031    1.00000000    2.80999994
   17.10000038  109.36900330    1.00000000    2.80999994
   17.10333443  100.63400269    1.00000000    2.80999994
   17.10639000  119.26200104    1.01999998    2.78999996
   17.10972214  111.51300049    1.01999998    2.78999996
   17.11277771  111.18000031    1.01999998    2.78999996
   17.11611176  108.78199768    1.03999996    2.78999996
   17.11944389  116.61499786    1.05999994    2.80999994
   17.12249947  113.17099762    1.05999994    2.78999996
   17.12861061  113.17099762    1.07000005    2.80999994
   17.13277817  110.09600067    1.09000003    2.78999996
   17.13611031  109.27899933    1.11000001    2.78999996
   17.13944435  115.22799683    1.11000001    2.78999996
   17.14249992  115.62200165    1.11000001    2.78999996
   17.14583397  117.17400360    1.11000001    2.80999994
   17.14888954  116.10399628    1.11000001    2.80999994
   17.15222168  104.98300171    1.13000000    2.80999994
   17.15555573  122.31700134    1.13000000    2.80999994
   17.15861130  114.02700043    1.13000000    2.78999996
   17.16194344  116.90000153    1.13000000    2.78999996
   17.16527748  111.84799957    1.14999998    2.78999996
   17.16583252  109.29100037    1.14999998    2.78999996
   17.17166519  109.29100037    1.16999996    2.78999996
   17.17555428  112.33100128    1.16999996    2.78999996
   17.17888832  119.70999908    1.16999996    2.78999996
   17.18222237  113.17700195    1.16999996    2.78999996
   17.18527603  110.26999664    1.16999996    2.78999996
   17.18861008  116.20099640    1.16999996    2.78999996
   17.19194412  116.71700287    1.14999998    2.80999994
   17.19499969  111.09100342    1.19000006    2.78999996
   17.19833183  111.79000092    1.16999996    2.78999996
   17.19916534  113.43199921    1.16999996    2.78999996
   17.20194435  116.83100128    1.14999998    2.78999996
   17.20527840  110.84899902    1.14999998    2.78999996
   17.20833397  118.50599670    1.14999998    2.80999994
   17.21444511  118.50599670    1.14999998    2.78999996
   17.21861076  115.19799805    1.16999996    2.78999996
   17.22166634  113.44499969    1.19000006    2.78999996
   17.22500038  116.67900085    1.19000006    2.78999996
   17.22833443  113.36100006    1.21000004    2.78999996
   17.23139000  121.62599945    1.21000004    2.78999996
   17.23250008  116.25000000    1.21000004    2.78999996
   17.23500061  116.16699982    1.21000004    2.78999996
   17.23833275  111.56999969    1.19000006    2.78999996
   17.24138832  112.85199738    1.14999998    2.78999996
   17.24472237  116.38800049    1.13000000    2.78999996
   17.24805641  119.36599731    1.13000000    2.80999994
   17.25111198  114.67299652    1.13000000    2.78999996
   17.25722313  114.67299652    1.14999998    2.78999996
   17.26138878  115.37000275    1.09000003    2.78999996
   17.26444435  114.70099640    1.09000003    2.80999994
   17.26583290  117.55000305    1.11000001    2.78999996
   17.26833344  111.19799805    1.11000001    2.78999996
   17.27166557  112.25499725    1.13000000    2.78999996
   17.27472115  114.61399841    1.13000000    2.78999996
   17.27805519  111.34100342    1.13000000    2.78999996
   17.28138924  113.74900055    1.13000000    2.78999996
   17.28444481  113.12300110    1.13000000    2.78999996
   17.28777695  111.51999664    1.13000000    2.78999996
   17.29083252  118.16799927    1.14999998    2.76999998
   17.29416656  114.93699646    1.14999998    2.78999996
   17.31638718  114.60399628    1.13000000    2.78999996
   17.31694603  120.43199921    1.14999998    2.78999996
   17.32000160  118.03700256    1.14999998    2.78999996
   17.32333374  115.92900085    1.11000001    2.78999996
   17.32666779  114.07499695    1.11000001    2.78999996
   17.32972336  110.63899994    1.11000001    2.78999996
   17.33250046  117.03500366    1.13000000    2.78999996
   17.33333397  118.17199707    1.13000000    2.78999996
   17.33666801  119.36299896    1.13000000    2.78999996
   17.34305573  119.36299896    1.13000000    2.78999996
   17.34722328  115.33599854    1.13000000    2.78999996
   17.35027885  114.85299683    1.13000000    2.78999996
   17.35361099  117.78299713    1.14999998    2.78999996
   17.35666656  114.04399872    1.14999998    2.78999996
   17.36000061  109.69499969    1.14999998    2.78999996
   17.36333466  109.81999969    1.14999998    2.78999996
   17.36583328  112.40000153    1.16999996    2.78999996
   17.36694527  113.90599823    1.16999996    2.78999996
   17.37027740  110.73500061    1.14999998    2.78999996
   17.37333298  118.58799744    1.14999998    2.78999996
   17.37666702  110.91000366    1.14999998    2.78999996
   17.38000107  110.93800354    1.14999998    2.78999996
   17.38583374  110.93800354    1.14999998    2.78999996
   17.38999939  106.58399963    1.16999996    2.78999996
   17.39333344  113.44000244    1.16999996    2.78999996
   17.39638901  113.55300140    1.19000006    2.78999996
   17.39916611  110.30100250    1.14999998    2.78999996
   17.39999962  113.50599670    1.14999998    2.78999996
   17.40333366  112.64700317    1.14999998    2.78999996
   17.40638924  115.64800262    1.14999998    2.78999996
   17.40972137  110.02899933    1.16999996    2.78999996
   17.41305542  114.33499908    1.19000006    2.78999996
   17.41611099  105.38899994    1.19000006    2.78999996
   17.41944313  103.61399841    1.19000006    2.78999996
   17.42249870  121.52899933    1.16999996    2.78999996
   17.42860985  121.52899933    1.13000000    2.78999996
   17.43277740  110.41600037    1.13000000    2.78999996
   17.43610954  107.58300018    1.13000000    2.78999996
   17.43916512  105.04199982    1.13000000    2.78999996
   17.44249916  109.02600098    1.14999998    2.78999996
   17.44583321  111.58200073    1.14999998    2.78999996
   17.44888878  114.60800171    1.16999996    2.78999996
   17.45222282  109.87699890    1.21000004    2.78999996
   17.45555687  114.14700317    1.23000002    2.76999998
   17.45861244  111.93399811    1.25000000    2.78999996
   17.46194458  111.51399994    1.25000000    2.78999996
   17.46500015  109.62599945    1.23000002    2.78999996
   17.46583366  111.60299683    1.23000002    2.78999996
   17.47138977  111.60299683    1.23000002    2.78999996
   17.47555542  112.05100250    1.23000002    2.78999996
   17.47888947  107.07199860    1.23000002    2.78999996
   17.48222351  107.84100342    1.21000004    2.78999996
   17.48527718  114.44899750    1.23000002    2.78999996
   17.48861122  115.38899994    1.23000002    2.78999996
   17.49194527  117.88700104    1.23000002    2.78999996
   17.49500084  114.52799988    1.23000002    2.78999996
   17.49833298  110.56900024    1.23000002    2.78999996
   17.49944496  113.39499664    1.23000002    2.78999996
   17.50194359  111.04599762    1.23000002    2.78999996
   17.50527763  117.53700256    1.23000002    2.78999996
   17.50833321  113.57399750    1.25000000    2.78999996
   17.51444435  113.57399750    1.25000000    2.78999996
   17.51861000  119.92800140    1.25000000    2.78999996
   17.52166557  120.44200134    1.23000002    2.80999994
   17.52499962  122.79100037    1.23000002    2.80999994
   17.52805519  121.13899994    1.25000000    2.78999996
   17.53138924  114.54000092    1.26999998    2.78999996
   17.53249931  120.80899811    1.25000000    2.78999996
   17.53499985  117.00399780    1.25000000    2.78999996
   17.53833199  109.79499817    1.26999998    2.78999996
   17.54138756  122.71800232    1.25000000    2.78999996
   17.54472160  123.24400330    1.25000000    2.78999996
   17.54805565  113.05300140    1.25000000    2.78999996
   17.55111122  123.55000305    1.26999998    2.78999996
   17.55749893  123.55000305    1.26999998    2.78999996
   17.56166649  116.13999939    1.28999996    2.78999996
   17.56499863  112.47499847    1.28999996    2.78999996
   17.56583214  110.82499695    1.28999996    2.78999996
   17.56861115  117.53199768    1.28999996    2.78999996
   17.57194519  111.30999756    1.28999996    2.78999996
   17.57500076  115.72200012    1.26999998    2.78999996
   17.57833481  122.81300354    1.26999998    2.78999996
   17.58166695  111.47799683    1.26999998    2.78999996
   17.58472252  115.68699646    1.30999994    2.78999996
   17.58805656  121.58599854    1.33000004    2.76999998
   17.59138870  111.08399963    1.33000004    2.78999996
   17.59444427  116.33000183    1.33000004    2.78999996
   17.60000038  116.33000183    1.33000004    2.78999996
   17.60416794  117.42900085    1.33000004    2.78999996
   17.60750008  117.56400299    1.33000004    2.78999996
   17.61055565  109.69599915    1.33000004    2.78999996
   17.61388969  115.81600189    1.33000004    2.78999996
   17.61694527  114.82099915    1.33000004    2.78999996
   17.62027740  113.12500000    1.34000003    2.78999996
   17.62361145  110.00800323    1.36000001    2.78999996
   17.62666702  108.76399994    1.36000001    2.78999996
   17.63000107  114.98300171    1.34000003    2.78999996
   17.63277817  113.39199829    1.34000003    2.78999996
   17.63361168  113.52100372    1.34000003    2.78999996
   17.63694382  100.77799988    1.34000003    2.78999996
   17.64277840  100.77799988    1.34000003    2.78999996
   17.64694405  110.53399658    1.33000004    2.78999996
   17.65027809  115.75599670    1.30999994    2.78999996
   17.65361023  118.97899628    1.28999996    2.78999996
   17.65666580  115.17700195    1.28999996    2.78999996
   17.65999985  113.31700134    1.28999996    2.78999996
   17.66333389  112.95300293    1.28999996    2.78999996
   17.66611099  117.31300354    1.26999998    2.78999996
   17.66694450  116.93499756    1.26999998    2.78999996
   17.67027664  116.82499695    1.26999998    2.78999996
   17.67361069  116.33899689    1.33000004    2.78999996
   17.67666626  119.91300201    1.30999994    2.78999996
   17.68000031  111.83699799    1.30999994    2.78999996
   17.68583298  111.83699799    1.30999994    2.78999996
   17.68999863  112.83799744    1.28999996    2.78999996
   17.69305420  114.45600128    1.30999994    2.78999996
   17.69638824  104.28099823    1.30999994    2.78999996
   17.69944382  108.16899872    1.33000004    2.78999996
   17.70000076  104.36399841    1.33000004    2.78999996
   17.70333481  111.93699646    1.33000004    2.76999998
   17.70639038  107.00299835    1.34000003    2.76999998
   17.70972252  116.19899750    1.36000001    2.78999996
   17.71305656  112.84300232    1.36000001    2.78999996
   17.71611214  121.99500275    1.38000000    2.76999998
   17.71944427  107.48000336    1.38000000    2.78999996
   17.72277832  117.62000275    1.38000000    2.78999996
   17.72861099  117.62000275    1.38000000    2.76999998
   17.73277855  125.58399963    1.39999998    2.78999996
   17.73583412  115.57399750    1.39999998    2.78999996
   17.73916626  121.33799744    1.41999996    2.78999996
   17.74250031  112.12200165    1.41999996    2.78999996
   17.74555588  113.55699921    1.41999996    2.76999998
   17.74888992  108.88500214    1.41999996    2.76999998
   17.75222206  108.62000275    1.44000006    2.78999996
   17.75527763  116.36299896    1.41999996    2.78999996
   17.75861168  118.09300232    1.39999998    2.78999996
   17.76166725  113.06600189    1.39999998    2.78999996
   17.76499939  116.44000244    1.39999998    2.78999996
   17.76611137  113.40200043    1.39999998    2.78999996
   17.77138901  113.40200043    1.39999998    2.78999996
   17.77555466  110.99199677    1.33000004    2.78999996
   17.77888870  112.06700134    1.33000004    2.78999996
   17.78194427  110.23100281    1.33000004    2.76999998
   17.78527641  112.89199829    1.30999994    2.78999996
   17.78861046  119.66000366    1.30999994    2.76999998
   17.79166603  111.90200043    1.30999994    2.76999998
   17.79500008  114.45899963    1.30999994    2.78999996
   17.79833221  107.30999756    1.30999994    2.78999996
   17.79944420  114.66300201    1.28999996    2.78999996
   17.80166626  111.98600006    1.28999996    2.78999996
   17.80499840  114.76200104    1.28999996    2.78999996
   17.80833244  118.81800079    1.26999998    2.78999996
   17.81416512  118.81800079    1.26999998    2.78999996
   17.81833458  114.98000336    1.28999996    2.78999996
   17.82166672  109.75900269    1.26999998    2.78999996
   17.82472229  114.67600250    1.28999996    2.78999996
   17.82805634  109.78399658    1.33000004    2.76999998
   17.83139038  112.59899902    1.33000004    2.78999996
   17.83277893  107.89299774    1.33000004    2.78999996
   17.83500099  110.84200287    1.33000004    2.78999996
   17.83833313  118.16200256    1.33000004    2.78999996
   17.84166718  110.37500000    1.34000003    2.78999996
   17.84472275  114.51799774    1.34000003    2.78999996
   17.84805679  112.16799927    1.36000001    2.76999998
   17.85111237  110.23699951    1.38000000    2.76999998
   17.85722351  110.23699951    1.39999998    2.76999998
   17.86111069  109.93099976    1.44000006    2.76999998
   17.86444473  113.16600037    1.48000002    2.78999996
   17.86611176  117.70300293    1.48000002    2.78999996
   17.86805534  114.04699707    1.50000000    2.78999996
   17.87138939  112.65499878    1.51999998    2.76999998
   17.87472153  109.29499817    1.53999996    2.76999998
   17.87777710  106.60600281    1.53999996    2.76999998
   17.88111115  108.18499756    1.51999998    2.76999998
   17.88416672  108.05300140    1.50000000    2.76999998
   17.88750076  105.73899841    1.50000000    2.78999996
   17.89083290  114.56800079    1.48000002    2.76999998
   17.89388847  108.94499969    1.48000002    2.78999996
   17.89999962  108.94499969    1.48000002    2.78999996
   17.90416718  110.56300354    1.46000004    2.78999996
   17.90722275  109.86199951    1.46000004    2.76999998
   17.91055489  115.66799927    1.46000004    2.76999998
   17.91388893  111.21099854    1.41999996    2.78999996
   17.91694450  118.59700012    1.39999998    2.76999998
   17.92027664  107.96700287    1.39999998    2.76999998
   17.92333221  117.19499969    1.38000000    2.76999998
   17.92666626  116.23500061    1.38000000    2.76999998
   17.93000031  110.73300171    1.36000001    2.78999996
   17.93277740  107.73200226    1.38000000    2.78999996
   17.93361092  118.01000214    1.38000000    2.78999996
   17.93694305  112.01000214    1.36000001    2.78999996
   17.94277763  112.01000214    1.38000000    2.78999996
   17.94694328  110.13700104    1.36000001    2.78999996
   17.95027924  113.56900024    1.36000001    2.78999996
   17.95333481  114.16999817    1.36000001    2.78999996
   17.95666695  118.08300018    1.36000001    2.78999996
   17.95972252  116.50299835    1.36000001    2.78999996
   17.96305656  113.08200073    1.36000001    2.76999998
   17.96611214  115.64299774    1.36000001    2.76999998
   17.96666718  112.11399841    1.36000001    2.76999998
   17.97000122  117.95099640    1.36000001    2.76999998
   17.97333336  113.94699860    1.36000001    2.78999996
   17.97638893  119.96800232    1.36000001    2.78999996
   17.97972298  114.27300262    1.36000001    2.76999998
   17.98555565  114.27300262    1.36000001    2.78999996
   17.98972321  110.23500061    1.38000000    2.76999998
   17.99305534  117.09899902    1.38000000    2.76999998
   17.99611092  119.05799866    1.38000000    2.76999998
   17.99944496  117.43099976    1.39999998    2.78999996
   17.99972153  122.20300293    1.39999998    2.78999996
   18.00305557  116.13800049    1.39999998    2.76999998
   18.00638962  117.48300171    1.39999998    2.78999996
   18.00944519  119.82800293    1.41999996    2.76999998
   18.01277733  123.26599884    1.41999996    2.76999998
   18.01611137  116.81600189    1.44000006    2.76999998
   18.01916695  121.32299805    1.41999996    2.76999998
   18.02249908  119.53199768    1.41999996    2.76999998
   18.02861023  119.53199768    1.39999998    2.76999998
   18.03277779  117.66699982    1.38000000    2.76999998
   18.03305435  121.31500244    1.38000000    2.76999998
   18.03638840  119.86799622    1.38000000    2.76999998
   18.03972244  111.91200256    1.36000001    2.76999998
   18.04277802  116.09999847    1.36000001    2.76999998
   18.04611015  111.34899902    1.33000004    2.78999996
   18.04916573  116.46399689    1.33000004    2.78999996
   18.05249977  115.43299866    1.33000004    2.78999996
   18.05583191  105.74099731    1.33000004    2.76999998
   18.05888748  123.51999664    1.30999994    2.76999998
   18.06222153  116.78500366    1.30999994    2.78999996
   18.06555557  117.79599762    1.30999994    2.78999996
   18.06611061  121.68099976    1.30999994    2.78999996
   18.07139015  121.68099976    1.33000004    2.76999998
   18.07555580  106.91899872    1.33000004    2.78999996
   18.07861137  116.30400085    1.33000004    2.78999996
   18.08194542  111.33699799    1.33000004    2.78999996
   18.08527756  115.85299683    1.34000003    2.78999996
   18.08833313  117.47499847    1.34000003    2.78999996
   18.09166718  114.03099823    1.34000003    2.76999998
   18.09500122  111.18800354    1.36000001    2.76999998
   18.09805679  110.82599640    1.36000001    2.76999998
   18.09944534  110.99299622    1.36000001    2.76999998
   18.10166740  102.88999939    1.36000001    2.78999996
   18.10499954  119.47000122    1.36000001    2.76999998
   18.10833359  112.80100250    1.36000001    2.76999998
   18.11416626  112.80100250    1.36000001    2.78999996
   18.11833382  112.98799896    1.36000001    2.76999998
   18.12166595  111.45899963    1.36000001    2.78999996
   18.12472153  111.41200256    1.36000001    2.78999996
   18.12805557  112.67500305    1.36000001    2.76999998
   18.13111115  109.76799774    1.38000000    2.76999998
   18.13277817  109.69000244    1.39999998    2.76999998
   18.13472176  114.24700165    1.39999998    2.76999998
   18.13805580  116.52999878    1.39999998    2.76999998
   18.14138794  123.53399658    1.39999998    2.76999998
   18.14444351  114.78800201    1.39999998    2.76999998
   18.14777756  121.32099915    1.39999998    2.76999998
   18.15111160  109.97799683    1.39999998    2.76999998
   18.15694427  109.97799683    1.39999998    2.78999996
   18.16110992  119.57199860    1.39999998    2.76999998
   18.16444397  116.18399811    1.38000000    2.76999998
   18.16611099  112.88099670    1.38000000    2.76999998
   18.16833305  106.87899780    1.38000000    2.76999998
   18.17138863  117.45200348    1.36000001    2.78999996
   18.17472076  111.10500336    1.36000001    2.76999998
   18.17805481  116.26399994    1.36000001    2.78999996
   18.18111038  117.02300262    1.36000001    2.78999996
   18.18444443  114.65899658    1.38000000    2.78999996
   18.18750000  113.34500122    1.34000003    2.78999996
   18.19083214  113.68900299    1.34000003    2.76999998
   18.19416618  113.88099670    1.34000003    2.76999998
   18.19972038  113.88099670    1.34000003    2.76999998
   18.20388985  114.73999786    1.36000001    2.78999996
   18.20722389  121.51000214    1.36000001    2.76999998
   18.21055603  110.89099884    1.36000001    2.76999998
   18.21361160  114.52999878    1.36000001    2.76999998
   18.21694565  116.95800018    1.36000001    2.76999998
   18.22027779  110.57399750    1.36000001    2.76999998
   18.22333336  112.83899689    1.36000001    2.76999998
   18.22666740  117.12100220    1.36000001    2.78999996
   18.23000145  120.24700165    1.36000001    2.78999996
   18.23277855  117.76999664    1.36000001    2.76999998
   18.23333359  114.15899658    1.36000001    2.76999998
   18.23666763  115.79100037    1.38000000    2.76999998
   18.24277878  115.79100037    1.39999998    2.76999998
   18.24694443  118.62599945    1.44000006    2.76999998
   18.25000000  105.47799683    1.44000006    2.76999998
   18.25333405  114.38099670    1.44000006    2.76999998
   18.25666618  118.55699921    1.46000004    2.76999998
   18.25972176  115.40000153    1.46000004    2.76999998
   18.26305580  122.21299744    1.44000006    2.76999998
   18.26611137  116.93800354    1.46000004    2.76999998
   18.26638794  118.33999634    1.46000004    2.76999998
   18.26972198  125.58000183    1.46000004    2.76999998
   18.27305603  118.03600311    1.46000004    2.76999998
   18.27611160  120.79199982    1.46000004    2.76999998
   18.27944374  113.44899750    1.44000006    2.76999998
   18.28555489  113.44899750    1.46000004    2.76999998
   18.28972244  115.27600098    1.44000006    2.75000000
   18.29305458  119.35700226    1.44000006    2.76999998
   18.29611015  115.85399628    1.44000006    2.76999998
   18.29944420  116.39199829    1.44000006    2.76999998
   18.29972076  119.48300171    1.44000006    2.76999998
   18.30305481  115.75700378    1.44000006    2.78999996
   18.30638885  117.74500275    1.44000006    2.76999998
   18.30944443  107.84100342    1.44000006    2.76999998
   18.31277657  115.73799896    1.46000004    2.76999998
   18.31611061  115.76799774    1.46000004    2.76999998
   18.33722305  115.76799774    1.39999998    2.78999996
   18.34111214  121.09200287    1.39999998    2.78999996
   18.34444427  113.16600037    1.39999998    2.76999998
   18.34777832  117.00900269    1.39999998    2.76999998
   18.35083389  122.11000061    1.39999998    2.76999998
   18.35416794  116.22399902    1.39999998    2.78999996
   18.35750008  112.63700104    1.39999998    2.76999998
   18.36055565  120.52600098    1.39999998    2.76999998
   18.36388969  113.26599884    1.39999998    2.76999998
   18.36694527  111.46099854    1.41999996    2.76999998
   18.36777878  105.77899933    1.41999996    2.76999998
   18.37083435  114.34300232    1.41999996    2.76999998
   18.37416649  113.25700378    1.44000006    2.76999998
   18.37972260  113.25700378    1.44000006    2.76999998
   18.38388824  123.88899994    1.39999998    2.76999998
   18.38722229  124.46099854    1.39999998    2.76999998
   18.39055634  115.35900116    1.38000000    2.76999998
   18.39361191  117.48200226    1.38000000    2.76999998
   18.39694405  120.32599640    1.38000000    2.76999998
   18.39999962  115.77200317    1.36000001    2.76999998
   18.40111160  125.55599976    1.36000001    2.76999998
   18.40388870  126.54199982    1.38000000    2.76999998
   18.40722275  117.13800049    1.38000000    2.76999998
   18.41027832  112.70300293    1.38000000    2.76999998
   18.41361046  111.36199951    1.38000000    2.76999998
   18.41694450  121.30200195    1.39999998    2.76999998
   18.42277718  121.30200195    1.39999998    2.75000000
   18.42666626  120.85700226    1.41999996    2.76999998
   18.43000031  114.10800171    1.41999996    2.75000000
   18.43333244  122.44200134    1.41999996    2.75000000
   18.43472099  129.45399475    1.41999996    2.75000000
   18.43694305  128.47300720    1.41999996    2.76999998
   18.43999863  122.21299744    1.41999996    2.76999998
   18.44333267  134.65899658    1.44000006    2.75000000
   18.44666672  121.97499847    1.48000002    2.76999998
   18.44972038  133.53399658    1.48000002    2.76999998
   18.45305634  123.61900330    1.48000002    2.75000000
   18.45639038  137.01499939    1.48000002    2.75000000
   18.45944595  131.45199585    1.48000002    2.76999998
   18.46555710  131.45199585    1.48000002    2.76999998
   18.46972275  125.69000244    1.46000004    2.76999998
   18.47277832  125.94300079    1.46000004    2.76999998
   18.47611237  131.23899841    1.44000006    2.76999998
   18.47944450  115.86000061    1.46000004    2.75000000
   18.48250008  125.09200287    1.48000002    2.76999998
   18.48583412  124.70800018    1.48000002    2.76999998
   18.48888969  135.39900208    1.50000000    2.76999998
   18.49222183  128.34899902    1.50000000    2.76999998
   18.49555588  118.30599976    1.50000000    2.76999998
   18.49861145  126.71199799    1.50000000    2.76999998
   18.50138855  123.09200287    1.50000000    2.76999998
   18.50250053  116.59200287    1.50000000    2.76999998
   18.50833321  116.59200287    1.50000000    2.76999998
   18.51250076  115.84100342    1.50000000    2.75000000
   18.51583290  120.43900299    1.50000000    2.76999998
   18.51888847  132.90299988    1.48000002    2.76999998
   18.52222252  128.26800537    1.44000006    2.75000000
   18.52555466  123.81099701    1.44000006    2.75000000
   18.52861023  115.20800018    1.38000000    2.76999998
   18.53194427  120.63200378    1.36000001    2.75000000
   18.53472137  123.94999695    1.36000001    2.75000000
   18.53555489  130.77799988    1.36000001    2.75000000
   18.53888893  121.38800049    1.36000001    2.75000000
   18.54194450  122.36799622    1.38000000    2.76999998
   18.54527664  121.02300262    1.39999998    2.76999998
   18.55111122  121.02300262    1.41999996    2.75000000
   18.55527687  123.01100159    1.41999996    2.76999998
   18.55861092  118.26599884    1.44000006    2.75000000
   18.56166649  117.89199829    1.44000006    2.76999998
   18.56499863  124.91500092    1.44000006    2.76999998
   18.56805611  117.20700073    1.48000002    2.76999998
   18.56861115  132.02699280    1.48000002    2.76999998
   18.57194519  128.63800049    1.48000002    2.75000000
   18.57500076  122.31800079    1.48000002    2.75000000
   18.57833481  125.82299805    1.48000002    2.76999998
   18.58139038  141.13600159    1.48000002    2.76999998
   18.58472252  138.90400696    1.48000002    2.76999998
   18.58805656  123.24900055    1.46000004    2.76999998
   18.59416771  123.24900055    1.50000000    2.75000000
   18.59833336  149.00700378    1.50000000    2.75000000
   18.60138893  164.17500305    1.50000000    2.75000000
   18.60194397  166.10400391    1.51999998    2.75000000
   18.60499954  154.94999695    1.50000000    2.75000000
   18.60833359  160.47599792    1.48000002    2.75000000
   18.61166763  148.74000549    1.48000002    2.75000000
   18.61472321  144.96600342    1.48000002    2.75000000
   18.61805534  138.61000061    1.48000002    2.75000000
   18.62138939  130.38400269    1.50000000    2.75000000
   18.62444496  154.40800476    1.50000000    2.75000000
   18.62777710  139.76400757    1.50000000    2.76999998
   18.63083267  136.45399475    1.48000002    2.75000000
   18.63694382  136.45399475    1.50000000    2.75000000
   18.64111137  121.06700134    1.48000002    2.75000000
   18.64416695  123.54499817    1.51999998    2.75000000
   18.64749908  132.11999512    1.51999998    2.75000000
   18.65083313  132.35200500    1.51999998    2.75000000
   18.65388870  134.81300354    1.53999996    2.76999998
   18.65722275  129.82400513    1.55999994    2.75000000
   18.66027832  119.82099915    1.58000004    2.75000000
   18.66361046  122.49199677    1.60000002    2.76999998
   18.66694450  130.34700012    1.60000002    2.76999998
   18.66805458  121.13500214    1.61000001    2.75000000
   18.67055511  125.14099884    1.66999996    2.75000000
   18.67388916  125.55400085    1.64999998    2.75000000
   18.67972183  125.55400085    1.66999996    2.76999998
   18.68388748  124.30899811    1.66999996    2.75000000
   18.68722153  127.83300018    1.66999996    2.75000000
   18.69027710  123.39600372    1.66999996    2.75000000
   18.69361115  139.03399658    1.66999996    2.75000000
   18.69666672  135.50300598    1.66999996    2.75000000
   18.70000076  136.18699646    1.66999996    2.75000000
   18.70138931  123.40100098    1.66999996    2.75000000
   18.70361137  122.96900177    1.66999996    2.75000000
   18.70694542  124.78600311    1.66999996    2.75000000
   18.71000099  120.40200043    1.66999996    2.75000000
   18.71333504  128.69000244    1.66999996    2.75000000
   18.71638870  118.95800018    1.69000006    2.75000000
   18.72249985  118.95800018    1.71000004    2.75000000
   18.72666740  112.40399933    1.73000002    2.75000000
   18.73000145  131.77799988    1.73000002    2.75000000
   18.73333359  112.26200104    1.73000002    2.75000000
   18.73500061  109.51499939    1.75000000    2.75000000
   18.73694420  114.93499756    1.75000000    2.75000000
   18.73999977  111.35099792    1.75000000    2.75000000
   18.74333382  116.68800354    1.75000000    2.75000000
   18.74666786  118.51399994    1.75000000    2.75000000
   18.74972153  110.46399689    1.75000000    2.75000000
   18.75305557  109.31400299    1.75000000    2.75000000
   18.75611115  108.94899750    1.76999998    2.75000000
   18.75944519  112.59400177    1.78999996    2.75000000
   18.76555634  112.59400177    1.80999994    2.75000000
   18.76944351  115.11199951    1.78999996    2.75000000
   18.77277756  118.70400238    1.78999996    2.75000000
   18.77611160  117.02899933    1.78999996    2.73000002
   18.77916718  118.23600006    1.76999998    2.75000000
   18.78249931  115.72599792    1.76999998    2.75000000
   18.78583336  119.18399811    1.75000000    2.75000000
   18.78888893  113.90399933    1.76999998    2.75000000
   18.79222107  111.59300232    1.75000000    2.75000000
   18.79527664  113.66000366    1.76999998    2.75000000
   18.79861069  107.98100281    1.76999998    2.75000000
   18.80166626  108.45800018    1.78999996    2.75000000
   18.80249977  116.30100250    1.78999996    2.75000000
   18.80833244  116.30100250    1.80999994    2.75000000
   18.81250000  116.38700104    1.80999994    2.75000000
   18.81555557  119.96600342    1.78999996    2.75000000
   18.81888962  117.43900299    1.78999996    2.73000002
   18.82222366  118.07499695    1.76999998    2.73000002
   18.82527924  118.23899841    1.76999998    2.75000000
   18.83694458  119.54799652    0.00000000    0.00000000
   18.83750153  110.77799988    1.75000000    2.75000000
   18.84055710  121.15499878    1.76999998    2.75000000
   18.84388924  118.61799622    1.75000000    2.75000000
   18.84694481  121.16100311    1.75000000    2.75000000
   18.85166740  121.16100311    1.75000000    2.75000000
   18.85583305  125.91899872    1.75000000    2.73000002
   18.85916710  121.08699799    1.76999998    2.73000002
   18.87972260  120.18599701    0.00000000    0.00000000
   18.88944435  122.20200348    1.78999996    2.73000002
   18.89249992  122.20999908    1.78999996    2.73000002
   18.89583397  123.26499939    1.78999996    2.73000002
   18.89916611  108.58499908    1.80999994    2.73000002
   18.90972137  116.32199860    0.00000000    0.00000000
   18.92305565  116.32199860    1.75000000    2.73000002
   18.92722130  115.37500000    1.76999998    2.73000002
   18.93055534  119.01000214    1.76999998    2.73000002
   18.93361092  117.18299866    1.80999994    2.73000002
   18.94583321  119.06900024    0.00000000    0.00000000
   18.94694328  120.12599945    1.80999994    2.75000000
   18.94972038  119.77200317    1.80999994    2.73000002
   18.95666695  119.77200317    1.78999996    2.73000002
   18.96916771  118.93699646    0.00000000    0.00000000
   18.97249985  124.95200348    1.80999994    2.73000002
   18.99333382  121.66699982    1.83000004    2.73000002
   18.99388885  123.64900208    1.85000002    2.73000002
   18.99694443  121.94200134    1.85000002    2.73000002
   19.00277710  121.94200134    1.85000002    2.75000000
   19.00749969  127.49900055    1.85000002    2.73000002
   19.01055527  118.91799927    1.85000002    2.73000002
   19.01388931  120.91000366    1.85000002    2.73000002
   19.02583313  122.00700378    0.00000000    0.00000000
   19.02750015  125.81400299    1.85000002    2.73000002
   19.02944374  117.89399719    1.85000002    2.73000002
   19.03277779  115.18599701    1.85000002    2.73000002
   19.03610992  121.83699799    1.85000002    2.75000000
   19.03916550  123.27300262    1.85000002    2.71000004
   19.04249954  112.59200287    1.85000002    2.73000002
   19.04583359  121.03600311    1.85000002    2.73000002
   19.04888916  122.06800079    1.85000002    2.73000002
   19.05360985  122.06800079    1.85000002    2.73000002
   19.05777740  119.70300293    1.85000002    2.73000002
   19.06083298  115.81300354    1.85000002    2.73000002
   19.06166649  118.01599884    1.85000002    2.73000002
   19.06472206  121.85199738    1.85000002    2.73000002
   19.06805611  121.03700256    1.83000004    2.73000002
   19.07139015  110.64099884    1.83000004    2.73000002
   19.07472229  111.40299988    1.83000004    2.73000002
   19.07777786  112.05300140    1.83000004    2.73000002
   19.08111191  109.88899994    1.83000004    2.73000002
   19.08416748  114.23799896    1.83000004    2.73000002
   19.08750153  113.98600006    1.83000004    2.73000002
   19.09083366  113.28900146    1.80999994    2.75000000
   19.09638977  113.28900146    1.80999994    2.73000002
   19.10055542  112.83100128    1.80999994    2.73000002
   19.10388947  118.17500305    1.80999994    2.73000002
   19.10694504  115.21199799    1.78999996    2.73000002
   19.11027908  121.75700378    1.80999994    2.73000002
   19.11333466  121.69499969    1.80999994    2.73000002
   19.11666679  112.78600311    1.80999994    2.73000002
   19.12000084  118.21600342    1.83000004    2.73000002
   19.12305641  120.70899963    1.83000004    2.73000002
   19.12638855  114.98699951    1.83000004    2.73000002
   19.12750053  118.61399841    1.83000004    2.73000002
   19.13000107  116.23899841    1.83000004    2.73000002
   19.14500046  118.88400269    0.00000000    0.00000000
   19.17388916  118.88400269    1.89999998    2.73000002
   19.17777634  115.29100037    1.89999998    2.71000004
   19.18111038  115.89700317    1.88000000    2.71000004
   19.18444443  116.59500122    1.88000000    2.73000002
   19.18750000  118.08699799    1.88000000    2.73000002
   19.19083214  115.21600342    1.88000000    2.73000002
   19.19416618  111.62899780    1.86000001    2.71000004
   19.19722176  112.94000244    1.86000001    2.71000004
   19.20166779  112.94000244    1.89999998    2.71000004
   19.20583344  117.13300323    1.89999998    2.73000002
   19.20888901  109.70400238    1.89999998    2.71000004
   19.20944595  109.62599945    1.89999998    2.71000004
   19.21250153  120.42800140    1.89999998    2.73000002
   19.21583366  114.59400177    1.89999998    2.71000004
   19.21888924  112.26899719    1.89999998    2.71000004
   19.22222328  118.79299927    1.89999998    2.71000004
   19.22555542  113.25800323    1.91999996    2.71000004
   19.22861099  119.26899719    1.91999996    2.71000004
   19.23194504  119.46399689    1.89999998    2.71000004
   19.23527718  109.81099701    1.91999996    2.71000004
   19.23833275  120.94400024    1.89999998    2.71000004
   19.24444389  120.94400024    1.89999998    2.71000004
   19.24833298  115.91699982    1.91999996    2.73000002
   19.25166702  111.91100311    1.91999996    2.71000004
   19.25499916  119.88999939    1.91999996    2.71000004
   19.25833321  117.77500153    1.91999996    2.71000004
   19.26138878  121.20200348    1.89999998    2.71000004
   19.27777672  117.47200012    0.00000000    0.00000000
   19.27833366  117.56700134    1.91999996    2.71000004
   19.28138924  113.13999939    1.94000006    2.69000006
   19.29638863  113.13999939    1.96000004    2.71000004
   19.30055428  119.69599915    1.98000002    2.71000004
   19.30360985  111.31700134    1.98000002    2.71000004
   19.30694389  112.72200012    1.98000002    2.71000004
   19.30999947  113.35500336    1.98000002    2.71000004
   19.31194305  115.82900238    1.98000002    2.71000004
   19.31388855  116.42400360    1.98000002    2.71000004
   19.31694603  112.41999817    1.98000002    2.69000006
   19.32916832  113.97799683    0.00000000    0.00000000
   19.33250046  116.76799774    2.00000000    2.71000004
   19.33861160  116.76799774    2.00000000    2.69000006
   19.34277916  111.40299988    2.00000000    2.71000004
   19.34527779  111.43499756    2.00000000    2.71000004
   19.34666824  115.48500061    2.00000000    2.71000004
   19.34972191  110.36699677    1.98000002    2.71000004
   19.35305595  107.64299774    4.90999985    2.76999998
   19.35639000  117.34899902    0.25999999    0.75000000
   19.35944557  113.31099701    0.11000000    0.40000001
   19.36277771  113.34300232    0.07000000    0.09000000
   19.36611176  113.92900085    0.07000000    0.09000000
   19.36916733  115.76300049    0.07000000    0.09000000
   19.37249947  115.69300079    0.07000000    0.09000000
   19.37555504  108.55799866    0.07000000    0.09000000
   19.38138962  108.55799866    0.07000000    0.09000000
   19.38555527  110.80599976    0.07000000    0.09000000
   19.40527725  118.04699707    0.07000000    0.09000000
   19.40861130  111.68499756    0.07000000    0.09000000
   19.41166687  118.00000000    0.07000000    0.09000000
   19.41250038  115.22499847    0.07000000    0.09000000
   19.41527748  117.38899994    0.07000000    0.09000000
   19.41860962  113.84999847    0.07000000    0.09000000
   19.42499924  113.84999847    0.07000000    0.09000000
   19.42888832  124.38500214    0.07000000    0.09000000
   19.43222237  126.46399689    0.07000000    0.09000000
   19.43555450  111.07299805    0.07000000    0.09000000
   19.43888855  116.07599640    0.07000000    0.09000000
   19.44194412  115.81500244    0.07000000    0.09000000
   19.44527626  112.19000244    0.07000000    0.09000000
   19.44583321  119.75000000    0.07000000    0.09000000
   19.44861031  114.19699860    0.07000000    0.09000000
   19.45194435  120.71900177    0.07000000    0.09000000
   19.45527840  109.68199921    0.07000000    0.09000000
   19.45833397  108.95400238    0.07000000    0.09000000
   19.46166801  114.44999695    0.07000000    0.09000000
   19.46722221  114.44999695    0.07000000    0.09000000
   19.47138977  119.97100067    0.07000000    0.09000000
   19.47472191  119.24400330    0.07000000    0.09000000
   19.47777748  120.20500183    0.07000000    0.09000000
   19.47944450  117.77300262    0.07000000    0.09000000
   19.49055672  115.03600311    0.00000000    0.00000000
   19.49388885  115.34500122    0.07000000    0.09000000
   19.49694443  118.03399658    0.07000000    0.09000000
   19.50027847  118.13800049    0.07000000    0.09000000
   19.50361061  116.66500092    0.07000000    0.09000000
   19.50666618  116.23500061    0.07000000    0.09000000
   19.51000023  114.37799835    0.07000000    0.09000000
   19.51277733  118.72000122    0.07000000    0.09000000
   19.51361084  117.19499969    0.07000000    0.09000000
   19.51805496  117.19499969    0.07000000    0.09000000
   19.52222252  111.90100098    0.07000000    0.09000000
   19.52555466  111.91200256    0.07000000    0.09000000
   19.53722191  116.76399994    0.00000000    0.00000000
   19.54055595  121.35800171    0.07000000    0.09000000
   19.54361153  116.20500183    0.07000000    0.09000000
   19.54694366  117.02400208    0.07000000    0.09000000
   19.55027771  118.26699829    0.07000000    0.09000000
   19.55305481  118.93699646    0.07000000    0.09000000
   19.55388832  112.09600067    0.07000000    0.09000000
   19.55722237  120.71199799    0.07000000    0.09000000
   19.56027794  116.45899963    0.07000000    0.09000000
   19.56499863  116.45899963    0.07000000    0.09000000
   19.56888962  113.09700012    0.07000000    0.09000000
   19.57222366  114.48300171    0.07000000    0.09000000
   19.57583427  114.26699829    0.07000000    0.09000000
   19.57888985  117.61299896    0.07000000    0.09000000
   19.58222389  116.94100189    0.07000000    0.09000000
   19.58555603  115.50599670    0.07000000    0.09000000
   19.58638954  121.20999908    0.07000000    0.09000000
   19.58889008  121.25900269    0.07000000    0.09000000
   19.59222221  115.68399811    0.07000000    0.09000000
   19.59527779  116.97000122    0.07000000    0.09000000
   19.59861183  113.44100189    0.07000000    0.09000000
   19.60194397  114.25499725    0.07000000    0.09000000
   19.60777855  114.25499725    0.07000000    0.09000000
   19.61194420  112.25000000    0.07000000    0.09000000
   19.61499977  111.49099731    0.07000000    0.09000000
   19.61833382  119.69599915    0.07000000    0.09000000
   19.61972237  115.75499725    0.07000000    0.09000000
   19.62194443  113.56900024    0.07000000    0.09000000
   19.62527847  114.96199799    0.07000000    0.09000000
   19.62833405  111.27400208    0.07000000    0.09000000
   19.63166618  115.42400360    0.07000000    0.09000000
   19.63472176  111.36199951    0.07000000    0.09000000
   19.63805580  118.74299622    0.07000000    0.09000000
   19.64138794  117.48699951    0.07000000    0.09000000
   19.64444351  114.99900055    0.07000000    0.09000000
   19.65055466  114.99900055    0.07000000    0.09000000
   19.65472221  123.68199921    0.07000000    0.09000000
   19.65805435  126.24299622    0.07000000    0.09000000
   19.66110992  126.20899963    0.07000000    0.09000000
   19.66444397  129.03500366    0.07000000    0.09000000
   19.66749954  123.19899750    0.07000000    0.09000000
   19.67083359  131.17100525    0.07000000    0.09000000
   19.67416573  148.28199768    0.07000000    0.09000000
   19.67722130  188.12399292    0.07000000    0.09000000
   19.68055534  244.29499817    0.07000000    0.09000000
   19.68388748  224.19799805    0.07000000    0.09000000
   19.68638802  249.33200073    0.07000000    0.09000000
   19.68750000  279.45001221    0.07000000    0.09000000
   19.70000076  279.45001221    0.07000000    0.09000000
   19.70416832  216.56599426    0.07000000    0.09000000
   19.70750046  217.05099487    0.07000000    0.09000000
   19.71055603  188.29299927    0.07000000    0.09000000
   19.71416664  194.74899292    0.07000000    0.09000000
   19.71750069  200.16200256    0.07000000    0.09000000
   19.71972275  180.67900085    0.07000000    0.09000000
   19.72111130  178.39700317    0.07000000    0.09000000
   19.72444534  182.81500244    0.07000000    0.09000000
   19.72750092  182.46499634    0.07000000    0.09000000
   19.73083305  188.17300415    0.07000000    0.09000000
   19.73638916  188.17300415    0.07000000    0.09000000
   19.74027824  160.82699585    0.07000000    0.09000000
   19.74361229  173.13800049    0.07000000    0.09000000
   19.74694443  174.00300598    0.07000000    0.09000000
   19.75000000  174.94999695    0.07000000    0.09000000
   19.75305557  179.92999268    0.07000000    0.09000000
   19.75388908  179.09800720    0.07000000    0.09000000
   19.75722313  171.63699341    0.07000000    0.09000000
   19.76027870  172.25799561    0.07000000    0.09000000
   19.76361084  171.70399475    0.07000000    0.09000000
   19.76666641  156.71400452    0.07000000    0.09000000
   19.77055550  180.91099548    0.07000000    0.09000000
   19.77388954  170.14799500    0.07000000    0.09000000
   19.77916718  170.14799500    0.07000000    0.09000000
   19.78333282  150.23599243    0.07000000    0.09000000
   19.78638840  165.81199646    0.07000000    0.09000000
   19.78694344  153.93400574    0.07000000    0.09000000
   19.79027748  160.62899780    0.07000000    0.09000000
   19.79333305  160.40800476    0.07000000    0.09000000
   19.79666710  158.19200134    0.07000000    0.09000000
   19.79999924  159.79499817    0.07000000    0.09000000
   19.80305481  156.18200684    0.07000000    0.09000000
   19.80638885  141.14900208    0.07000000    0.09000000
   19.80944443  146.69799805    0.07000000    0.09000000
   19.81277657  145.12899780    0.07000000    0.09000000
   19.81611061  144.61399841    0.07000000    0.09000000
   19.82194519  144.61399841    0.07000000    0.09000000
   19.82611275  148.93699646    0.07000000    0.09000000
   19.82944489  147.50199890    0.07000000    0.09000000
   19.83250046  138.54699707    0.07000000    0.09000000
   19.83583450  140.95500183    0.07000000    0.09000000
   19.83889008  147.90100098    0.07000000    0.09000000
   19.84222221  146.51300049    0.07000000    0.09000000
   19.84555626  138.88200378    0.07000000    0.09000000
   19.84861183  142.78900146    0.07000000    0.09000000
   19.85194397  139.38699341    0.07000000    0.09000000
   19.85305595  147.22799683    0.07000000    0.09000000
   19.85555649  141.30999756    0.07000000    0.09000000
   19.85888863  143.51499939    0.07000000    0.09000000
   19.86472321  143.51499939    0.07000000    0.09000000
   19.86888885  142.40199280    0.07000000    0.09000000
   19.87222290  142.02600098    0.07000000    0.09000000
   19.87527847  138.24600220    0.07000000    0.09000000
   19.87861061  127.71600342    0.07000000    0.09000000
   19.88194466  140.01300049    0.07000000    0.09000000
   19.88500023  136.87399292    0.07000000    0.09000000
