    HOUR (UT)   FLARE FACTOR    SKY TESTER    SUN TESTER
   14.11083412   -1.00000000   -1.00000000   -1.00000000
   14.16694450  164.76699829    1.89999998    2.50000000
   14.17027855  158.79100037    1.89999998    2.50000000
   14.17333412  152.47999573    1.88000000    2.48000002
   14.17666721  168.94900513    1.88000000    2.48000002
   14.18000031  167.48699951    1.86000001    2.48000002
   14.18305588  165.02499390    1.86000001    2.50000000
   14.18722248  165.02499390    1.85000002    2.50000000
   14.19138908  155.84399414    1.83000004    2.50000000
   14.19472218  156.23800659    1.83000004    2.50000000
   14.19777775  158.74600220    1.83000004    2.50000000
   14.20027733  168.86799622    1.80999994    2.51999998
   14.20166683  172.21600342    1.80999994    2.51999998
   14.20472240  175.02799988    1.83000004    2.51999998
   14.20805550  159.41499329    1.85000002    2.50000000
   14.21111107  158.80099487    1.85000002    2.51999998
   14.21444416  164.69700623    1.85000002    2.51999998
   14.21777725  161.89100647    1.85000002    2.50000000
   14.22083282  155.89900208    1.85000002    2.50000000
   14.22416592  179.48800659    1.85000002    2.50000000
   14.22999954  179.48800659    1.83000004    2.51999998
   14.23416710  171.27699280    1.85000002    2.51999998
   14.23750019  158.40100098    1.83000004    2.51999998
   14.24055576  163.00799561    1.83000004    2.51999998
   14.24388885  165.29699707    1.83000004    2.51999998
   14.24722290  157.52999878    1.83000004    2.51999998
   14.25027752  151.99600220    1.80999994    2.51999998
   14.25361156  168.37899780    1.80999994    2.51999998
   14.25694466  164.63499451    1.80999994    2.51999998
   14.26000023  154.06100464    1.80999994    2.51999998
   14.26333332  163.83200073    1.80999994    2.51999998
   14.26638889  151.76699829    1.80999994    2.51999998
   14.26694393  169.30099487    1.80999994    2.51999998
   14.27305508  169.30099487    1.80999994    2.51999998
   14.27722168  156.50399780    1.80999994    2.51999998
   14.28027725  159.11799622    1.80999994    2.51999998
   14.28361130  156.89500427    1.80999994    2.51999998
   14.28666687  155.69999695    1.80999994    2.51999998
   14.29000092  153.10600281    1.78999996    2.51999998
   14.29333401  158.09700012    1.78999996    2.51999998
   14.29638958  155.26800537    1.78999996    2.51999998
   14.29972267  159.95100403    1.78999996    2.51999998
   14.30027771  159.73399353    1.78999996    2.51999998
   14.30333328  152.29699707    1.78999996    2.51999998
   14.30666733  151.56599426    1.80999994    2.51999998
   14.30972195  153.49099731    1.80999994    2.51999998
   14.31583309  153.49099731    1.78999996    2.51999998
   14.31999969  140.73300171    1.78999996    2.51999998
   14.32305527  163.33299255    1.78999996    2.51999998
   14.32638836  158.64300537    1.76999998    2.53999996
   14.32972240  157.86199951    1.76999998    2.51999998
   14.33277798  160.19200134    1.76999998    2.51999998
   14.33361053  153.79600525    1.76999998    2.51999998
   14.33638859  156.51600647    1.76999998    2.51999998
   14.33972168  154.15100098    1.75000000    2.51999998
   14.34277725  158.15899658    1.75000000    2.51999998
   14.34611034  147.48100281    1.75000000    2.51999998
   14.34944439  160.52799988    1.76999998    2.53999996
   14.35249996  160.00599670    1.76999998    2.53999996
   14.35861111  160.00599670    1.78999996    2.51999998
   14.36277771  152.41499329    1.76999998    2.51999998
   14.36611176  157.60899353    1.76999998    2.51999998
   14.36694431  154.78599548    1.76999998    2.51999998
   14.36972237  149.40800476    1.76999998    2.51999998
   14.37305546  151.33799744    1.78999996    2.51999998
   14.37611103  148.49600220    1.78999996    2.51999998
   14.37944412  155.17999268    1.78999996    2.51999998
   14.38277817  175.57600403    1.78999996    2.51999998
   14.38583279  147.96699524    1.80999994    2.53999996
   14.38916683  154.34300232    1.80999994    2.53999996
   14.39222240  159.19099426    1.80999994    2.51999998
   14.39555550  156.28700256    1.80999994    2.51999998
   14.40138817  156.28700256    1.83000004    2.51999998
   14.40555477  164.67199707    1.83000004    2.51999998
   14.40888882  162.84800720    1.80999994    2.51999998
   14.41194439  159.80499268    1.80999994    2.53999996
   14.41527748  160.47000122    1.78999996    2.53999996
   14.41861153  147.78100586    1.78999996    2.53999996
   14.42166710  159.16299438    1.78999996    2.53999996
   14.42500019  150.17100525    1.78999996    2.53999996
   14.42833328  150.50000000    1.78999996    2.53999996
   14.43138885  149.79499817    1.78999996    2.53999996
   14.43361092  147.75700378    1.78999996    2.53999996
   14.43500042  143.22000122    1.78999996    2.53999996
   14.43833351  159.49200439    1.78999996    2.53999996
   14.44444466  159.49200439    1.78999996    2.51999998
   14.44833374  151.24699402    1.78999996    2.51999998
   14.45166683  155.01899719    1.78999996    2.53999996
   14.45499992  155.48899841    1.78999996    2.53999996
   14.45805550  153.97399902    1.78999996    2.53999996
   14.46138859  160.78199768    1.78999996    2.53999996
   14.46472168  157.17199707    1.78999996    2.53999996
   14.46694374  132.12899780    1.78999996    2.53999996
   14.46833324  142.85699463    1.78999996    2.53999996
   14.47166634  145.88400269    1.78999996    2.53999996
   14.47472191  151.16099548    1.76999998    2.53999996
   14.47805500  157.41299438    1.75000000    2.55999994
   14.48138809  149.69700623    1.75000000    2.53999996
   14.48722267  149.69700623    1.76999998    2.53999996
   14.49138927  156.69500732    1.76999998    2.53999996
   14.49444485  155.81500244    1.76999998    2.53999996
   14.49777794  150.76899719    1.75000000    2.53999996
   14.50027752  159.74800110    1.75000000    2.53999996
   14.50138855  155.47999573    1.76999998    2.55999994
   14.50472260  155.02600098    1.76999998    2.55999994
   14.50777817  156.35600281    1.76999998    2.53999996
   14.51111126  155.52099609    1.76999998    2.55999994
   14.51444435  157.14100647    1.76999998    2.53999996
   14.51749992  146.74299622    1.76999998    2.55999994
   14.52083302  161.66900635    1.76999998    2.53999996
   14.52388859  162.82299805    1.76999998    2.55999994
   14.52999973  162.82299805    1.75000000    2.55999994
   14.53416729  154.60299683    1.76999998    2.53999996
   14.53750038  156.00199890    1.73000002    2.53999996
   14.54055595  155.09300232    1.75000000    2.55999994
   14.54388905  159.93200684    1.73000002    2.53999996
   14.54694462  156.65199280    1.73000002    2.55999994
   14.55027771  154.90199280    1.73000002    2.53999996
   14.55361176  166.04699707    1.73000002    2.53999996
   14.55666733  161.88600159    1.73000002    2.53999996
   14.56000042  150.11799622    1.71000004    2.55999994
   14.56333351  149.02400208    1.71000004    2.55999994
   14.56638908  158.47000122    1.69000006    2.55999994
   14.56694412  155.16700745    1.69000006    2.55999994
   14.57277775  155.16700745    1.66999996    2.53999996
   14.57777786  159.30000305    1.64999998    2.55999994
   14.58111095  167.36700439    1.64999998    2.55999994
   14.58416653  167.66999817    1.64999998    2.55999994
   14.58749962  164.54800415    1.66999996    2.55999994
   14.59083271  156.83599854    1.66999996    2.55999994
   14.59388828  162.38600159    1.64999998    2.55999994
   14.59722233  167.32600403    1.64999998    2.55999994
   14.60055637  167.85200500    1.64999998    2.57999992
   14.60083389  156.27499390    1.64999998    2.57999992
   14.60416698  163.19999695    1.64999998    2.55999994
   14.60750008  157.11900330    1.64999998    2.55999994
   14.61083412  168.95399475    1.66999996    2.55999994
   14.61583328  168.95399475    1.66999996    2.55999994
   14.61999989  161.69999695    1.69000006    2.57999992
   14.62305546  145.52000427    1.69000006    2.55999994
   14.62638855  165.51899719    1.69000006    2.55999994
   14.62944412  166.71899414    1.69000006    2.55999994
   14.63277817  159.50500488    1.66999996    2.55999994
   14.63388920  167.24400330    1.66999996    2.55999994
   14.63638878  162.30700684    1.66999996    2.55999994
   14.63972187  158.36099243    1.71000004    2.55999994
   14.64305496  167.63600159    1.71000004    2.55999994
   14.64638901  169.71499634    1.71000004    2.55999994
   14.64972210  157.55799866    1.71000004    2.55999994
   14.65277767  156.43899536    1.69000006    2.55999994
   14.65861034  156.43899536    1.69000006    2.55999994
   14.66277695  163.95599365    1.69000006    2.57999992
   14.66583252  166.03799438    1.71000004    2.55999994
   14.66722298  171.19500732    1.71000004    2.55999994
   14.66944504  177.96299744    1.71000004    2.55999994
   14.67277813  174.55700684    1.71000004    2.55999994
   14.67583370  173.92900085    1.71000004    2.55999994
   14.67916679  180.38400269    1.71000004    2.55999994
   14.68249989  177.36999512    1.71000004    2.55999994
   14.68555546  182.07299805    1.71000004    2.55999994
   14.68888855  169.48599243    1.71000004    2.55999994
   14.69222260  186.39300537    1.75000000    2.55999994
   14.69527817  183.48399353    1.76999998    2.55999994
   14.70138836  183.48399353    1.75000000    2.55999994
   14.70555496  173.64199829    1.75000000    2.55999994
   14.70888901  174.08799744    1.78999996    2.55999994
   14.71222210  175.74699402    1.78999996    2.55999994
   14.71527767  176.19999695    1.78999996    2.55999994
   14.71861076  155.67799377    1.78999996    2.55999994
   14.72194386  154.91099548    1.83000004    2.55999994
   14.72499943  168.37399292    1.80999994    2.53999996
   14.72833252  172.52200317    1.80999994    2.55999994
   14.73166656  169.29899597    1.78999996    2.55999994
   14.73388958  173.02499390    1.78999996    2.55999994
   14.73500061  171.33700562    1.75000000    2.55999994
   14.73833370  169.89300537    1.75000000    2.55999994
   14.74416733  169.89300537    1.75000000    2.55999994
   14.74833393  169.23599243    1.75000000    2.55999994
   14.75166702  170.39100647    1.76999998    2.55999994
   14.75500011  167.70599365    1.76999998    2.55999994
   14.75805569  178.64999390    1.73000002    2.55999994
   14.76138878  174.91700745    1.73000002    2.55999994
   14.76444435  175.14300537    1.71000004    2.55999994
   14.76722240  166.50100708    1.71000004    2.55999994
   14.76805496  173.94400024    1.71000004    2.55999994
   14.77138901  174.05900574    1.71000004    2.55999994
   14.77444458  175.41499329    1.71000004    2.57999992
   14.77777767  165.85099792    1.73000002    2.55999994
   14.78111076  172.35899353    1.73000002    2.55999994
   14.78722286  172.35899353    1.71000004    2.55999994
   14.79138947  168.36700439    1.73000002    2.55999994
   14.79444504  161.47200012    1.73000002    2.55999994
   14.79777813  161.73399353    1.73000002    2.55999994
   14.80055618  157.96499634    1.73000002    2.55999994
   14.80138874  173.41700745    1.73000002    2.55999994
   14.80472279  156.01100159    1.73000002    2.55999994
   14.80805588  164.14500427    1.73000002    2.55999994
   14.81111145  173.22399902    1.73000002    2.57999992
   14.81444454  165.79699707    1.73000002    2.55999994
   14.81750011  173.88299561    1.73000002    2.55999994
   14.82083321  167.50700378    1.73000002    2.55999994
   14.82416630  163.14300537    1.73000002    2.55999994
   14.82999992  163.14300537    1.71000004    2.55999994
   14.83416653  164.17799377    1.73000002    2.57999992
   14.83722210  166.39700317    1.73000002    2.57999992
   14.84055519  156.61300659    1.73000002    2.57999992
   14.84388828  160.92500305    1.73000002    2.57999992
   14.84694386  156.82699585    1.75000000    2.55999994
   14.85027790  155.88800049    1.71000004    2.57999992
   14.85333347  155.31300354    1.71000004    2.57999992
   14.85666752  157.44599915    1.71000004    2.57999992
   14.86000061  156.08200073    1.71000004    2.57999992
   14.86305618  165.74400330    1.71000004    2.57999992
   14.86638927  152.16900635    1.71000004    2.57999992
   14.86722279  157.90699768    1.71000004    2.57999992
   14.87277794  157.90699768    1.71000004    2.57999992
   14.87694454  151.69700623    1.71000004    2.57999992
   14.88000011  150.36000061    1.71000004    2.57999992
   14.88333321  153.59899902    1.71000004    2.57999992
   14.88666630  153.03599548    1.73000002    2.57999992
   14.88972187  158.16099548    1.73000002    2.57999992
   14.89305496  156.11900330    1.75000000    2.57999992
   14.89638901  149.99299622    1.76999998    2.59999990
   14.89944458  156.03900146    1.75000000    2.57999992
   14.90055561  147.61799622    1.75000000    2.57999992
   14.90305519  156.43600464    1.76999998    2.57999992
   14.90638828  157.61399841    1.76999998    2.57999992
   14.91055489  151.67300415    1.78999996    2.55999994
   14.91555500  151.67300415    1.76999998    2.55999994
   14.91972256  134.21200562    1.75000000    2.57999992
   14.92305565  144.71099854    1.78999996    2.57999992
   14.93472195  153.09500122    0.00000000    0.00000000
   14.93527794  152.15699768    1.86000001    2.55999994
   14.93833351  139.93699646    1.88000000    2.55999994
   14.94166660  150.44599915    1.86000001    2.53999996
   14.94472218  153.86500549    1.88000000    2.55999994
   14.94944477  151.02299500    1.88000000    2.55999994
   14.95277786  154.89500427    1.86000001    2.55999994
   14.95583344  152.48399353    1.85000002    2.55999994
   14.96249962  152.48399353    1.85000002    2.55999994
   14.96638870  154.76899719    1.83000004    2.57999992
   14.96861076  152.85000610    1.80999994    2.57999992
   14.97027779  150.63099670    1.80999994    2.57999992
   14.97361088  152.31199646    1.80999994    2.59999990
   14.97666645  147.25199890    1.80999994    2.57999992
   14.97999954  148.44500732    1.80999994    2.57999992
   14.98333359  150.60600281    1.76999998    2.57999992
   14.98666668  151.64399719    1.75000000    2.57999992
   14.99000072  148.61199951    1.75000000    2.57999992
   14.99305534  150.57899475    1.73000002    2.57999992
   14.99638939  152.88400269    1.75000000    2.57999992
   14.99972248  143.80099487    1.75000000    2.57999992
   15.00527763  143.80099487    1.73000002    2.57999992
   15.00944424  145.38999939    1.71000004    2.57999992
   15.01249981  138.54499817    1.71000004    2.57999992
   15.01583290  141.90699768    1.73000002    2.57999992
   15.01916599  141.19599915    1.71000004    2.57999992
   15.02277756  150.99000549    1.71000004    2.57999992
   15.02583313  136.75000000    1.69000006    2.57999992
   15.02972221  136.20700073    1.64999998    2.57999992
   15.03305531  142.48800659    1.63000000    2.59999990
   15.03611183  146.41099548    1.61000001    2.59999990
   15.03666687  143.50100708    1.61000001    2.59999990
   15.14111137   -1.00000000   -1.00000000   -1.00000000
   15.26500034   -1.00000000   -1.00000000   -1.00000000
   15.39666653   -1.00000000   -1.00000000   -1.00000000
   15.75277805   -1.00000000   -1.00000000   -1.00000000
   15.86694431   -1.00000000   -1.00000000   -1.00000000
   15.96722221   -1.00000000   -1.00000000   -1.00000000
   16.05360985   -1.00000000   -1.00000000   -1.00000000
   16.07555580  160.79699707    3.16000009    2.67000008
   16.07888985  160.15699768    1.83000004    2.66000009
   16.08194542  163.00999451    1.51999998    2.64000010
   16.08527756  151.86099243    1.46000004    2.64000010
   16.08861160  167.87199402    1.46000004    2.64000010
   16.09166718  166.20199585    1.44000006    2.61999989
   16.09583473  166.20199585    1.44000006    2.61999989
   16.10000038  162.41000366    1.50000000    2.61999989
   16.10333443  160.34899902    1.51999998    2.61999989
   16.10639000  153.45799255    1.76999998    2.64000010
   16.10888863  152.97200012    1.78999996    2.61999989
   16.11000061  166.88000488    1.78999996    2.61999989
   16.11333466  169.65600586    1.78999996    2.61999989
   16.11666679  161.77499390    1.78999996    2.64000010
   16.11972237  154.67199707    1.46000004    2.64000010
   16.12305641  157.52600098    1.44000006    2.64000010
   16.12638855  148.13800049    1.44000006    2.64000010
   16.12944412  149.92700195    1.44000006    2.64000010
   16.13277817  152.45100403    1.44000006    2.64000010
   16.13888931  152.45100403    1.41999996    2.64000010
   16.14277840  142.62100220    1.41999996    2.64000010
   16.14611053  162.83000183    1.41999996    2.64000010
   16.14944458  152.06300354    1.41999996    2.64000010
   16.15250015  152.77699280    1.41999996    2.64000010
   16.15583229  146.94599915    1.41999996    2.64000010
   16.15916634  146.66799927    1.41999996    2.61999989
   16.16222191  161.35200500    1.41999996    2.64000010
   16.16555595  129.00399780    1.41999996    2.61999989
   16.16860962  148.60699463    1.41999996    2.64000010
   16.17194366  152.37399292    1.46000004    2.61999989
   16.17527771  140.44700623    1.46000004    2.61999989
   16.17583275  148.10000610    1.46000004    2.64000010
   16.18166542  148.10000610    1.46000004    2.64000010
   16.18583298  146.75799561    1.46000004    2.61999989
   16.18888855  145.92100525    1.46000004    2.61999989
   16.19222069  141.97099304    1.46000004    2.61999989
   16.19527626  135.97799683    1.46000004    2.64000010
   16.19861031  138.14300537    1.48000002    2.61999989
   16.20194435  143.03599548    1.48000002    2.64000010
   16.20499992  140.87100220    1.48000002    2.61999989
   16.20833397  145.29400635    1.50000000    2.61999989
   16.20916748  141.33399963    1.50000000    2.61999989
   16.21194458  140.85299683    1.53999996    2.61999989
   16.21527863  131.20199585    1.53999996    2.61999989
   16.21861076  135.05700684    1.53999996    2.61999989
   16.22444534  135.05700684    1.55999994    2.61999989
   16.22861099  148.16700745    1.55999994    2.61999989
   16.23166656  141.95399475    1.55999994    2.64000010
   16.23500061  142.82400513    1.53999996    2.64000010
   16.23833275  152.15499878    1.53999996    2.61999989
   16.24138832  147.80400085    1.55999994    2.61999989
   16.24250031  151.11700439    1.58000004    2.61999989
   16.24527740  141.50900269    1.60000002    2.64000010
   16.24833298  132.78900146    1.60000002    2.61999989
   16.25166702  139.96800232    1.60000002    2.61999989
   16.25472260  141.84899902    1.60000002    2.64000010
   16.25805473  135.73100281    1.61000001    2.64000010
   16.26138878  143.35899353    1.60000002    2.64000010
   16.26722145  143.35899353    1.60000002    2.64000010
   16.27138901  141.92799377    1.60000002    2.64000010
   16.27472115  142.29899597    1.60000002    2.64000010
   16.27583313  146.71400452    1.60000002    2.64000010
   16.27833366  139.03399658    1.61000001    2.64000010
   16.28166580  150.04100037    2.30999994    2.64000010
   16.28499985  110.01599884    4.90999985    2.39000010
   16.28805542   70.88549805    4.90999985    1.26999998
   16.29138756   68.25109863    4.90999985    1.21000004
   16.29444313   63.33200073    4.90999985    1.23000002
   16.29777718   -1.00000000    4.90999985    1.30999994
   16.30111122   75.08229828    4.90999985    1.11000001
   16.30416679   -1.00000000    4.90999985    1.26999998
   16.31416512   -1.00000000    4.90999985    0.61000001
   16.31750107   -1.00000000    4.90999985    0.98000002
   16.32055664   -1.00000000    4.90999985    1.14999998
   16.32389069  284.82901001    4.90999985    1.05999994
   16.32722282  174.62800598    4.90999985    1.55999994
   16.33027840  192.22200012    4.90999985    2.26999998
   16.33361244  178.23500061    4.90999985    2.40000010
   16.33694458  150.97999573    4.90999985    2.32999992
   16.34000015  156.13699341    4.90999985    2.42000008
   16.34250069  151.69200134    4.90999985    2.51999998
   16.34361267  149.01600647    4.90999985    2.55999994
   16.34694481  138.76699829    4.90999985    2.59999990
   16.35305595  138.76699829    1.96000004    2.61999989
   16.35722351  138.99000549    1.66999996    2.61999989
   16.36027908  141.39399719    1.63000000    2.59999990
   16.36361122  144.55400085    1.63000000    2.61999989
   16.36666679  148.91000366    1.63000000    2.61999989
   16.37000084  140.57600403    1.64999998    2.61999989
   16.37333298  141.61999512    4.90999985    2.66000009
   16.37583351  139.50500488    4.90999985    2.66000009
   16.37666702  137.43200684    4.90999985    2.66000009
   16.38000107  139.78500366    4.90999985    2.71000004
   16.38333321  107.67800140    4.90999985    2.71000004
   16.38638878  237.54100037    4.90999985    1.83000004
   16.38972282   -1.00000000    4.90999985    1.86000001
   16.39583397   -1.00000000    4.90999985    1.13000000
   16.39999962   -1.00000000    4.90999985    0.81999999
   16.40333366   -1.00000000    4.90999985    0.70999998
   16.40638924   -1.00000000    4.90999985    0.92000002
   16.40916634  205.50399780    4.90999985    1.13000000
   16.40999985  220.30299377    4.90999985    1.39999998
   16.41333389  109.58200073    4.90999985    1.96000004
   16.41666603  127.44400024    4.90999985    2.09999990
   16.41972160   -1.00000000    4.90999985    1.69000006
   16.42305565   -1.00000000    4.90999985    0.86000001
   16.42638779   -1.00000000    4.90999985    0.30000001
   16.42944336   -1.00000000    4.90999985    0.20999999
   16.43277740   -1.00000000    4.90999985    0.20999999
   16.44277763   -1.00000000    4.90999985    0.51999998
   16.44583321   -1.00000000    4.90999985    0.20999999
   16.44916534   -1.00000000    4.90999985    0.17000000
   16.45250130   -1.00000000    4.90999985    0.15000001
   16.45555687   -1.00000000    4.90999985    0.15000001
   16.45888901   -1.00000000    4.90999985    0.20999999
   16.46222305   -1.00000000    4.90999985    0.40000001
   16.46527863   -1.00000000    4.90999985    0.36000001
   16.46861076   -1.00000000    4.90999985    0.73000002
   16.47166634  117.66300201    4.90999985    1.00000000
   16.47500038  130.33799744    4.90999985    1.71000004
   16.47583389  117.06700134    4.90999985    1.80999994
   16.48166656  117.06700134    4.90999985    2.78999996
   16.48555565  129.26899719    4.90999985    2.71000004
   16.48888969  119.08799744    4.15999985    2.64000010
   16.49222183  136.37800598    1.58000004    2.61999989
   16.49527740  138.47500610    1.39999998    2.64000010
   16.49861145  135.51400757    1.39999998    2.64000010
   16.50166702  132.22000122    2.75000000    2.66000009
   16.50499916  129.91499329    4.90999985    2.66000009
   16.50833321  134.74200439    4.30999994    2.64000010
   16.50916672  128.32299805    3.73000002    2.66000009
   16.51166725  127.87200165    3.14000010    2.64000010
   16.51499939  131.07099915    2.19000006    2.59999990
   16.51833344  126.65499878    1.71000004    2.64000010
   16.52444458  126.65499878    1.34000003    2.64000010
   16.52861023  128.04499817    1.33000004    2.64000010
   16.53166580  121.80100250    1.33000004    2.66000009
   16.53499985  130.61999512    1.33000004    2.66000009
   16.53805542  135.30299377    1.33000004    2.66000009
   16.54138756  125.16200256    1.33000004    2.66000009
   16.54249954  111.83300018    1.33000004    2.66000009
   16.54500008  122.35600281    1.33000004    2.66000009
   16.54833221  121.19599915    1.33000004    2.66000009
   16.55166626  131.64599609    1.30999994    2.64000010
   16.55472183  132.75900269    1.33000004    2.64000010
   16.55805397  133.73100281    1.33000004    2.64000010
   16.56138802  123.58100128    1.33000004    2.66000009
   16.56722260  123.58100128    1.34000003    2.66000009
   16.57139015  122.40799713    1.33000004    2.64000010
   16.57444572  119.50199890    1.33000004    2.64000010
   16.57583427  127.82399750    1.33000004    2.64000010
   16.57805634  126.08200073    1.33000004    2.66000009
   16.58139038  138.62199402    1.34000003    2.66000009
   16.58472252  126.60900116    1.34000003    2.66000009
   16.58777809  122.41300201    1.34000003    2.66000009
   16.59111214  122.94400024    1.34000003    2.66000009
   16.59444427  121.88200378    1.34000003    2.66000009
   16.59749985  124.45800018    1.34000003    2.64000010
   16.60083389  118.04100037    1.34000003    2.66000009
   16.60416794  128.73500061    1.36000001    2.66000009
   16.61000061  128.73500061    1.34000003    2.64000010
   16.61416626  126.76799774    1.33000004    2.66000009
   16.61750031  125.16500092    1.33000004    2.66000009
   16.62055588  127.32700348    1.33000004    2.64000010
   16.62388992  126.58499908    1.30999994    2.66000009
   16.62722206  119.23699951    1.30999994    2.66000009
   16.63055611  119.53199768    1.30999994    2.66000009
   16.63361168  117.59999847    1.30999994    2.64000010
   16.63694382  120.93800354    1.33000004    2.66000009
   16.63999939  131.67700195    1.36000001    2.64000010
   16.64249992  128.34199524    1.34000003    2.66000009
   16.64388847  132.65299988    1.36000001    2.64000010
   16.64694405  123.94699860    1.36000001    2.66000009
   16.65305519  123.94699860    1.36000001    2.64000010
   16.65694427  123.30500031    1.36000001    2.66000009
   16.66027832  123.97499847    1.36000001    2.66000009
   16.66361046  121.06300354    1.36000001    2.64000010
   16.66666603  130.66700745    1.38000000    2.66000009
   16.67000008  127.26999664    1.38000000    2.64000010
   16.67333221  130.59700012    1.39999998    2.66000009
   16.67583275  121.01200104    1.41999996    2.64000010
   16.67694473  119.45600128    1.41999996    2.64000010
   16.68000031  126.28900146    1.41999996    2.64000010
   16.68333244  129.41999817    1.48000002    2.64000010
   16.68666649  133.23199463    1.50000000    2.64000010
   16.68972206  145.98399353    1.50000000    2.64000010
   16.69583321  145.98399353    1.50000000    2.64000010
   16.70000076  125.06999969    1.51999998    2.64000010
   16.70305634  133.94200134    1.51999998    2.64000010
   16.70639038  128.41799927    1.53999996    2.64000010
   16.70916748  131.57299805    1.53999996    2.64000010
   16.71000099  132.08099365    1.53999996    2.64000010
   16.71305656  138.49000549    1.53999996    2.64000010
   16.71638870  128.39599609    1.55999994    2.64000010
   16.71972275  122.19499969    1.55999994    2.64000010
   16.72277832  114.58499908    1.55999994    2.64000010
   16.72611237  121.50800323    1.53999996    2.64000010
   16.72944450  121.23699951    1.53999996    2.64000010
   16.73250008  134.53799438    1.53999996    2.64000010
   16.73861122  134.53799438    1.53999996    2.64000010
   16.74277878  128.38800049    1.51999998    2.64000010
   16.74611092  124.57800293    1.51999998    2.64000010
   16.74916649  128.82800293    1.51999998    2.66000009
   16.75250053  133.09599304    1.46000004    2.66000009
   16.75555611  129.92399597    1.48000002    2.64000010
   16.75888824  130.28300476    1.46000004    2.66000009
   16.76222229  140.93699646    1.46000004    2.66000009
   16.76527786  127.69300079    1.48000002    2.66000009
   16.76861000  130.26800537    1.48000002    2.66000009
   16.77194405  129.03399658    1.48000002    2.64000010
   16.77499962  137.14300537    1.46000004    2.64000010
   16.77583313  134.32600403    1.46000004    2.64000010
   16.78138924  134.32600403    1.44000006    2.64000010
   16.78555489  140.61099243    1.41999996    2.64000010
   16.78972244  128.17799377    1.41999996    2.64000010
   16.79277802  128.36900330    1.41999996    2.66000009
   16.79611015  133.21800232    1.41999996    2.66000009
   16.79916573  129.38999939    1.46000004    2.66000009
   16.80249977  126.08499908    1.46000004    2.66000009
   16.80583191  134.45599365    1.46000004    2.66000009
   16.80888748  131.80700684    1.46000004    2.64000010
   16.80944443  143.40699768    1.46000004    2.64000010
   16.81277657  129.66099548    1.46000004    2.64000010
   16.81611061  136.77400208    1.46000004    2.64000010
   16.81916809  134.47500610    1.48000002    2.64000010
   16.82444572  134.47500610    1.46000004    2.64000010
   16.82833481  135.95899963    1.46000004    2.64000010
   16.83166695  128.37100220    1.46000004    2.64000010
   16.83500099  136.49899292    1.44000006    2.64000010
   16.83805656  145.23899841    1.44000006    2.64000010
   16.84138870  142.17500305    1.41999996    2.64000010
   16.84277916  136.60899353    1.41999996    2.64000010
   16.84500122  131.86900330    1.41999996    2.64000010
   16.84833336  135.98399353    1.39999998    2.64000010
   16.85138893  128.60800171    1.39999998    2.66000009
   16.85472298  134.03999329    1.39999998    2.66000009
   16.85805511  140.79899597    1.46000004    2.66000009
   16.86111069  123.33499908    1.46000004    2.66000009
   16.86722183  123.33499908    1.46000004    2.64000010
   16.87138939  135.86500549    1.51999998    2.64000010
   16.87444496  137.87399292    1.51999998    2.66000009
   16.87611198  129.47900391    1.50000000    2.66000009
   16.87833405  125.08699799    1.48000002    2.66000009
   16.88166618  127.37300110    1.48000002    2.66000009
   16.88472176  127.35500336    1.48000002    2.66000009
   16.88805580  124.22299957    1.48000002    2.66000009
   16.89138794  115.89099884    1.48000002    2.64000010
   16.89444351  137.24499512    1.48000002    2.66000009
   16.89777756  122.36699677    1.48000002    2.64000010
   16.90111160  116.55500031    1.48000002    2.66000009
   16.90416718  128.27000427    1.46000004    2.66000009
   16.90999985  128.27000427    1.44000006    2.66000009
   16.91416550  134.40800476    1.41999996    2.66000009
   16.91722107  130.32099915    1.41999996    2.66000009
   16.92055511  138.29699707    1.39999998    2.66000009
   16.92388916  131.46899414    1.38000000    2.66000009
   16.92694473  126.29699707    1.38000000    2.66000009
   16.93027687  129.88600159    1.36000001    2.66000009
   16.93361092  130.60000610    1.36000001    2.66000009
   16.93666649  129.24200439    1.36000001    2.66000009
   16.93999863  132.09700012    1.38000000    2.66000009
   16.94277763  129.88099670    1.38000000    2.66000009
   16.94361115  130.02900696    1.38000000    2.66000009
   16.94666672  135.08799744    1.38000000    2.66000009
   16.95305634  135.08799744    1.44000006    2.67000008
   16.95722389  126.52500153    1.46000004    2.66000009
   16.96027946  126.66000366    1.46000004    2.66000009
   16.96361160  132.63699341    1.58000004    2.64000010
   16.96666718  130.17399597    1.91999996    2.66000009
   16.97000122  125.44000244    2.44000006    2.64000010
   16.97333336  144.29699707    3.84999990    2.57999992
   16.97611237  130.41999817    4.17999983    2.57999992
   16.97694588  125.97200012    4.17999983    2.57999992
   16.98000145  122.90799713    1.89999998    2.64000010
   16.98333359  120.61299896    1.63000000    2.66000009
   16.98666763  129.02999878    1.63000000    2.64000010
   16.99055672  118.86299896    1.60000002    2.64000010
   16.99555588  118.86299896    1.69000006    2.66000009
   16.99972153  109.74900055    4.90999985    2.67000008
   17.00305557  103.67099762    4.90999985    2.67000008
   17.00638962   -1.00000000    4.90999985    1.96000004
   17.00944519   97.63210297    4.90999985    0.89999998
   17.01000023  265.72000122    4.90999985    0.89999998
   17.01305580  212.42100525    4.90999985    1.58000004
   17.01638794  131.97999573    4.90999985    2.09999990
   17.01972198  130.99600220    4.90999985    2.66000009
   17.02277756  119.46700287    4.90999985    2.67000008
   17.02611160  126.80999756    2.26999998    2.67000008
   17.02944374  120.73699951    1.63000000    2.66000009
   17.03249931  129.89900208    1.61000001    2.64000010
   17.03861046  129.89900208    1.85000002    2.64000010
   17.04277802  125.67600250    1.58000004    2.66000009
   17.04305458  123.39299774    1.58000004    2.66000009
   17.04638863  136.03500366    1.58000004    2.64000010
   17.04972076  130.24000549    1.55999994    2.64000010
   17.05277634  119.67400360    1.55999994    2.66000009
   17.05611038  121.01699829    1.55999994    2.66000009
   17.05944443  123.88600159    1.53999996    2.66000009
   17.06250000  123.80699921    1.53999996    2.64000010
   17.06583214  124.58300018    1.53999996    2.64000010
   17.06916809  121.40299988    1.51999998    2.66000009
   17.07222366  122.89800262    1.51999998    2.66000009
   17.07555580  123.72899628    1.51999998    2.66000009
   17.09277916  117.13400269    1.60000002    2.66000009
   17.09694481  117.13400269    1.61000001    2.64000010
   17.10111237  121.27899933    1.58000004    2.64000010
   17.10444450  135.55700684    1.55999994    2.64000010
   17.10750008  130.02699280    1.53999996    2.66000009
   17.11083412  137.22700500    1.53999996    2.64000010
   17.11416626  126.52500153    1.50000000    2.64000010
   17.11722183  134.12600708    1.48000002    2.66000009
   17.12055588  137.85099792    1.48000002    2.66000009
   17.12361145  131.92900085    1.48000002    2.64000010
   17.12611198  138.27499390    1.46000004    2.66000009
   17.12750053  143.37399292    1.46000004    2.66000009
   17.13055611  131.99600220    1.44000006    2.66000009
   17.13388824  139.28199768    1.44000006    2.66000009
   17.13972282  139.28199768    1.44000006    2.64000010
   17.14388847  149.16299438    1.44000006    2.66000009
   17.14722252  165.61099243    1.44000006    2.66000009
   17.15055466  169.55900574    1.46000004    2.66000009
   17.15361023  147.18899536    1.50000000    2.64000010
   17.15694427  141.30999756    1.53999996    2.64000010
   17.15944481  141.65400696    1.58000004    2.64000010
   17.16055489  148.24200439    1.58000004    2.64000010
   17.16361046  270.20901489    3.59999990    2.64000010
   17.16694450  133.74800110    4.90999985    2.03999996
   17.17000008  182.78700256    4.90999985    2.30999994
   17.17333221  220.52400208    4.90999985    1.38000000
   17.17666626  152.67100525    4.90999985    1.91999996
   17.18277740  152.67100525    4.90999985    2.61999989
   17.18666649  136.17199707    4.69999981    2.69000006
   17.19055557  134.56700134    3.97000003    2.69000006
   17.19277763  149.85699463    3.28999996    2.67000008
   17.19416618  131.99800110    2.48000002    2.67000008
   17.19749832  132.91499329    1.80999994    2.67000008
   17.20083427  128.28100586    1.66999996    2.67000008
   17.20388985  121.42500305    1.66999996    2.67000008
   17.20722389  118.61599731    1.64999998    2.66000009
   17.21055603  126.52700043    1.66999996    2.66000009
   17.21361160  135.77000427    1.66999996    2.66000009
   17.21694565  128.81900024    1.58000004    2.64000010
   17.22000122  130.41299438    1.58000004    2.64000010
   17.22555542  130.41299438    1.55999994    2.64000010
   17.22972298  134.67100525    1.53999996    2.66000009
   17.23277855  143.86900330    1.50000000    2.64000010
   17.23611069  140.19999695    1.50000000    2.66000009
   17.23944473  123.35600281    1.50000000    2.66000009
   17.24250031  137.99000549    1.50000000    2.66000009
   17.24583435  131.29100037    1.50000000    2.66000009
   17.24916649  124.12799835    1.50000000    2.66000009
   17.25222206  128.61700439    1.50000000    2.66000009
   17.25555611  143.61900330    1.48000002    2.66000009
   17.25888824  131.68299866    1.48000002    2.66000009
   17.26055527  141.16099548    1.48000002    2.66000009
   17.26250076  129.21299744    1.48000002    2.66000009
   17.26833344  129.21299744    1.46000004    2.66000009
   17.27249908  137.37600708    1.46000004    2.66000009
   17.27583313  135.64300537    1.44000006    2.66000009
   17.27888870  136.90699768    1.44000006    2.66000009
   17.28222275  119.63200378    1.44000006    2.66000009
   17.28555489  130.99699402    1.44000006    2.66000009
   17.28861046  126.55899811    1.41999996    2.66000009
   17.29194450  131.83099365    1.41999996    2.66000009
   17.29388809  137.98599243    1.39999998    2.66000009
   17.29555511  125.78399658    1.38000000    2.66000009
   17.29888916  126.38999939    1.38000000    2.66000009
   17.30194283  135.41999817    1.39999998    2.66000009
   17.30527687  129.77299500    1.39999998    2.66000009
   17.31110954  129.77299500    1.38000000    2.66000009
   17.31527710  123.20800018    1.38000000    2.66000009
   17.31861115  129.73899841    1.38000000    2.66000009
   17.32194519  138.19700623    1.38000000    2.66000009
   17.32500076  130.81500244    1.38000000    2.66000009
   17.32777786  131.44299316    1.38000000    2.64000010
   17.32888985  136.30599976    1.38000000    2.64000010
   17.33222389  134.00399780    1.38000000    2.66000009
   17.33555603  125.91500092    1.39999998    2.66000009
   17.33861160  135.23100281    1.41999996    2.66000009
   17.34194565  129.45199585    1.41999996    2.66000009
   17.34500122  141.12800598    1.44000006    2.66000009
   17.34833336  135.43099976    1.44000006    2.66000009
   17.35416794  135.43099976    1.44000006    2.66000009
   17.35833359  131.69500732    1.44000006    2.66000009
   17.36083412  135.74600220    1.41999996    2.66000009
   17.36194420  131.00100708    1.39999998    2.66000009
   17.36499977  122.73000336    1.39999998    2.66000009
   17.36833382  131.69599915    1.39999998    2.66000009
   17.37166595  125.18900299    1.39999998    2.66000009
   17.37472153  128.81500244    1.39999998    2.67000008
   17.37805557  127.05899811    1.41999996    2.66000009
   17.38111115  132.41499329    1.46000004    2.64000010
   17.38444519  136.23899841    1.46000004    2.66000009
   17.38777733  133.67799377    1.46000004    2.66000009
   17.39083290  124.52799988    1.50000000    2.66000009
   17.39694405  124.52799988    1.55999994    2.66000009
   17.40111160  122.76899719    1.60000002    2.66000009
   17.40416718  136.24600220    1.60000002    2.64000010
   17.40749931  121.78800201    1.58000004    2.66000009
   17.41083336  122.33000183    1.53999996    2.66000009
   17.41388893  130.44200134    1.53999996    2.66000009
   17.41722107  131.18099976    1.53999996    2.64000010
   17.42055511  120.23799896    1.58000004    2.64000010
   17.42361069  120.88600159    1.60000002    2.64000010
   17.42694473  128.28199768    1.58000004    2.64000010
   17.42777634  118.44799805    1.58000004    2.64000010
   17.43055534  116.79399872    1.60000002    2.64000010
   17.43361092  130.73100281    1.61000001    2.64000010
   17.43972206  130.73100281    1.63000000    2.64000010
   17.44388771  130.04200745    1.63000000    2.64000010
   17.44722176   98.95210266    1.80999994    2.64000010
   17.45027924  179.56300354    3.21000004    2.61999989
   17.45361137  145.40899658    4.90999985    2.46000004
   17.45666695  135.86099243    4.90999985    2.64000010
   17.46000099  130.33900452    4.90999985    2.67000008
   17.46111107  128.69099426    4.90999985    2.67000008
   17.46361160  176.47399902    4.90999985    2.66000009
   17.46666718  125.49900055    4.90999985    2.39000010
   17.47000122  136.46800232    4.90999985    2.57999992
   17.47333336  125.33499908    2.69000006    2.66000009
   17.47638893  130.88099670    2.09999990    2.66000009
   17.48250008  130.88099670    1.73000002    2.64000010
   17.48666763  141.27799988    1.64999998    2.64000010
   17.48999977  118.62200165    1.61000001    2.64000010
   17.49333382  131.16799927    1.61000001    2.64000010
   17.49472237  130.16499329    1.61000001    2.66000009
   17.49694443  143.52799988    1.61000001    2.66000009
   17.50000000  127.05300140    1.60000002    2.66000009
   17.50333405  134.44799805    1.60000002    2.66000009
   17.50666618  132.44799805    1.60000002    2.64000010
   17.50972176  137.13999939    1.58000004    2.66000009
   17.51305580  122.77300262    1.55999994    2.64000010
   17.51611137  143.27200317    1.55999994    2.64000010
   17.51944351  135.32299805    1.53999996    2.66000009
   17.52555466  135.32299805    1.50000000    2.66000009
   17.52944374  133.17900085    1.50000000    2.67000008
   17.53277779  127.05799866    1.50000000    2.67000008
   17.53610992  128.18200684    1.50000000    2.64000010
   17.53944397  135.02299500    1.48000002    2.66000009
   17.54249954  120.84400177    1.48000002    2.66000009
   17.54583359  118.17199707    1.46000004    2.66000009
   17.55805397  121.56700134    0.00000000    0.00000000
   17.56138802  129.68299866    1.46000004    2.66000009
   17.56166649  120.93199921    1.46000004    2.66000009
   17.56972313  120.93199921    1.48000002    2.66000009
   17.57389069  122.12599945    1.46000004    2.66000009
   17.57722282  122.36799622    1.46000004    2.66000009
   17.58055687  132.02499390    1.48000002    2.66000009
   17.58361244  126.94200134    1.48000002    2.66000009
   17.58694458  125.44599915    1.48000002    2.66000009
   17.59027863  121.56999969    1.48000002    2.66000009
   17.59333420  140.96099854    1.48000002    2.66000009
   17.59472275  133.22200012    1.48000002    2.66000009
   17.59722328  134.37199402    1.46000004    2.66000009
   17.60027885  142.07600403    1.46000004    2.66000009
   17.60361099  132.28399658    1.46000004    2.66000009
   17.61611176  116.88899994    0.00000000    0.00000000
   17.62027740  116.88899994    1.44000006    2.66000009
   17.62416649  124.13600159    1.44000006    2.66000009
   17.62750053  127.90899658    1.44000006    2.66000009
   17.63083267  121.08300018    1.44000006    2.66000009
   17.63166618  124.42199707    1.44000006    2.66000009
   17.63444519  115.47399902    1.39999998    2.66000009
   17.63750076  125.30000305    1.38000000    2.66000009
   17.64083290  114.87799835    1.38000000    2.66000009
   17.64555550  120.03299713    1.36000001    2.66000009
   17.64861107  123.86499786    1.36000001    2.66000009
   17.65194321  112.80699921    1.36000001    2.66000009
   17.65527725  117.54699707    1.34000003    2.66000009
   17.65861130  127.76100159    1.33000004    2.66000009
   17.66305542  127.76100159    1.33000004    2.66000009
   17.66722107  128.59599304    1.30999994    2.66000009
   17.67027664  123.02799988    1.30999994    2.64000010
   17.67361069  118.23500061    1.30999994    2.66000009
   17.67694473  118.28600311    1.30999994    2.66000009
   17.68000031  121.70500183    1.30999994    2.66000009
   17.68333244  118.38099670    1.28999996    2.66000009
   17.68638802  117.51100159    1.28999996    2.66000009
   17.68972206  120.18299866    1.28999996    2.66000009
   17.69305420  111.26699829    1.28999996    2.66000009
   17.69610977  119.36900330    1.28999996    2.66000009
   17.69833183  121.85900116    1.28999996    2.66000009
   17.70000076  121.96499634    1.26999998    2.66000009
   17.70583344  121.96499634    1.26999998    2.66000009
   17.71000099  122.84300232    1.26999998    2.67000008
   17.71305656  121.88400269    1.26999998    2.67000008
   17.71638870  125.61399841    1.26999998    2.67000008
   17.71972275  121.17700195    1.26999998    2.66000009
   17.73139000  121.04399872    0.00000000    0.00000000
   17.73194504  128.26899719    1.28999996    2.66000009
   17.73500061  123.26000214    1.30999994    2.66000009
   17.73805618  133.82899475    1.28999996    2.66000009
   17.74138832  137.19099426    1.28999996    2.66000009
   17.74527740  140.11799622    1.28999996    2.66000009
   17.74944496  140.11799622    1.30999994    2.66000009
   17.75361061  130.41900635    1.33000004    2.66000009
   17.75694466  136.93899536    1.33000004    2.66000009
   17.76000023  122.22799683    1.33000004    2.66000009
   17.76333427  120.81700134    1.33000004    2.66000009
   17.76805496  122.05799866    1.34000003    2.66000009
   17.76972198  129.93299866    1.34000003    2.66000009
   17.77305603  128.88900757    1.36000001    2.66000009
   17.77611160  121.14900208    1.36000001    2.66000009
   17.77944374  124.89600372    1.38000000    2.67000008
   17.78249931  132.24699402    1.39999998    2.66000009
   17.78583336  133.94999695    1.41999996    2.66000009
   17.80138779  133.94999695    1.44000006    2.64000010
   17.80555534  127.03600311    1.46000004    2.64000010
   17.80888748  125.80400085    1.48000002    2.64000010
   17.81222153  127.86699677    1.48000002    2.66000009
   17.81555557  130.07800293    1.48000002    2.66000009
   17.81861115  122.90899658    1.50000000    2.66000009
   17.82194519  118.44100189    1.48000002    2.66000009
   17.82638931  126.23100281    1.50000000    2.64000010
   17.82944489  127.58999634    1.50000000    2.66000009
   17.83583450  127.58999634    1.50000000    2.64000010
   17.84000015  126.82599640    1.51999998    2.64000010
   17.84305573  118.05500031    1.51999998    2.64000010
   17.84638977  120.64299774    1.51999998    2.64000010
   17.85805511  123.78900146    0.00000000    0.00000000
   17.86138916  124.76699829    1.51999998    2.66000009
   17.86444473  122.17099762    1.51999998    2.66000009
   17.86777878  119.13800049    1.50000000    2.66000009
   17.87111092  116.17199707    1.50000000    2.64000010
   17.87388992  117.93000031    1.50000000    2.64000010
   17.87500000  129.96800232    1.50000000    2.64000010
   17.87805557  116.74500275    1.50000000    2.64000010
   17.88138962  129.36099243    1.50000000    2.64000010
   17.88555527  129.36099243    1.50000000    2.64000010
   17.88972282  128.01199341    1.50000000    2.64000010
   17.89305496  134.94200134    1.50000000    2.64000010
   17.89638901  115.45600128    1.50000000    2.64000010
   17.89944458  120.33599854    1.50000000    2.64000010
   17.90277672  126.91100311    1.50000000    2.64000010
   17.90583229  127.06700134    1.50000000    2.64000010
   17.90694427  117.41300201    1.50000000    2.64000010
   17.90944481  132.83900452    1.48000002    2.66000009
   17.91277695  123.90699768    1.48000002    2.64000010
   17.91583252  114.03600311    1.44000006    2.66000009
   17.91916656  120.26399994    1.41999996    2.64000010
   17.92249870  116.47000122    1.41999996    2.64000010
   17.92860985  116.47000122    1.48000002    2.64000010
   17.94027710  139.33000183    0.00000000    0.00000000
   17.94083214  117.55799866    1.51999998    2.64000010
   17.94388771  121.14900208    1.51999998    2.64000010
   17.94722176  126.03800201    1.50000000    2.64000010
   17.95027924  121.01200104    1.51999998    2.64000010
   17.95361137  126.42099762    1.53999996    2.64000010
   17.95666695  115.99099731    1.53999996    2.64000010
   17.96000099  125.77100372    1.55999994    2.64000010
   17.96333504  129.91499329    1.55999994    2.64000010
   17.96638870  117.12699890    1.53999996    2.64000010
   17.97138977  117.12699890    1.53999996    2.64000010
   17.97555542  121.33100128    1.53999996    2.64000010
   17.97861099   88.86260223    1.53999996    2.64000010
   17.98194504  125.64299774    1.53999996    2.66000009
   17.98527718  131.30200195    1.51999998    2.64000010
   17.98833275  123.80400085    1.51999998    2.64000010
   17.99166679  123.37400055    1.50000000    2.64000010
   17.99500084  132.26100159    1.50000000    2.66000009
   17.99805641  130.61099243    1.50000000    2.64000010
   18.00138855  117.81400299    1.48000002    2.64000010
   18.00444412  127.49600220    1.48000002    2.64000010
   18.00749969  126.33100128    1.48000002    2.66000009
   18.00833321  125.43000031    1.48000002    2.64000010
   18.01416588  125.43000031    1.48000002    2.64000010
   18.01833344  128.30900574    1.48000002    2.64000010
   18.02166557  125.70999908    1.48000002    2.64000010
   18.02472115  125.70700073    1.48000002    2.64000010
   18.02805519  127.43699646    1.48000002    2.66000009
   18.03138924  134.27999878    1.46000004    2.66000009
   18.03444481  132.30799866    1.44000006    2.64000010
   18.03777695  124.37699890    1.44000006    2.64000010
   18.04083252  119.40899658    1.44000006    2.64000010
   18.04166603  124.38999939    1.44000006    2.64000010
   18.04472160  127.97499847    1.46000004    2.64000010
   18.04805565  124.35600281    1.46000004    2.64000010
   18.05111122  132.98100281    1.46000004    2.64000010
   18.05694389  132.98100281    1.46000004    2.66000009
   18.06110954  123.45899963    1.46000004    2.64000010
   18.06444359  129.18600464    1.48000002    2.64000010
   18.06777954  132.24099731    1.48000002    2.66000009
   18.07083511  130.87600708    1.48000002    2.64000010
   18.07416725  116.28700256    1.48000002    2.66000009
   18.07472229  124.84899902    1.48000002    2.64000010
   18.07777786  129.59100342    1.48000002    2.64000010
   18.08111191  118.81700134    1.48000002    2.66000009
   18.08416748  120.55999756    1.50000000    2.64000010
   18.08750153  123.52999878    1.50000000    2.64000010
   18.09083366  124.43699646    1.50000000    2.64000010
   18.09388924  131.77400208    1.48000002    2.64000010
   18.11527824  131.77400208    1.46000004    2.66000009
   18.11944389  116.22000122    1.46000004    2.64000010
   18.12277794  129.71800232    1.46000004    2.64000010
   18.12583351  116.81199646    1.44000006    2.64000010
   18.12916756  125.72299957    1.41999996    2.64000010
   18.13249969  127.26999664    1.41999996    2.64000010
   18.13555527  124.13700104    1.39999998    2.64000010
   18.13888931  118.52999878    1.36000001    2.66000009
   18.14194489  122.06400299    1.36000001    2.64000010
   18.14527702  120.66600037    1.36000001    2.64000010
   18.14611053  124.84100342    1.36000001    2.64000010
   18.14888954  126.76200104    1.36000001    2.64000010
   18.15194321  127.58200073    1.41999996    2.64000010
   18.15805435  127.58200073    1.44000006    2.64000010
   18.16222191  127.94300079    1.46000004    2.64000010
   18.16555595  122.55000305    1.48000002    2.64000010
   18.16860962  129.63499451    1.50000000    2.64000010
   18.17194366  125.07599640    1.50000000    2.64000010
   18.17499924  123.98300171    1.50000000    2.64000010
   18.17833328  120.02100372    1.50000000    2.64000010
   18.17944336  116.51000214    1.51999998    2.64000010
   18.18194389  119.30799866    1.51999998    2.64000010
   18.18499947  124.69699860    1.53999996    2.64000010
   18.18833160  117.68699646    1.51999998    2.64000010
   18.19166565  125.85399628    1.51999998    2.64000010
   18.19472122  115.59999847    1.53999996    2.61999989
   18.20083427  115.59999847    1.55999994    2.64000010
   18.20499992  116.03500366    1.60000002    2.64000010
   18.20833397  123.31600189    1.60000002    2.61999989
   18.21138954  120.71600342    1.64999998    2.64000010
   18.21305656  115.12300110    1.64999998    2.61999989
   18.21527863  124.38500214    1.64999998    2.61999989
   18.21833420  120.13200378    1.64999998    2.61999989
   18.22166634  126.73600006    1.64999998    2.64000010
   18.22472191  132.33900452    1.66999996    2.61999989
   18.22805595  124.72000122    1.64999998    2.61999989
   18.23139000  129.75599670    1.64999998    2.61999989
   18.23444557  121.26100159    1.64999998    2.61999989
   18.23777771  129.89300537    1.63000000    2.61999989
   18.24388885  129.89300537    1.61000001    2.64000010
   18.24777794  126.06500244    1.60000002    2.61999989
   18.25111198  126.12000275    1.58000004    2.61999989
   18.25444412  123.32800293    1.55999994    2.64000010
   18.25749969  125.28500366    1.53999996    2.64000010
   18.26083374  131.41799927    1.53999996    2.64000010
   18.26416588  129.16799927    1.51999998    2.64000010
   18.26722145  125.30799866    1.51999998    2.64000010
   18.27055550  121.26200104    1.51999998    2.64000010
   18.27361107  126.41999817    1.51999998    2.64000010
   18.27694511  121.37899780    1.51999998    2.64000010
   18.27972221  124.36399841    1.51999998    2.64000010
   18.28055573  127.45700073    1.51999998    2.64000010
   18.28666687  127.45700073    1.48000002    2.64000010
   18.29083252  123.90299988    1.50000000    2.64000010
   18.29388809  123.26000214    1.50000000    2.66000009
   18.29722214  128.94299316    1.50000000    2.61999989
   18.30055428  128.13999939    1.50000000    2.61999989
   18.30388832  118.76399994    1.46000004    2.64000010
   18.30694389  124.34400177    1.46000004    2.64000010
   18.31027794  125.20400238    1.46000004    2.64000010
   18.31305504  125.80100250    1.44000006    2.64000010
   18.31416512  124.40100098    1.44000006    2.64000010
   18.31722260  115.20300293    1.41999996    2.64000010
   18.32055664  123.32800293    1.41999996    2.64000010
   18.32361221  132.08599854    1.39999998    2.64000010
   18.32944489  132.08599854    1.39999998    2.64000010
   18.33361244  121.90299988    1.41999996    2.64000010
   18.33694458  123.51300049    1.41999996    2.64000010
   18.34000015  123.14199829    1.44000006    2.64000010
   18.34333420  120.10099792    1.44000006    2.64000010
   18.34638977  120.24700165    1.48000002    2.64000010
   18.34722328  121.48300171    1.48000002    2.64000010
   18.35027885  128.02099609    1.53999996    2.61999989
   18.35361099  120.76300049    1.55999994    2.64000010
   18.35666656  122.80699921    1.55999994    2.64000010
   18.36000061  123.25199890    1.58000004    2.61999989
   18.36333466  120.60600281    1.58000004    2.61999989
   18.36666679  127.23100281    1.55999994    2.61999989
   18.37222290  127.23100281    1.51999998    2.64000010
   18.37638855  117.59200287    1.51999998    2.64000010
   18.37972260  121.31800079    1.51999998    2.64000010
   18.38027763  121.58699799    1.50000000    2.64000010
   18.38333321  123.05999756    1.51999998    2.61999989
   18.38666725  131.20100403    1.51999998    2.61999989
   18.38972282  134.41299438    1.51999998    2.61999989
   18.39305496  126.77200317    1.51999998    2.61999989
   18.39638901  123.38500214    1.51999998    2.61999989
   18.39944458  117.34500122    1.51999998    2.64000010
   18.40277672  132.41499329    1.50000000    2.64000010
   18.40611076  121.87500000    1.48000002    2.61999989
   18.40916634  134.40899658    1.48000002    2.61999989
   18.41499901  134.40899658    1.46000004    2.64000010
   18.41916656  128.36700439    1.46000004    2.64000010
   18.42249870  133.12899780    1.44000006    2.64000010
   18.42583275  132.16799927    1.44000006    2.61999989
   18.42888832  128.74600220    1.41999996    2.61999989
   18.43222237  125.87699890    1.39999998    2.64000010
   18.43555450  133.43299866    1.38000000    2.64000010
   18.43861008  131.37600708    1.38000000    2.64000010
   18.44194412  129.49200439    1.38000000    2.64000010
   18.44499969  127.73400116    1.36000001    2.64000010
   18.44638824  127.21499634    1.34000003    2.64000010
   18.44888878  129.72500610    1.34000003    2.64000010
   18.45194435  128.20500183    1.33000004    2.64000010
   18.45805550  128.20500183    1.28999996    2.64000010
   18.46222305  136.39900208    1.28999996    2.64000010
   18.46527863  122.83300018    1.30999994    2.64000010
   18.46861076  123.50299835    1.28999996    2.64000010
   18.47194481  131.86700439    1.28999996    2.64000010
   18.47500038  127.61199951    1.28999996    2.64000010
   18.47833443  127.25199890    1.28999996    2.64000010
   18.47972298  122.82700348    1.28999996    2.64000010
   18.48194504  134.57099915    1.28999996    2.64000010
   18.48500061  131.35099792    1.28999996    2.64000010
   18.48833275  130.38900757    1.26999998    2.64000010
   18.49166679  127.87599945    1.26999998    2.64000010
   18.49472237  127.60600281    1.25000000    2.64000010
   18.50083351  127.60600281    1.25000000    2.64000010
   18.50499916  124.63700104    1.25000000    2.64000010
   18.50833321  123.32399750    1.25000000    2.64000010
   18.51138878  122.51100159    1.21000004    2.66000009
   18.51333427  118.85199738    1.21000004    2.66000009
   18.51499939  129.77900696    1.21000004    2.66000009
   18.51833344  122.74199677    1.21000004    2.66000009
   18.52166557  128.14999390    1.19000006    2.64000010
   18.52472115  134.62100220    1.16999996    2.64000010
   18.52805519  119.40000153    1.16999996    2.64000010
   18.53111076  121.83399963    1.14999998    2.64000010
   18.53444481  117.39600372    1.16999996    2.64000010
   18.53777695  138.78199768    1.16999996    2.66000009
   18.54361153  138.78199768    1.19000006    2.64000010
   18.54777718  122.34400177    1.25000000    2.64000010
   18.55111122  117.22000122    1.26999998    2.64000010
   18.55416679  128.67700195    1.28999996    2.64000010
   18.55749893  117.71600342    1.30999994    2.64000010
   18.56083298  126.13099670    1.30999994    2.64000010
   18.56388855  124.14800262    1.33000004    2.61999989
   18.56722260  126.60700226    1.33000004    2.64000010
   18.57055664  124.78900146    1.33000004    2.64000010
   18.57361221  128.25700378    1.34000003    2.64000010
   18.57694626  129.48199463    1.34000003    2.61999989
   18.58000183  134.17300415    1.34000003    2.61999989
   18.58055687  137.78300476    1.34000003    2.61999989
   18.58666801  137.78300476    1.36000001    2.61999989
   18.59083366  138.67100525    1.36000001    2.61999989
   18.59416771  131.18400574    1.36000001    2.61999989
   18.59722328  129.03799438    1.36000001    2.61999989
   18.60055542  132.24499512    1.38000000    2.61999989
   18.60361099  123.70700073    1.38000000    2.61999989
   18.60694504  124.43499756    1.38000000    2.61999989
   18.61027908  125.40799713    1.36000001    2.64000010
   18.61333466  124.87200165    1.36000001    2.64000010
   18.61361122  123.47599792    1.36000001    2.64000010
   18.61694527  122.66899872    1.36000001    2.64000010
   18.62027740  113.91699982    1.36000001    2.64000010
   18.62333298  121.58000183    1.36000001    2.61999989
   18.62944412  121.58000183    1.34000003    2.64000010
   18.63361168  116.84300232    1.33000004    2.64000010
   18.63666725  121.18099976    1.30999994    2.64000010
   18.63999939  114.99900055    1.30999994    2.61999989
   18.64305496  117.57599640    1.30999994    2.64000010
   18.64638901  119.02899933    1.30999994    2.61999989
   18.64694405  123.83399963    1.30999994    2.61999989
   18.65027809  117.51300049    1.30999994    2.61999989
   18.65333366  124.17600250    1.30999994    2.61999989
   18.65666580  113.66100311    1.30999994    2.64000010
   18.65999985  119.10600281    1.28999996    2.61999989
   18.66305542  125.88400269    1.28999996    2.64000010
   18.66638756  119.15399933    1.26999998    2.61999989
   18.67222214  119.15399933    1.25000000    2.64000010
   18.67638779  119.51699829    1.23000002    2.64000010
   18.67944336  117.10500336    1.23000002    2.64000010
   18.68027687  123.76100159    1.23000002    2.64000010
   18.68333244  123.45800018    1.23000002    2.64000010
   18.68638802  130.43299866    1.21000004    2.64000010
   18.68972206  118.65599823    1.21000004    2.64000010
   18.69277763  125.41200256    1.23000002    2.64000010
   18.69610977  119.26100159    1.25000000    2.61999989
   18.69944382  118.23200226    1.26999998    2.61999989
   18.70250130  125.83000183    1.30999994    2.61999989
   18.70583344  128.69400024    1.28999996    2.64000010
   18.70916748  116.14800262    1.30999994    2.64000010
   18.71500015  116.14800262    1.28999996    2.64000010
   18.71916771  126.66300201    1.28999996    2.61999989
   18.72249985  119.20500183    1.28999996    2.61999989
   18.72555542  121.30200195    1.26999998    2.64000010
   18.72888947  118.02200317    1.26999998    2.64000010
   18.73194504  120.61000061    1.25000000    2.64000010
   18.73527718  119.17099762    1.25000000    2.61999989
   18.73861122  120.87599945    1.23000002    2.64000010
   18.74166679  117.49900055    1.23000002    2.64000010
   18.74500084  123.64399719    1.21000004    2.61999989
   18.74694443  124.16999817    1.21000004    2.61999989
   18.74888992  120.83799744    1.23000002    2.64000010
   18.75194359  116.08799744    1.21000004    2.64000010
   18.75777817  116.08799744    1.23000002    2.64000010
   18.76194382  119.67199707    1.28999996    2.61999989
   18.76527786  121.37699890    1.28999996    2.61999989
   18.76861000  123.12799835    1.30999994    2.61999989
   18.77166557  124.90200043    1.34000003    2.59999990
   18.77499962  122.10399628    1.38000000    2.61999989
   18.77805519  126.11900330    1.38000000    2.61999989
   18.78027725  119.93099976    1.38000000    2.61999989
   18.78194427  119.30799866    1.39999998    2.59999990
   18.78499985  124.69899750    1.38000000    2.59999990
   18.78833199  115.25299835    1.38000000    2.61999989
   18.79166603  108.49600220    1.39999998    2.61999989
   18.79472160  110.16699982    1.39999998    2.61999989
   18.80083275  110.16699982    1.39999998    2.61999989
   18.80499840  114.68800354    1.41999996    2.61999989
   18.80805397  118.65000153    1.39999998    2.61999989
   18.81138802  123.59100342    1.39999998    2.61999989
   18.81361008  110.21299744    1.39999998    2.61999989
   18.81499863  117.39199829    1.39999998    2.61999989
   18.81805611  126.13999939    1.38000000    2.61999989
   18.82139015  118.53099823    1.38000000    2.61999989
   18.82472229  119.43299866    1.38000000    2.61999989
   18.82777786  121.14499664    1.38000000    2.61999989
   18.83111191  120.17600250    1.38000000    2.61999989
   18.83416748  119.25299835    1.38000000    2.61999989
   18.83750153  128.72799683    1.38000000    2.61999989
   18.84361267  128.72799683    1.36000001    2.61999989
   18.84777832  124.89399719    1.38000000    2.61999989
   18.85083389  124.61399841    1.36000001    2.61999989
   18.85416794  119.99900055    1.36000001    2.61999989
   18.85750008  120.81999969    1.36000001    2.61999989
   18.86055565  110.46399689    1.36000001    2.61999989
   18.86388969  119.90799713    1.33000004    2.61999989
   18.86722183  126.43299866    1.33000004    2.61999989
   18.87027740  112.52999878    1.33000004    2.61999989
   18.87361145  108.96600342    1.33000004    2.61999989
   18.87666702  125.67800140    1.30999994    2.59999990
   18.88000107  115.70300293    1.30999994    2.61999989
   18.88055611  121.94400024    1.30999994    2.61999989
   18.88638878  121.94400024    1.28999996    2.61999989
   18.89055634  122.06900024    1.26999998    2.61999989
   18.89388847  114.04499817    1.28999996    2.61999989
   18.89694405  123.32299805    1.25000000    2.61999989
   18.90027809  126.54499817    1.23000002    2.61999989
   18.90333366  126.90100098    1.21000004    2.64000010
   18.90666580  116.75199890    1.21000004    2.64000010
   18.90999985  117.56199646    1.21000004    2.64000010
   18.91305542  125.16799927    1.21000004    2.64000010
   18.91388893  123.50299835    1.21000004    2.64000010
   18.91694450  127.27200317    1.19000006    2.64000010
   18.92000008  116.15100098    1.19000006    2.61999989
   18.92333221  115.94699860    1.16999996    2.61999989
   18.92916679  115.94699860    1.19000006    2.61999989
   18.93333244  123.66000366    1.19000006    2.61999989
   18.93666649  117.13800049    1.19000006    2.64000010
   18.93972206  122.25299835    1.19000006    2.64000010
   18.94305420  127.36100006    1.19000006    2.61999989
   18.94638824  120.81600189    1.21000004    2.61999989
   18.94722176  123.59200287    1.21000004    2.61999989
   18.95000076  114.16000366    1.21000004    2.61999989
   18.95305634  122.25099945    1.21000004    2.61999989
   18.95639038  105.73300171    1.21000004    2.61999989
   18.95944595  107.45999908    1.19000006    2.64000010
   18.96277809  106.46299744    1.19000006    2.61999989
   18.96611214  118.19200134    1.16999996    2.61999989
   18.97222328  118.19200134    1.19000006    2.61999989
   18.97611237  119.67099762    1.19000006    2.61999989
   18.97944450  113.52200317    1.19000006    2.61999989
   18.98055649  114.39700317    1.19000006    2.61999989
   18.98333359  124.56400299    1.21000004    2.61999989
   18.98638916  112.91600037    1.21000004    2.61999989
   18.98972321  114.67800140    1.21000004    2.61999989
   18.99277878  110.84400177    1.21000004    2.61999989
   18.99749947  116.01100159    1.21000004    2.61999989
   19.00083351  118.65599823    1.21000004    2.61999989
   19.00388908  113.36799622    1.21000004    2.61999989
   19.00722313  120.46900177    1.21000004    2.61999989
   19.01027870  114.31400299    1.19000006    2.61999989
   19.01499939  114.31400299    1.21000004    2.61999989
   19.01916695  116.21800232    1.21000004    2.61999989
   19.02222252  120.05699921    1.21000004    2.61999989
   19.02555466  126.79199982    1.21000004    2.61999989
   19.02888870  114.49700165    1.25000000    2.61999989
   19.03194427  113.35800171    1.50000000    2.61999989
   19.03527641  125.29799652    1.36000001    2.61999989
   19.03861046  128.64999390    1.34000003    2.61999989
   19.04166603  119.81500244    1.41999996    2.61999989
   19.04500008  126.18099976    1.41999996    2.61999989
   19.04722214  127.37599945    1.46000004    2.59999990
   19.04861069  121.36799622    1.30999994    2.59999990
   19.05166626  121.38800049    1.38000000    2.59999990
   19.05777740  121.38800049    1.39999998    2.59999990
   19.06194305  127.18599701    1.23000002    2.61999989
   19.06527710  120.15599823    1.23000002    2.59999990
   19.06833458  122.98500061    1.21000004    2.61999989
   19.07166672  124.30400085    1.21000004    2.59999990
   19.07500076  123.59200287    1.19000006    2.61999989
   19.07805634  124.68399811    1.16999996    2.61999989
   19.08055687  123.56600189    1.16999996    2.61999989
   19.08194542  121.66899872    1.14999998    2.61999989
   19.08500099  119.34600067    1.13000000    2.61999989
   19.08833313  120.93800354    1.13000000    2.61999989
   19.09138870  128.99800110    1.11000001    2.61999989
   19.09472275  121.77500153    1.11000001    2.61999989
   19.10055542  121.77500153    1.09000003    2.61999989
   19.10472298  123.53500366    1.05999994    2.61999989
   19.10805511  122.65699768    1.05999994    2.61999989
   19.11138916  115.87500000    1.05999994    2.61999989
   19.12888908  118.00900269    1.07000005    2.61999989
   19.13111115  125.60500336    1.07000005    2.61999989
   19.13444519  123.67099762    1.11000001    2.61999989
   19.13777733  130.59899902    1.11000001    2.59999990
   19.14361191  130.59899902    1.13000000    2.61999989
   19.14777756  124.75800323    1.13000000    2.61999989
   19.15111160  125.45500183    1.13000000    2.61999989
   19.15416718  117.45899963    1.14999998    2.61999989
   19.15749931  119.85299683    1.13000000    2.61999989
   19.16083336  122.51200104    1.13000000    2.61999989
   19.16222191  119.55899811    1.13000000    2.61999989
   19.16444397  119.47000122    1.13000000    2.61999989
   19.16777802  123.15899658    1.13000000    2.61999989
   19.17083359  119.93399811    1.13000000    2.61999989
   19.17416573  117.55899811    1.14999998    2.59999990
   19.17805481  122.97499847    1.14999998    2.59999990
   19.18194389  122.96499634    1.13000000    2.61999989
   19.18638802  122.96499634    1.13000000    2.59999990
   19.19055557  119.50199890    1.14999998    2.61999989
   19.19388771  128.39700317    1.14999998    2.61999989
   19.19555473  122.39099884    1.13000000    2.61999989
   19.19749832  123.63700104    1.13000000    2.61999989
   19.20083427  115.32299805    1.13000000    2.59999990
   19.20416832  122.00700378    1.13000000    2.59999990
   19.20722389  121.50000000    1.13000000    2.59999990
   19.21055603  118.37300110    1.13000000    2.59999990
   19.21361160  117.19899750    1.13000000    2.59999990
   19.21694565  117.05400085    1.13000000    2.59999990
   19.22027779  121.73699951    1.13000000    2.59999990
   19.22333336  127.01599884    1.13000000    2.61999989
   19.22944450  127.01599884    1.11000001    2.59999990
   19.23361206  117.84700012    1.11000001    2.61999989
   19.23666763  120.78800201    1.09000003    2.59999990
   19.23999977  119.66999817    1.09000003    2.59999990
   19.24333382  113.48000336    1.07000005    2.59999990
   19.24638939  121.06400299    1.07000005    2.59999990
   19.24972153  119.65499878    1.07000005    2.59999990
   19.25277710  113.67900085    1.05999994    2.59999990
   19.25611115  114.21700287    1.05999994    2.59999990
   19.25944519  122.92099762    1.05999994    2.61999989
   19.26222229  122.00700378    1.05999994    2.59999990
   19.26305580  114.32299805    1.05999994    2.59999990
   19.26638794  120.74099731    1.05999994    2.59999990
   19.27222252  120.74099731    1.07000005    2.59999990
   19.27638817  123.04199982    1.09000003    2.59999990
   19.27944374  118.22399902    1.11000001    2.59999990
   19.28277779  124.65599823    1.19000006    2.59999990
   19.28610992  118.42700195    1.19000006    2.59999990
   19.28916550  117.51699829    1.19000006    2.59999990
   19.29249954  116.53099823    1.21000004    2.59999990
   19.29555511  127.01999664    1.21000004    2.59999990
   19.29611015  120.05500031    1.21000004    2.59999990
   19.29944420  119.98200226    1.19000006    2.59999990
   19.30249977  123.88999939    1.16999996    2.59999990
   19.30583191  118.27100372    1.16999996    2.59999990
   19.30916595  123.91300201    1.16999996    2.59999990
   19.31499863  123.91300201    1.14999998    2.59999990
   19.31916809  116.14099884    1.13000000    2.59999990
   19.32250023  109.99400330    1.14999998    2.59999990
   19.32555580  111.80200195    1.13000000    2.59999990
   19.32888985  121.92600250    1.11000001    2.59999990
   19.32916832  118.65899658    1.11000001    2.59999990
   19.33250046  114.00000000    1.09000003    2.59999990
   19.33555603  108.69999695    1.09000003    2.61999989
   19.33889008  114.94899750    1.09000003    2.61999989
   19.34222221  124.86699677    1.07000005    2.59999990
   19.34527779  119.53199768    1.05999994    2.59999990
   19.34861183  118.66600037    1.03999996    2.59999990
   19.35194397  112.46199799    1.03999996    2.61999989
   19.35777855  112.46199799    1.03999996    2.59999990
   19.36222267  111.59899902    1.03999996    2.59999990
   19.36250114  118.01300049    1.03999996    2.59999990
   19.36583328  119.65100098    1.05999994    2.59999990
   19.36888885  115.02999878    1.05999994    2.59999990
   19.37222290  118.82700348    1.07000005    2.59999990
   19.37555504  116.48100281    1.07000005    2.59999990
   19.37861061  116.18299866    1.09000003    2.59999990
   19.38194466  118.76999664    1.09000003    2.59999990
   19.38527679  124.11000061    1.09000003    2.59999990
   19.38833237  116.15599823    1.09000003    2.59999990
   19.39166641  122.01799774    1.09000003    2.59999990
   19.39500046  114.91500092    1.09000003    2.59999990
   19.39555550  115.53399658    1.09000003    2.59999990
   19.40083313  115.53399658    1.09000003    2.59999990
   19.40499878  128.11199951    1.11000001    2.59999990
   19.40805435  126.19200134    1.11000001    2.59999990
   19.41138840  115.79199982    1.11000001    2.59999990
   19.41444397  116.20200348    1.11000001    2.59999990
   19.41777802  119.20700073    1.09000003    2.57999992
   19.42111015  111.86599731    1.09000003    2.59999990
   19.42416573  122.32800293    1.09000003    2.59999990
   19.42749977  116.56700134    1.09000003    2.57999992
   19.42888832  119.24600220    1.09000003    2.57999992
   19.43111038  117.37899780    1.09000003    2.57999992
   19.43444443  121.25599670    1.09000003    2.59999990
   19.43833160  123.42500305    1.09000003    2.57999992
   19.44361115  123.42500305    1.09000003    2.59999990
   19.44777679  120.40799713    1.09000003    2.57999992
   19.45111275  118.01899719    1.09000003    2.59999990
   19.45416832  114.69100189    1.09000003    2.57999992
   19.45750046  116.34200287    1.09000003    2.57999992
   19.46083450  116.34600067    1.07000005    2.57999992
   19.46222305  117.92900085    1.07000005    2.57999992
   19.46416664  121.37500000    1.09000003    2.57999992
   19.46750069  113.91400146    1.07000005    2.59999990
   19.47083473  112.61599731    1.07000005    2.59999990
   19.47389030  118.96399689    1.09000003    2.59999990
   19.47722244  125.40200043    1.07000005    2.59999990
   19.48027802  118.42199707    1.07000005    2.59999990
   19.48638916  118.42199707    1.09000003    2.57999992
   19.49055672  117.26100159    1.09000003    2.57999992
   19.49388885  121.32599640    1.07000005    2.59999990
   19.49555588  123.51999664    1.07000005    2.57999992
   19.49749947  122.54699707    1.07000005    2.57999992
   19.50083351  125.48000336    1.09000003    2.57999992
   19.50416756  125.85800171    1.09000003    2.59999990
   19.50722313  118.59899902    1.09000003    2.57999992
   19.51055527  120.00199890    1.11000001    2.57999992
   19.51361084  119.37400055    1.11000001    2.59999990
   19.51694489  112.45899963    1.09000003    2.57999992
   19.52027702  127.64199829    1.11000001    2.57999992
   19.52333260  119.92400360    1.11000001    2.57999992
   19.52944374  119.92400360    1.13000000    2.57999992
   19.53333282  118.91699982    1.14999998    2.57999992
   19.53666687  114.71700287    1.16999996    2.57999992
   19.53999901  122.72499847    1.16999996    2.57999992
   19.54305458  109.68699646    1.19000006    2.57999992
   19.54638863  115.83100128    1.21000004    2.57999992
   19.54972076  119.06099701    1.25000000    2.55999994
   19.55277634  109.53800201    1.26999998    2.55999994
   19.55611038  121.00099945    1.26999998    2.55999994
   19.55916595  116.29499817    1.30999994    2.55999994
   19.56222153  116.37500000    1.30999994    2.55999994
   19.56277657  116.32199860    1.30999994    2.55999994
   19.56611061  125.44799805    1.33000004    2.55999994
   19.57222366  125.44799805    1.34000003    2.55999994
   19.57638931  122.05300140    1.34000003    2.55999994
   19.57944489  128.62800598    1.36000001    2.55999994
   19.58277893  127.17199707    1.36000001    2.55999994
   19.58611107  118.87599945    1.36000001    2.55999994
   19.58916664  122.20200348    1.36000001    2.55999994
   19.59250069  121.71499634    1.39999998    2.55999994
   19.59555626  119.42199707    1.38000000    2.55999994
   19.59611130  109.27500153    1.38000000    2.55999994
   19.59944534  122.46199799    1.38000000    2.55999994
   19.60277748  119.18199921    1.39999998    2.55999994
   19.60583305  115.14900208    1.39999998    2.55999994
   19.60916710  119.95800018    1.38000000    2.55999994
   19.61499977  119.95800018    1.39999998    2.55999994
   19.61916733  112.35399628    1.38000000    2.55999994
   19.62249947  117.94799805    1.38000000    2.53999996
   19.62555504  111.89299774    1.39999998    2.55999994
   19.62888908  117.89099884    1.39999998    2.55999994
   19.62916756  121.67700195    1.39999998    2.55999994
   19.63249969  108.20700073    1.41999996    2.55999994
   19.63583374  107.16799927    1.48000002    2.55999994
   19.63888931  119.22399902    1.46000004    2.53999996
   19.64222145  126.20700073    1.46000004    2.53999996
   19.64527702  116.15299988    1.48000002    2.53999996
   19.64861107  130.15899658    1.46000004    2.55999994
   19.65194321  129.57200623    1.48000002    2.53999996
   19.65777779  129.57200623    1.50000000    2.53999996
   19.66194344  127.63700104    1.50000000    2.53999996
   19.66250038  112.12699890    1.50000000    2.53999996
   19.66583252  129.84899902    1.50000000    2.53999996
   19.66888809  133.43099976    1.51999998    2.53999996
   19.67222214  122.24099731    1.55999994    2.53999996
   19.67555428  120.15299988    1.58000004    2.53999996
   19.67860985  112.92600250    1.60000002    2.53999996
   19.68194389  122.79599762    1.60000002    2.51999998
   19.68499947  116.97599792    1.60000002    2.51999998
   19.68833160  111.84899902    1.60000002    2.53999996
   19.69166565  127.15599823    1.61000001    2.51999998
   19.69472122  120.41400146    1.61000001    2.51999998
   19.69583321  129.40899658    1.61000001    2.51999998
   19.70083427  129.40899658    1.61000001    2.51999998
   19.70472336  124.64399719    1.60000002    2.51999998
   19.70805550  122.19300079    1.60000002    2.51999998
   19.71138954  123.53900146    1.58000004    2.53999996
   19.71444511  115.87899780    1.58000004    2.53999996
   19.71777916  120.80200195    1.58000004    2.53999996
   19.72111130  118.43499756    1.58000004    2.53999996
   19.72416687  124.29599762    1.58000004    2.53999996
   19.72750092  114.50299835    1.58000004    2.51999998
   19.72916794  115.26799774    1.58000004    2.51999998
   19.73139000  129.89799500    1.58000004    2.51999998
   19.73444557  129.54100037    1.58000004    2.51999998
   19.73777771  112.73300171    1.58000004    2.51999998
   19.74361229  112.73300171    1.55999994    2.51999998
   19.74777794  125.02500153    1.55999994    2.51999998
   19.75083351  130.23100281    1.55999994    2.51999998
   19.75416756  127.27200317    1.53999996    2.53999996
   19.75722313  131.95100403    1.48000002    2.51999998
   19.76055527  123.47499847    1.48000002    2.51999998
   19.76250076  139.10299683    1.48000002    2.51999998
   19.76444435  127.27999878    1.48000002    2.51999998
   19.76749992  118.56600189    1.48000002    2.51999998
   19.77083397  119.11699677    1.46000004    2.51999998
   19.77416611  125.24199677    1.44000006    2.51999998
   19.77722168  127.61900330    1.46000004    2.51999998
   19.78055573  122.24500275    1.46000004    2.51999998
   19.78638840  122.24500275    1.44000006    2.51999998
   19.79055595  127.37100220    1.44000006    2.51999998
   19.79361153  122.95099640    1.44000006    2.51999998
   19.79583359  123.39199829    1.41999996    2.51999998
   19.79749870  124.77300262    1.41999996    2.51999998
   19.80055428  129.10299683    1.44000006    2.51999998
   19.80388832  119.63899994    1.41999996    2.51999998
   19.80722237  123.15200043    1.41999996    2.51999998
   19.81027794  121.80000305    1.39999998    2.51999998
   19.81361008  135.81599426    1.38000000    2.51999998
   19.81666756  114.05300140    1.38000000    2.51999998
   19.82000160  132.28900146    1.38000000    2.51999998
   19.82333374  115.87300110    1.38000000    2.51999998
   19.82916832  115.87300110    1.36000001    2.51999998
   19.83333397  120.95999908    1.34000003    2.53999996
   19.83666801  121.27300262    1.36000001    2.51999998
   19.83972359  125.97100067    1.36000001    2.51999998
   19.84305573  118.94599915    1.36000001    2.51999998
   19.84638977  126.10500336    1.36000001    2.51999998
   19.84944534  122.74900055    1.36000001    2.51999998
   19.85277748  128.64799500    1.38000000    2.51999998
   19.85583305  135.11199951    1.38000000    2.51999998
   19.85916710  126.47100067    1.39999998    2.51999998
   19.86250114  121.66400146    1.39999998    2.51999998
   19.86305618  122.36299896    1.39999998    2.51999998
   19.86611176  115.76899719    1.41999996    2.50000000
   19.87194443  115.76899719    1.41999996    2.51999998
   19.87611198  124.40200043    1.39999998    2.51999998
   19.87944412  125.36599731    1.41999996    2.50000000
   19.88277817  126.40399933    1.44000006    2.51999998
   19.88583374  125.19999695    1.44000006    2.51999998
   19.88916588  125.06700134    1.39999998    2.51999998
   19.89249992  114.42199707    1.38000000    2.51999998
   19.89555550  118.83499908    1.36000001    2.50000000
   19.89638901  129.75700378    1.36000001    2.50000000
   19.89916611  133.01699829    1.34000003    2.50000000
   19.90250015  125.98899841    1.34000003    2.50000000
   19.90583229  133.27799988    1.33000004    2.51999998
   19.90888786  119.91899872    1.33000004    2.50000000
   19.91499901  119.91899872    1.30999994    2.51999998
   19.91916656  126.31600189    1.26999998    2.51999998
   19.92222214  127.79000092    1.26999998    2.51999998
   19.92555428  120.85600281    1.26999998    2.51999998
   19.92860985  132.03799438    1.26999998    2.51999998
   19.92972183  127.98999786    1.25000000    2.51999998
   19.93222237  122.68299866    1.25000000    2.51999998
   19.93555450  125.80300140    1.26999998    2.50000000
   19.93888855  126.30699921    1.25000000    2.51999998
   19.94194412  123.31900024    1.28999996    2.51999998
   19.94527626  127.50599670    1.28999996    2.51999998
   19.94833183  117.93000031    1.28999996    2.50000000
   19.95166779  122.07099915    1.28999996    2.51999998
   19.95777893  122.07099915    1.38000000    2.50000000
   19.96194458  119.04399872    1.36000001    2.50000000
   19.96305656  113.20899963    1.38000000    2.50000000
   19.96555710  128.08900452    1.38000000    2.50000000
   19.96888924  123.21600342    1.36000001    2.50000000
   19.97222328  124.95500183    1.36000001    2.50000000
   19.97527885  132.28900146    1.36000001    2.50000000
   19.97861099  122.52100372    1.36000001    2.50000000
   19.98194504  120.15000153    1.34000003    2.51999998
   19.98500061  127.62500000    1.34000003    2.51999998
   19.98833275  115.31800079    1.34000003    2.50000000
   19.99138832  132.90699768    1.34000003    2.50000000
   19.99472237  126.93900299    1.34000003    2.50000000
   19.99638939  115.22000122    1.34000003    2.50000000
   20.00055504  115.22000122    1.34000003    2.50000000
   20.00472260  127.02700043    1.36000001    2.48000002
   20.00805473  126.12100220    1.36000001    2.48000002
   20.01111031  128.15199280    1.34000003    2.48000002
   20.01444435  115.97100067    1.34000003    2.48000002
   20.01777840  128.33200073    1.34000003    2.48000002
   20.02083397  116.00399780    1.36000001    2.48000002
   20.02416611  132.39999390    1.36000001    2.50000000
   20.02750015  121.05999756    1.36000001    2.50000000
   20.02972221  132.81500244    1.38000000    2.48000002
   20.03111076  126.31900024    1.38000000    2.48000002
   20.03416634  143.80200195    1.39999998    2.48000002
   20.03750038  133.10499573    1.41999996    2.46000004
   20.04333305  133.10499573    1.44000006    2.48000002
   20.04749870  130.52799988    1.44000006    2.46000004
   20.05083275  135.52000427    1.44000006    2.46000004
   20.05416679  130.14100647    1.46000004    2.48000002
   20.05722237  124.70899963    1.46000004    2.48000002
   20.06055450  134.69400024    1.50000000    2.46000004
   20.06305504  128.57600403    1.50000000    2.48000002
   20.06444359  117.13500214    1.50000000    2.48000002
   20.06750107  126.22299957    1.50000000    2.48000002
   20.07083511  130.19999695    1.50000000    2.48000002
   20.07389069  138.48199463    1.50000000    2.46000004
   20.07722282  124.99199677    1.51999998    2.46000004
   20.08055687  128.31599426    1.51999998    2.46000004
   20.08638954  128.31599426    1.50000000    2.48000002
   20.09055710  123.14800262    1.51999998    2.46000004
   20.09361267  133.46600342    1.51999998    2.46000004
   20.09638977  122.47100067    1.51999998    2.46000004
   20.09749985  126.55599976    1.51999998    2.46000004
   20.10055542  118.81500244    1.51999998    2.46000004
   20.10388947  131.74800110    1.51999998    2.46000004
   20.10694504  140.04899597    1.51999998    2.46000004
   20.11027908  148.26100159    1.51999998    2.48000002
   20.11361122  181.88499451    1.53999996    2.48000002
   20.11666679  215.67399597    1.50000000    2.46000004
   20.12000084  285.27499390    1.51999998    2.44000006
   20.12333298  220.02000427    1.51999998    2.46000004
   20.12916756  220.02000427    1.60000002    2.46000004
   20.14749908   -1.00000000    1.66999996    2.46000004
   20.15083313   -1.00000000    1.69000006    2.46000004
   20.15388870   -1.00000000    1.66999996    2.46000004
   20.15722275   -1.00000000    1.64999998    2.46000004
   20.16055489   -1.00000000    1.66999996    2.46000004
   20.16361046   -1.00000000    1.66999996    2.44000006
   20.16722107   -1.00000000    1.64999998    2.46000004
   20.17638779   -1.00000000    1.69000006    2.44000006
   20.17944336   -1.00000000    1.69000006    2.44000006
   20.18277740   -1.00000000    1.71000004    2.44000006
   20.18583298   -1.00000000    1.71000004    2.44000006
   20.18916512   -1.00000000    1.71000004    2.44000006
   20.19249916   -1.00000000    1.73000002    2.44000006
   20.19555473   -1.00000000    1.73000002    2.42000008
   20.19944382   -1.00000000    1.73000002    2.42000008
   20.20250130   -1.00000000    1.73000002    2.42000008
   20.20583344   -1.00000000    1.73000002    2.42000008
   20.20888901   -1.00000000    1.75000000    2.42000008
   20.21916771   -1.00000000    1.76999998    2.44000006
   20.22222328   -1.00000000    1.76999998    2.44000006
   20.22555542   -1.00000000    1.75000000    2.44000006
   20.22888947   -1.00000000    1.75000000    2.42000008
   20.23250008   -1.00000000    1.76999998    2.44000006
   20.23555565   -1.00000000    1.76999998    2.42000008
   20.23888969   -1.00000000    1.76999998    2.42000008
   20.24222183   -1.00000000    1.76999998    2.42000008
   20.24527740   -1.00000000    1.78999996    2.42000008
   20.24861145   -1.00000000    1.80999994    2.42000008
   20.25166702   -1.00000000    1.80999994    2.42000008
