    HOUR (UT)   FLARE FACTOR    SKY TESTER    SUN TESTER
   11.57638836   -1.00000000   -1.00000000   -1.00000000
   11.61805534  277.30899048    4.13999987    1.80999994
   11.62138939  286.16101074    4.11999989    1.80999994
   11.62444496  289.00000000    4.09999990    1.83000004
   11.62777805  255.81599426    4.13999987    1.83000004
   11.63083363  281.14001465    4.17999983    1.83000004
   11.63416672  274.21798706    4.15999985    1.83000004
   11.63833332  274.21798706    4.15999985    1.83000004
   11.64249992  279.33099365    4.13999987    1.83000004
   11.64555550  276.96301270    4.13999987    1.83000004
   11.64888859  268.95800781    4.11999989    1.85000002
   11.65111065  281.48901367    4.09999990    1.85000002
   11.65249920  284.77301025    4.09999990    1.85000002
   11.65583324  281.19198608    4.07999992    1.85000002
   11.65888882  281.55899048    4.07999992    1.85000002
   11.66222191  295.82998657    4.05999994    1.86000001
   11.66555500  287.05300903    4.05999994    1.86000001
   11.66861153  277.60501099    4.03999996    1.86000001
   11.67194462  291.36401367    4.03999996    1.86000001
   11.67527771  283.72399902    4.01999998    1.86000001
   11.68111134  283.72399902    4.00000000    1.88000000
   11.68527794  271.74301147    3.99000001    1.88000000
   11.68861103  278.65301514    3.97000003    1.88000000
   11.69166660  257.74899292    3.95000005    1.88000000
   11.69499969  253.33700562    3.95000005    1.88000000
   11.69833374  255.42199707    3.93000007    1.88000000
   11.70138836  250.34100342    3.91000009    1.88000000
   11.70472240  275.26098633    3.91000009    1.89999998
   11.70777798  265.04199219    3.89000010    1.89999998
   11.71111107  266.31698608    3.89000010    1.89999998
   11.71444416  267.32501221    3.86999989    1.89999998
   11.71749973  261.53500366    3.84999990    1.89999998
   11.71805477  256.32598877    3.84999990    1.89999998
   11.72388840  256.32598877    3.82999992    1.91999996
   11.72805500  257.20999146    3.80999994    1.91999996
   11.73138809  251.39999390    3.80999994    1.91999996
   11.73444462  238.82299805    3.78999996    1.91999996
   11.73777771  242.47099304    3.76999998    1.91999996
   11.74111176  269.22799683    3.76999998    1.91999996
   11.74416733  258.24700928    3.76999998    1.94000006
   11.74750042  231.97200012    3.75000000    1.94000006
   11.75083351  247.10400391    3.75000000    1.94000006
   11.75138855  254.72999573    3.73000002    1.94000006
   11.75444412  238.38400269    3.73000002    1.94000006
   11.75749969  239.19200134    3.72000003    1.94000006
   11.76083374  227.26699829    3.72000003    1.94000006
   11.76694393  227.26699829    3.70000005    1.94000006
   11.77083302  229.42999268    3.68000007    1.94000006
   11.77416611  249.44799805    3.66000009    1.94000006
   11.77750015  223.82400513    3.66000009    1.96000004
   11.78055573  230.18600464    3.64000010    1.96000004
   11.78388977  240.72099304    3.64000010    1.96000004
   11.78472233  234.36599731    3.64000010    1.98000002
   11.78750038  241.64100647    3.61999989    1.98000002
   11.79055595  252.26600647    3.61999989    1.98000002
   11.79416752  232.47700500    3.59999990    1.98000002
   11.79750061  273.86300659    3.59999990    1.98000002
   11.80083370  239.40800476    3.57999992    1.98000002
   11.80388927  252.51100159    3.57999992    1.98000002
   11.80972195  252.51100159    3.55999994    1.98000002
   11.81388950  212.83399963    3.53999996    1.98000002
   11.81694412  264.92199707    3.53999996    2.00000000
   11.81805515  253.51600647    3.53999996    2.00000000
   11.82055569  246.76199341    3.51999998    2.00000000
   11.82361126  256.16598511    3.51999998    2.00000000
   11.82694435  288.60299683    3.50000000    2.00000000
   11.83027744  311.53900146    3.50000000    2.00000000
   11.83333302  251.37100220    3.48000002    2.00000000
   11.83666611  283.73800659    3.48000002    2.00000000
   11.84000015  296.40100098    3.46000004    2.01999998
   11.84305477  272.14001465    3.46000004    2.01999998
   11.84638882  278.19000244    3.45000005    2.01999998
   11.85249996  278.19000244    3.43000007    2.01999998
   11.85666752  269.92098999    3.43000007    2.01999998
   11.86000061  279.08099365    3.43000007    2.01999998
   11.86305618  261.27099609    3.41000009    2.01999998
   11.86638927  280.89401245    3.41000009    2.03999996
   11.86944485  275.92700195    3.39000010    2.01999998
   11.87277794  296.21398926    3.39000010    2.03999996
   11.87611103  271.21398926    3.36999989    2.01999998
   11.87916660  278.28601074    3.36999989    2.03999996
   11.88249969  273.12298584    3.34999990    2.03999996
   11.88472176  263.15399170    3.34999990    2.03999996
   11.88611126  287.22198486    3.34999990    2.03999996
   11.88944435  276.97601318    3.32999992    2.05999994
   11.89527798  276.97601318    3.32999992    2.03999996
   11.89944458  274.13299561    3.30999994    2.05999994
   11.90277767  263.76000977    3.30999994    2.05999994
   11.90583324  250.75100708    3.28999996    2.05999994
   11.90916634  258.47500610    3.28999996    2.05999994
   11.91249943  257.29199219    3.26999998    2.05999994
   11.91555500  250.62300110    3.26999998    2.05999994
   11.91805553  232.80900574    3.26999998    2.05999994
   11.91916656  246.20899963    3.25000000    2.05999994
   11.92250061  246.32499695    3.25000000    2.07999992
   11.92555618  238.89999390    3.25000000    2.07999992
   11.92888927  235.05599976    3.25000000    2.07999992
   11.93194485  227.19900513    3.23000002    2.07999992
   11.93833351  227.19900513    3.23000002    2.07999992
   11.94222260  233.37500000    3.21000004    2.07999992
   11.94555569  227.41900635    3.21000004    2.07999992
   11.94888878  231.07099915    3.21000004    2.09999990
   11.95138836  210.64999390    3.21000004    2.09999990
   11.95249939  212.32800293    3.21000004    2.09999990
   11.95583344  215.75300598    3.20000005    2.09999990
   11.95888901  213.41999817    3.20000005    2.09999990
   11.96222210  205.95599365    3.20000005    2.09999990
   11.96527767  210.93400574    3.20000005    2.09999990
   11.96861076  207.03799438    3.18000007    2.09999990
   11.97194386  209.22300720    3.18000007    2.09999990
   11.97499943  213.80299377    3.18000007    2.09999990
   11.98111057  213.80299377    3.18000007    2.09999990
   11.98527813  237.55900574    3.16000009    2.11999989
   11.98833370  224.56300354    3.16000009    2.11999989
   11.99166679  240.74299622    3.16000009    2.11999989
   11.99499989  217.36500549    3.16000009    2.11999989
   11.99805546  227.67999268    3.14000010    2.11999989
   12.00138855  237.04800415    3.14000010    2.11999989
   12.00444412  217.80000305    3.11999989    2.11999989
   12.00777817  234.82600403    3.11999989    2.11999989
   12.01111126  229.51800537    3.11999989    2.13000011
   12.01416683  225.19400024    3.09999990    2.11999989
   12.01749992  227.17599487    3.09999990    2.11999989
   12.01805496  232.79100037    3.09999990    2.11999989
   12.02388859  232.79100037    3.09999990    2.13000011
   12.02805519  230.93800354    3.07999992    2.13000011
   12.03138828  208.15100098    3.07999992    2.13000011
   12.03444481  216.11999512    3.07999992    2.13000011
   12.03777790  213.83999634    3.07999992    2.13000011
   12.04083347  200.64300537    3.05999994    2.13000011
   12.04416752  203.28100586    3.05999994    2.13000011
   12.04750061  214.21400452    3.05999994    2.13000011
   12.05055618  194.18499756    3.03999996    2.13000011
   12.05138874  217.66400146    3.03999996    2.13000011
   12.05416679  216.47799683    3.03999996    2.13000011
   12.05749989  195.99699402    3.03999996    2.15000010
   12.06055546  201.59899902    3.03999996    2.13000011
   12.06666660  201.59899902    3.01999998    2.15000010
   12.07083321  208.44299316    3.01999998    2.15000010
   12.07416630  194.08000183    3.00000000    2.15000010
   12.07722187  210.31900024    3.00000000    2.15000010
   12.08055592  211.49200439    3.00000000    2.15000010
   12.08388901  219.18200684    3.00000000    2.15000010
   12.08472157  223.53700256    3.00000000    2.15000010
   12.08749962  212.45399475    2.98000002    2.17000008
   12.09083271  234.66900635    2.98000002    2.17000008
   12.09388828  206.26600647    2.96000004    2.17000008
   12.09722233  216.60200500    2.96000004    2.17000008
   12.10055637  210.84100342    2.96000004    2.17000008
   12.10361195  206.03399658    2.94000006    2.17000008
   12.10972214  206.03399658    2.94000006    2.17000008
   12.11361122  224.08999634    2.94000006    2.17000008
   12.11694431  196.82299805    2.94000006    2.17000008
   12.11805534  206.58299255    2.93000007    2.17000008
   12.12055588  209.69099426    2.93000007    2.17000008
   12.12388897  229.55700684    2.93000007    2.17000008
   12.12694454  214.08000183    2.93000007    2.19000006
   12.13027763  204.11999512    2.91000009    2.17000008
   12.13333321  201.24000549    2.91000009    2.19000006
   12.13666630  215.95500183    2.91000009    2.17000008
   12.14000034  221.91400146    2.89000010    2.17000008
   12.14305496  200.22000122    2.89000010    2.17000008
   12.14638901  215.80799866    2.89000010    2.19000006
   12.15249920  215.80799866    2.86999989    2.19000006
   12.15666676  203.87399292    2.86999989    2.19000006
   12.15972137  213.93600464    2.86999989    2.19000006
   12.16305542  226.06300354    2.86999989    2.19000006
   12.16638851  231.38400269    2.84999990    2.21000004
   12.16944504  225.43699646    2.84999990    2.21000004
   12.17277813  212.53500366    2.84999990    2.21000004
   12.17583370  225.39399719    2.84999990    2.21000004
   12.17916679  224.88200378    2.82999992    2.21000004
   12.18249989  226.78300476    2.82999992    2.21000004
   12.18472195  254.95899963    2.82999992    2.21000004
   12.18611145  260.48199463    2.82999992    2.21000004
   12.18944454  259.88900757    2.82999992    2.21000004
   12.19527817  259.88900757    2.80999994    2.21000004
   12.19944477  283.10299683    2.80999994    2.21000004
   12.20277786  285.48400879    2.80999994    2.21000004
   12.20583344  298.22601318    2.80999994    2.21000004
   12.20916653  269.81399536    2.78999996    2.23000002
   12.21222210  255.77499390    2.78999996    2.23000002
   12.21555519  256.31500244    2.78999996    2.21000004
   12.21805477  245.97500610    2.78999996    2.23000002
   12.21916580  255.20799255    2.78999996    2.23000002
   12.22249985  240.37500000    2.78999996    2.23000002
   12.22555542  240.94700623    2.78999996    2.23000002
   12.22888851  241.44599915    2.78999996    2.23000002
   12.23222160  233.48800659    2.78999996    2.23000002
   12.23805618  233.48800659    2.78999996    2.23000002
   12.24222279  236.42100525    2.76999998    2.23000002
   12.24555588  234.65899658    2.76999998    2.23000002
   12.24861145  194.21800232    2.76999998    2.25000000
   12.25138855  228.57800293    2.76999998    2.25000000
   12.25222206  238.78500366    2.76999998    2.25000000
   12.25555515  226.00000000    2.76999998    2.25000000
   12.25861073  222.72099304    2.75000000    2.25000000
   12.26194477  221.19900513    2.75000000    2.25000000
   12.26527786  222.67999268    2.75000000    2.25000000
   12.26833344  223.58299255    2.75000000    2.25000000
   12.27166653  221.33599854    2.75000000    2.25000000
   12.27472210  216.52699280    2.73000002    2.25000000
   12.28111076  216.52699280    2.73000002    2.25000000
   12.28500080  212.86799622    2.71000004    2.25000000
   12.28833389  222.05200195    2.71000004    2.25000000
   12.29166698  209.49099731    2.71000004    2.25000000
   12.29472256  218.90600586    2.71000004    2.25000000
   12.29805565  219.03799438    2.69000006    2.26999998
   12.30138874  214.31900024    2.69000006    2.26999998
   12.30472279  209.22799683    2.69000006    2.26999998
   12.30777836  216.30299377    2.69000006    2.26999998
   12.31111145  212.10299683    2.67000008    2.26999998
   12.31416702  225.86000061    2.67000008    2.26999998
   12.31750011  205.74099731    2.67000008    2.26999998
   12.31805515  211.46400452    2.67000008    2.26999998
   12.32388878  211.46400452    2.66000009    2.26999998
   12.32805538  225.13699341    2.66000009    2.26999998
   12.33111095  195.25100708    2.66000009    2.28999996
   12.33444405  200.99699402    2.64000010    2.28999996
   12.33777714  211.18200684    2.64000010    2.26999998
   12.34083271  211.33999634    2.64000010    2.28999996
   12.34416676  206.92399597    2.64000010    2.28999996
   12.34722233  207.47900391    2.64000010    2.28999996
   12.35055637  209.13600159    2.61999989    2.28999996
   12.35138893  212.69000244    2.61999989    2.28999996
   12.35416698  190.05499268    2.61999989    2.28999996
   12.35750008  203.46499634    2.61999989    2.28999996
   12.36055565  208.84399414    2.59999990    2.28999996
   12.36666679  208.84399414    2.59999990    2.28999996
   12.37083340  209.07200623    2.59999990    2.28999996
   12.37416649  207.71000671    2.57999992    2.28999996
   12.37722206  194.09599304    2.57999992    2.28999996
   12.38055611  193.17599487    2.57999992    2.28999996
   12.38388920  214.57400513    2.55999994    2.28999996
   12.38500023  205.49499512    2.55999994    2.30999994
   12.38749981  207.28599548    2.55999994    2.30999994
   12.39083290  214.40100098    2.55999994    2.30999994
   12.39388847  213.80099487    2.53999996    2.28999996
   12.39722252  196.70399475    2.53999996    2.30999994
   12.40055561  205.16799927    2.51999998    2.30999994
   12.40361118  210.65400696    2.51999998    2.30999994
   12.40944386  210.65400696    2.50000000    2.30999994
   12.41361046  194.59599304    2.50000000    2.30999994
   12.41694450  197.11000061    2.50000000    2.30999994
   12.41805553  193.23800659    2.50000000    2.30999994
   12.42055607  204.91499329    2.50000000    2.30999994
   12.42388916  208.44599915    2.50000000    2.30999994
   12.42694473  186.64999390    2.48000002    2.30999994
   12.43027782  205.44400024    2.48000002    2.32999992
   12.43361092  206.95399475    2.48000002    2.32999992
   12.43666649  196.76499939    2.46000004    2.32999992
   12.44000053  210.86399841    2.44000006    2.32999992
   12.44333363  200.98399353    2.44000006    2.32999992
   12.44638920  205.99699402    2.44000006    2.32999992
   12.45249939  205.99699402    2.44000006    2.32999992
   12.45638847  204.54600525    2.44000006    2.32999992
   12.45972157  208.35099792    2.42000008    2.32999992
   12.46305561  205.02999878    2.42000008    2.32999992
   12.46611118  212.73599243    2.42000008    2.32999992
   12.46944427  201.17900085    2.42000008    2.32999992
   12.47277737  211.18099976    2.42000008    2.32999992
   12.47583294  212.67799377    2.42000008    2.34999990
   12.47916603  194.81100464    2.42000008    2.32999992
   12.48222160  221.17199707    2.42000008    2.32999992
   12.48472214  200.82899475    2.42000008    2.32999992
   12.48583317  211.66700745    2.42000008    2.34999990
   12.48916721  216.46600342    2.40000010    2.32999992
   12.49527836  216.46600342    2.40000010    2.32999992
   12.49944496  198.03300476    2.42000008    2.32999992
   12.50249958  205.99600220    2.44000006    2.34999990
   12.50583363  222.50300598    2.42000008    2.34999990
   12.50916672  201.91700745    2.42000008    2.34999990
   12.51222229  232.60800171    2.42000008    2.34999990
   12.51555538  203.11300659    2.44000006    2.34999990
   12.51833344  220.28700256    2.44000006    2.34999990
   12.51916599  225.47399902    2.44000006    2.34999990
   12.52250004  211.64900208    2.46000004    2.34999990
   12.52583313  212.16600037    2.46000004    2.34999990
   12.52888870  189.24699402    2.46000004    2.34999990
   12.53222179  217.67999268    2.44000006    2.34999990
   12.53805637  217.67999268    2.42000008    2.36999989
   12.54222298  205.64500427    2.40000010    2.36999989
   12.54555607  205.28500366    2.40000010    2.36999989
   12.54861164  199.95899963    2.39000010    2.36999989
   12.55166721  209.55900574    2.39000010    2.36999989
   12.55222225  211.41700745    2.39000010    2.36999989
   12.55555534  220.16600037    2.39000010    2.36999989
   12.55861092  219.44400024    2.39000010    2.36999989
   12.56194496  210.99600220    2.39000010    2.36999989
   12.56527805  195.54499817    2.39000010    2.36999989
   12.56833363  203.24600220    2.39000010    2.36999989
   12.57166672  213.22399902    2.39000010    2.36999989
   12.57499981  183.84700012    2.39000010    2.36999989
   12.58083344  183.84700012    2.39000010    2.36999989
   12.58500004  200.61599731    2.36999989    2.36999989
   12.58833313  199.89799500    2.36999989    2.36999989
   12.59138870  209.32000732    2.36999989    2.39000010
   12.59472179  209.51199341    2.36999989    2.36999989
   12.59805489  197.74099731    2.36999989    2.36999989
   12.60111141  196.26100159    2.36999989    2.36999989
   12.60444450  200.56700134    2.34999990    2.36999989
   12.60777855  211.55400085    2.32999992    2.36999989
   12.61083412  207.53999329    2.32999992    2.39000010
   12.61416721  206.60499573    2.32999992    2.39000010
   12.61722279  207.59500122    2.32999992    2.39000010
   12.61833382  213.44500732    2.32999992    2.39000010
   12.63888836  213.44500732    2.30999994    2.39000010
   12.64305496  232.03900146    2.28999996    2.39000010
   12.64638901  250.87800598    2.28999996    2.39000010
   12.64944458  238.80900574    2.28999996    2.39000010
   12.65166664  242.77799988    2.28999996    2.39000010
   12.65305519  239.71899414    2.26999998    2.40000010
   12.65638828  226.89100647    2.26999998    2.39000010
   12.65972137  250.75300598    2.26999998    2.39000010
   12.66277695  231.77299500    2.25000000    2.39000010
   12.66611099  236.78500366    2.25000000    2.40000010
   12.66916656  229.58200073    2.25000000    2.40000010
   12.67250061  277.32998657    2.25000000    2.40000010
   12.67583370  254.49000549    2.25000000    2.39000010
   12.68166733  254.49000549    2.25000000    2.40000010
   12.68583298  255.50300598    2.25000000    2.40000010
   12.68888855  251.47200012    2.25000000    2.40000010
   12.69222260  261.93301392    2.25000000    2.40000010
   12.69555569  227.49400330    2.25000000    2.40000010
   12.69861126  241.21699524    2.23000002    2.40000010
   12.70194435  241.16799927    2.23000002    2.40000010
   12.70527744  239.64500427    2.23000002    2.40000010
   12.70833302  236.09500122    2.23000002    2.40000010
   12.71166611  236.75500488    2.23000002    2.40000010
   12.71472168  229.35899353    2.23000002    2.40000010
   12.71805477  210.48699951    2.23000002    2.40000010
   12.71861076  227.46600342    2.23000002    2.40000010
   12.72444439  227.46600342    2.23000002    2.40000010
   12.72861099  202.26400757    2.21000004    2.40000010
   12.73194408  225.51600647    2.21000004    2.42000008
   12.73500061  213.55700684    2.23000002    2.40000010
   12.73833370  212.65499878    2.21000004    2.40000010
   12.74166679  207.52499390    2.23000002    2.40000010
   12.74472237  208.02099609    2.23000002    2.40000010
   12.74805546  221.16999817    2.23000002    2.40000010
   12.75111103  212.30000305    2.23000002    2.42000008
   12.75194454  203.42100525    2.23000002    2.40000010
   12.75500011  217.92700195    2.23000002    2.42000008
   12.75805569  209.86099243    2.23000002    2.42000008
   12.76138878  204.31100464    2.23000002    2.42000008
   12.76722240  204.31100464    2.21000004    2.40000010
   12.77138901  224.70700073    2.21000004    2.40000010
   12.77472210  205.65899658    2.21000004    2.42000008
   12.77805519  217.24400330    2.21000004    2.42000008
   12.78111076  198.66999817    2.21000004    2.42000008
   12.78444481  217.10699463    2.21000004    2.42000008
   12.78527832  223.04800415    2.21000004    2.42000008
   12.78805637  209.32699585    2.19000006    2.42000008
   12.79111195  233.24400330    2.19000006    2.42000008
   12.79444504  216.77799988    2.17000008    2.42000008
   12.79750061  213.72200012    2.17000008    2.42000008
   12.80083370  219.48599243    2.17000008    2.42000008
   12.80416679  207.17599487    2.17000008    2.42000008
   12.81027794  207.17599487    2.15000010    2.44000006
   12.81444454  210.02099609    2.15000010    2.44000006
   12.81750011  212.77099609    2.15000010    2.42000008
   12.81861115  208.44599915    2.15000010    2.42000008
   12.82138920  208.39599609    2.15000010    2.44000006
   12.82444477  202.91400146    2.13000011    2.44000006
   12.82777786  199.87899780    2.13000011    2.44000006
   12.83083344  214.01499939    2.13000011    2.44000006
   12.83416653  229.91000366    2.13000011    2.44000006
   12.83749962  206.91299438    2.13000011    2.44000006
   12.84055519  209.13999939    2.11999989    2.44000006
   12.84388828  223.44700623    2.11999989    2.44000006
   12.84722233  212.70500183    2.11999989    2.44000006
   12.85305595  212.70500183    2.11999989    2.44000006
   12.85722256  205.75199890    2.11999989    2.44000006
   12.86055565  212.33799744    2.11999989    2.44000006
   12.86361122  208.43400574    2.09999990    2.44000006
   12.86694431  209.69000244    2.09999990    2.44000006
   12.86999989  214.30999756    2.09999990    2.44000006
   12.87333393  209.24699402    2.07999992    2.44000006
   12.87666702  192.12199402    2.07999992    2.44000006
   12.87972260  203.45300293    2.07999992    2.44000006
   12.88305569  196.82099915    2.05999994    2.44000006
   12.88527775  200.61999512    2.05999994    2.46000004
   12.88666630  201.58200073    2.03999996    2.44000006
   12.88972187  201.34199524    2.03999996    2.46000004
   12.89583302  201.34199524    2.03999996    2.46000004
   12.89999962  217.72900391    2.05999994    2.46000004
   12.90333271  204.46699524    2.03999996    2.46000004
   12.90666676  196.06100464    2.03999996    2.46000004
   12.90972137  217.80000305    2.03999996    2.44000006
   12.91305542  223.13000488    2.03999996    2.46000004
   12.91611099  219.15199280    2.03999996    2.46000004
   12.91861153  204.18600464    2.03999996    2.46000004
   12.92000008  211.38900757    2.03999996    2.46000004
   12.92305565  209.04600525    2.03999996    2.44000006
   12.92638874  210.61799622    2.03999996    2.46000004
   12.92972279  213.54699707    2.03999996    2.46000004
   12.93277836  201.26800537    2.03999996    2.46000004
   12.93888855  201.26800537    2.05999994    2.46000004
   12.94305515  202.94099426    2.05999994    2.46000004
   12.94611073  214.05299377    2.05999994    2.46000004
   12.94944477  217.82499695    2.05999994    2.46000004
   12.95194435  206.34800720    2.05999994    2.46000004
   12.95305538  209.46499634    2.05999994    2.44000006
   12.95611095  209.48100281    2.03999996    2.46000004
   12.95944405  199.80099487    2.03999996    2.46000004
   12.96277714  205.53599548    2.03999996    2.46000004
   12.96583271  195.41299438    2.01999998    2.46000004
   12.96916580  206.02499390    2.01999998    2.48000002
   12.97222137  194.99899292    2.03999996    2.46000004
   12.97555542  185.80400085    2.03999996    2.46000004
   12.98166656  185.80400085    2.03999996    2.48000002
   12.98583317  201.29899597    2.03999996    2.48000002
   12.98888874  206.10000610    2.01999998    2.48000002
   12.99222279  193.75500488    2.01999998    2.48000002
   12.99555588  194.42300415    2.01999998    2.48000002
   12.99861145  202.93699646    2.01999998    2.48000002
   13.00194454  205.77400208    2.03999996    2.48000002
   13.00500011  198.88400269    2.03999996    2.48000002
   13.00833321  195.01300049    2.03999996    2.48000002
   13.01166630  196.95199585    2.03999996    2.48000002
   13.01472187  211.97700500    2.03999996    2.48000002
   13.01805496  199.95799255    2.03999996    2.48000002
   13.01861095  205.08599854    2.03999996    2.48000002
   13.02444458  205.08599854    2.03999996    2.48000002
   13.02861118  201.21200562    2.03999996    2.48000002
   13.03194427  193.65699768    2.03999996    2.48000002
   13.03500080  190.14900208    2.03999996    2.48000002
   13.03833389  189.97399902    2.03999996    2.48000002
   13.04138947  198.17399597    2.03999996    2.48000002
   13.04472256  219.57600403    2.03999996    2.48000002
   13.04805565  209.86700439    2.03999996    2.48000002
   13.05111122  189.68400574    2.03999996    2.48000002
   13.05194473  191.88900757    2.03999996    2.48000002
   13.05500031  192.42500305    2.03999996    2.48000002
   13.05805588  199.10800171    2.03999996    2.48000002
   13.06138897  169.91499329    2.03999996    2.48000002
   13.06722260  169.91499329    2.03999996    2.50000000
   13.07138920  201.96600342    2.03999996    2.50000000
   13.07472229  185.20700073    2.03999996    2.48000002
   13.07777786  196.32299805    2.03999996    2.48000002
   13.08111095  189.77900696    2.03999996    2.48000002
   13.08444405  199.22700500    2.01999998    2.48000002
   13.08527756  207.34500122    2.01999998    2.48000002
   13.08805561  185.49200439    2.01999998    2.48000002
   13.09111118  202.06700134    2.01999998    2.48000002
   13.09444427  173.24099731    2.01999998    2.48000002
   13.09777737  177.53599548    2.01999998    2.48000002
   13.10083389  192.93099976    2.01999998    2.50000000
   13.10416698  205.04800415    2.01999998    2.50000000
   13.11027813  205.04800415    2.01999998    2.48000002
   13.11416721  174.50199890    2.00000000    2.48000002
   13.11750031  183.16900635    2.00000000    2.50000000
   13.11861134  190.45599365    2.00000000    2.50000000
   13.12111092  177.74800110    1.98000002    2.50000000
   13.12416649  185.02200317    1.98000002    2.48000002
   13.12750053  191.54600525    1.98000002    2.48000002
   13.13083363  183.28799438    1.98000002    2.50000000
   13.13388920  182.50399780    1.98000002    2.50000000
   13.13722229  185.23300171    1.98000002    2.50000000
   13.14055538  183.03500366    1.98000002    2.50000000
   13.14361095  190.85400391    1.98000002    2.50000000
   13.14694405  172.54400635    1.98000002    2.48000002
   13.15305519  172.54400635    1.98000002    2.48000002
   13.15722179  183.96099854    1.98000002    2.50000000
   13.16027737  186.62699890    1.96000004    2.50000000
   13.16361046  172.90699768    1.96000004    2.48000002
   13.16694450  148.66299438    1.96000004    2.50000000
   13.17000008  183.23599243    1.98000002    2.50000000
   13.17333412  203.82400513    1.98000002    2.50000000
   13.17666721  196.36500549    1.98000002    2.50000000
   13.17972279  172.13299561    1.98000002    2.51999998
   13.18305588  153.19900513    1.98000002    2.51999998
   13.18527794  183.44200134    2.00000000    2.50000000
   13.18666649  163.14199829    2.00000000    2.50000000
   13.18972206  194.31900024    2.00000000    2.50000000
   13.19583321  194.31900024    2.01999998    2.50000000
   13.19999981  186.42900085    2.01999998    2.50000000
   13.20333290  184.10899353    2.01999998    2.50000000
   13.20638847  194.92399597    2.01999998    2.50000000
   13.20972157  194.37600708    2.01999998    2.50000000
   13.21277714  179.75999451    2.01999998    2.50000000
   13.21611118  179.12100220    2.00000000    2.50000000
   13.21861076  188.55999756    2.00000000    2.51999998
   13.21972179  174.34500122    2.00000000    2.50000000
   13.22277737  178.41400146    2.01999998    2.51999998
   13.22611046  180.74699402    2.01999998    2.51999998
   13.22944355  179.80999756    2.01999998    2.51999998
   13.23249912  180.79800415    2.03999996    2.51999998
   13.23861122  180.79800415    2.03999996    2.51999998
   13.24277782  176.79400635    2.03999996    2.51999998
   13.24611092  193.32200623    2.03999996    2.51999998
   13.24944496  176.07800293    2.03999996    2.51999998
   13.25194454  186.37899780    2.03999996    2.51999998
   13.25305557  167.79100037    2.03999996    2.51999998
   13.25611115  181.97500610    2.03999996    2.51999998
   13.25944424  186.77600098    2.05999994    2.50000000
   13.26277733  175.99800110    2.05999994    2.50000000
   13.26583290  194.45599365    2.03999996    2.51999998
   13.26916599  160.99800110    2.01999998    2.51999998
   13.27250004  178.00300598    2.01999998    2.51999998
   13.27555561  163.19200134    2.00000000    2.51999998
   13.28166676  163.19200134    1.98000002    2.51999998
   13.28583336  183.13999939    1.98000002    2.51999998
   13.28888893  188.85499573    1.96000004    2.51999998
   13.29222298  189.80499268    1.94000006    2.51999998
   13.29527855  160.05999756    1.94000006    2.51999998
   13.29861164  180.88999939    1.94000006    2.51999998
   13.30194473  175.82299805    1.94000006    2.51999998
   13.30500031  175.47300720    1.94000006    2.51999998
   13.30833340  184.96299744    1.91999996    2.51999998
   13.31166649  195.94599915    1.91999996    2.53999996
   13.31472206  185.99600220    1.91999996    2.51999998
   13.31805515  176.92500305    1.91999996    2.51999998
   13.31861115  163.74699402    1.91999996    2.51999998
   13.32444477  163.74699402    1.91999996    2.51999998
   13.32861137  177.58299255    1.91999996    2.51999998
   13.33166695  170.29299927    1.89999998    2.51999998
   13.33500004  173.88800049    1.89999998    2.51999998
   13.33833313  161.17799377    1.89999998    2.51999998
   13.34138870  168.96200562    1.89999998    2.51999998
   13.34472179  165.71200562    1.89999998    2.51999998
   13.34777737  171.36199951    1.89999998    2.51999998
   13.35111141  158.32499695    1.89999998    2.51999998
   13.35194492  155.97999573    1.89999998    2.51999998
   13.35472298  162.11399841    1.88000000    2.53999996
   13.35777855  156.62500000    1.88000000    2.53999996
   13.36111164  170.69000244    1.88000000    2.51999998
   13.36722279  170.69000244    1.88000000    2.51999998
   13.37138939  157.55099487    1.89999998    2.53999996
   13.37472248  170.42799377    1.89999998    2.51999998
   13.37777805  155.82499695    1.91999996    2.53999996
   13.38111115  166.72099304    1.91999996    2.53999996
   13.38444424  169.13499451    1.91999996    2.53999996
   13.38527775  167.82800293    1.94000006    2.51999998
   13.38805580  167.71299744    1.94000006    2.51999998
   13.39138889  173.60699463    1.94000006    2.53999996
   13.39444447  171.37899780    1.94000006    2.53999996
   13.39777756  179.26100159    1.94000006    2.51999998
   13.40083313  170.90100098    1.94000006    2.53999996
   13.40416622  154.61999512    1.94000006    2.51999998
   13.40999985  154.61999512    1.94000006    2.53999996
   13.41416645  183.10699463    1.94000006    2.53999996
   13.41750050  171.05400085    1.91999996    2.53999996
   13.41861153  177.12500000    1.91999996    2.53999996
   13.42111111  179.33200073    1.91999996    2.51999998
   13.42416668  173.12699890    1.91999996    2.53999996
   13.42750072  174.83399963    1.91999996    2.53999996
   13.43083382  163.45700073    1.91999996    2.53999996
   13.43388939  152.31199646    1.94000006    2.53999996
   13.43722248  167.70500183    1.94000006    2.53999996
   13.44055557  174.71400452    1.94000006    2.53999996
   13.44361115  161.85499573    1.96000004    2.55999994
   13.44694424  166.44500732    2.07999992    2.53999996
   13.45305538  166.44500732    2.13000011    2.53999996
   13.45694447  162.66200256    2.17000008    2.53999996
   13.46027756  164.67999268    2.25000000    2.53999996
   13.46361065  147.22599792    2.39000010    2.53999996
   13.46666622  179.71699524    2.57999992    2.53999996
   13.46999931  171.36000061    2.53999996    2.51999998
   13.47333336  157.15400696    2.50000000    2.51999998
   13.47666645  178.39599609    2.44000006    2.53999996
   13.47972202  188.27099609    2.30999994    2.53999996
   13.48305511  179.34500122    2.26999998    2.53999996
   13.48527813  204.86300659    2.25000000    2.53999996
   13.48666668  193.22099304    2.28999996    2.53999996
   13.49000072  201.14799500    2.32999992    2.53999996
   13.49583340  201.14799500    2.34999990    2.53999996
   13.50000000  180.07200623    2.36999989    2.53999996
   13.50305557  174.41700745    2.34999990    2.53999996
   13.50638866  159.45399475    2.36999989    2.53999996
   13.50972176  148.83700562    2.34999990    2.53999996
   13.51277733  140.18800354    2.36999989    2.53999996
   13.51611137  144.46000671    2.39000010    2.53999996
   13.51861095  165.13800049    2.40000010    2.53999996
   13.51972198  154.62300110    2.40000010    2.53999996
   13.52305508  154.95599365    2.40000010    2.53999996
   13.52611065  164.09800720    2.39000010    2.53999996
   13.52944374  155.61399841    2.34999990    2.53999996
   13.53249931  162.45399475    2.30999994    2.53999996
   13.53861141  162.45399475    2.23000002    2.53999996
   13.54277802  171.89799500    2.23000002    2.53999996
   13.54611111  165.94400024    2.30999994    2.55999994
   13.54916668  146.06799316    2.39000010    2.55999994
   13.55194473  139.86300659    2.40000010    2.55999994
   13.55277824  175.40199280    2.42000008    2.55999994
   13.55611134  159.05400085    2.42000008    2.53999996
   13.55916691  159.22099304    2.34999990    2.53999996
   13.56250000  145.51800537    2.28999996    2.55999994
   13.56583309  161.16700745    2.25000000    2.55999994
   13.56888866  160.84599304    2.28999996    2.53999996
   13.57222176  162.48800659    2.34999990    2.53999996
   13.57527733  169.07299805    2.36999989    2.53999996
   13.58138847  169.07299805    2.36999989    2.55999994
   13.58555508  148.51300049    2.34999990    2.55999994
   13.58888817  157.96299744    2.30999994    2.55999994
   13.59194374  154.37199402    2.28999996    2.55999994
   13.59527779  160.86300659    2.23000002    2.55999994
   13.59861088  159.76400757    2.21000004    2.55999994
   13.60166740  180.95199585    2.19000006    2.53999996
   13.60500050  249.35099792    2.17000008    2.53999996
   13.60833359  210.69099426    2.13000011    2.55999994
   13.61138916  231.19999695    2.13000011    2.55999994
   13.61472225  227.74299622    2.15000010    2.53999996
   13.61777782  211.96000671    2.15000010    2.55999994
   13.61861134  239.15699768    2.15000010    2.55999994
   13.62444496  239.15699768    2.09999990    2.55999994
   13.62833309  212.69700623    2.07999992    2.55999994
   13.63166714  191.50000000    2.05999994    2.55999994
   13.63500023  180.89100647    2.03999996    2.55999994
   13.65249920  145.48800659    2.11999989    2.55999994
   13.65499973  158.16299438    2.13000011    2.55999994
   13.65805531  168.50999451    2.19000006    2.55999994
   13.66138840  151.24200439    2.19000006    2.55999994
   13.66722298  151.24200439    2.25000000    2.55999994
   13.67138958  166.52200317    2.21000004    2.55999994
   13.67472267  159.55299377    2.26999998    2.55999994
   13.67777824  179.61599731    2.26999998    2.55999994
   13.68111134  156.23100281    2.28999996    2.55999994
   13.68444443  161.17199707    2.28999996    2.55999994
   13.68583298  159.00599670    2.30999994    2.55999994
   13.68777752  151.18400574    2.30999994    2.55999994
   13.69111156  144.82000732    2.32999992    2.55999994
   13.69444466  159.45300293    2.39000010    2.55999994
   13.69750023  156.76699829    2.39000010    2.55999994
   13.70083332  155.46600342    2.36999989    2.55999994
   13.70388889  147.50500488    2.32999992    2.55999994
   13.71027756  147.50500488    2.21000004    2.55999994
   13.71416664  153.54600525    2.23000002    2.55999994
   13.71749973  155.70300293    2.23000002    2.55999994
   13.71916580  148.16299438    2.23000002    2.57999992
   13.72111034  154.19299316    2.25000000    2.55999994
   13.72444439  151.62800598    2.23000002    2.55999994
   13.72777748  174.22900391    2.21000004    2.55999994
   13.73083305  169.80999756    2.19000006    2.57999992
   13.73416710  161.31399536    2.17000008    2.55999994
   13.73750019  174.19200134    2.15000010    2.55999994
   13.74055576  166.20599365    2.17000008    2.55999994
   13.74388885  178.17900085    2.17000008    2.55999994
   13.74722290  153.14599609    2.13000011    2.55999994
   13.75305557  153.14599609    2.13000011    2.55999994
   13.75722218  158.17300415    2.13000011    2.55999994
   13.76027775  155.79299927    2.13000011    2.57999992
   13.76361084  150.23300171    2.13000011    2.57999992
   13.76694393  153.65499878    2.13000011    2.55999994
   13.76999950  155.05299377    2.13000011    2.57999992
   13.77333355  159.96200562    2.11999989    2.57999992
   13.77638817  145.41799927    2.13000011    2.57999992
   13.77972221  146.00000000    2.17000008    2.55999994
   13.78305531  149.73599243    2.15000010    2.57999992
   13.78583336  147.61900330    2.15000010    2.57999992
   13.78638935  147.10800171    2.15000010    2.57999992
   13.78972244  155.08999634    2.15000010    2.57999992
   13.79583359  155.08999634    2.13000011    2.57999992
   13.80000019  151.30799866    2.13000011    2.57999992
   13.80333328  141.22900391    2.11999989    2.57999992
   13.80638885  161.31199646    2.09999990    2.55999994
   13.80972195  161.12500000    2.09999990    2.57999992
   13.81277752  152.18099976    2.07999992    2.55999994
   13.81611156  149.94900513    2.07999992    2.57999992
   13.81916618  151.83399963    2.07999992    2.57999992
   13.81972218  152.09500122    2.07999992    2.55999994
   13.82305527  154.52600098    2.05999994    2.57999992
   13.82638836  159.75000000    2.03999996    2.57999992
   13.82944393  149.82299805    2.01999998    2.57999992
   13.83277798  153.26699829    2.01999998    2.57999992
   13.83861065  153.26699829    2.01999998    2.57999992
   13.84277725  196.92999268    1.98000002    2.57999992
   13.84611034  231.54200745    1.96000004    2.57999992
   13.84916592  271.63198853    1.91999996    2.57999992
   13.85249996  245.78300476    1.91999996    2.55999994
   13.85277843  296.15798950    1.91999996    2.55999994
   13.85611153  263.67498779    1.94000006    2.55999994
   13.85944462  246.88999939    1.91999996    2.57999992
   13.86250019  238.72599792    1.91999996    2.57999992
   13.86583328  228.25399780    1.94000006    2.59999990
   13.86916637  215.10899353    1.91999996    2.57999992
   13.87222195  231.50999451    1.94000006    2.57999992
   13.87555599  226.54699707    1.96000004    2.57999992
   13.88166714  226.54699707    1.98000002    2.57999992
   13.88555527  196.00999451    2.00000000    2.59999990
   13.88611126  218.74000549    2.00000000    2.59999990
   13.88944435  187.25500488    2.00000000    2.57999992
   13.89277744  189.74200439    2.00000000    2.57999992
   13.89583302  191.55099487    2.00000000    2.57999992
   13.89916611  188.00500488    1.98000002    2.59999990
   13.90222168  183.63400269    1.98000002    2.57999992
   13.90555477  199.11300659    1.96000004    2.59999990
   13.90888882  223.54600525    1.96000004    2.59999990
   13.91222191  203.98199463    1.96000004    2.59999990
   13.91527748  206.88600159    1.96000004    2.59999990
   13.91861153  206.90100098    1.94000006    2.57999992
   13.91944504  207.69400024    1.94000006    2.57999992
   13.92444515  207.69400024    1.94000006    2.59999990
   13.92861176  231.06799316    1.98000002    2.59999990
   13.93166733  219.07699585    1.96000004    2.57999992
   13.93500042  206.37500000    1.96000004    2.57999992
   13.93833351  215.64500427    1.91999996    2.57999992
   13.94138908  203.11799622    1.89999998    2.59999990
   13.94472218  202.55400085    1.86000001    2.59999990
   13.94777775  214.90600586    1.86000001    2.57999992
   13.95111084  199.70599365    1.86000001    2.57999992
   13.95277786  223.68099976    1.86000001    2.59999990
   13.95472240  202.74699402    1.86000001    2.59999990
   13.95805550  210.79800415    1.86000001    2.59999990
   13.96111107  199.49299622    1.86000001    2.59999990
   13.96722221  199.49299622    1.86000001    2.59999990
   13.97138882  214.64399719    1.88000000    2.59999990
   13.97472191  190.26899719    1.88000000    2.59999990
   13.97777748  220.99400330    1.86000001    2.59999990
   13.98111057  178.56399536    1.86000001    2.59999990
   13.98416710  189.20899963    1.85000002    2.57999992
   13.98611164  206.92799377    1.85000002    2.57999992
   13.98777771  209.20399475    1.83000004    2.59999990
   13.99111176  204.12300110    1.83000004    2.59999990
   13.99416733  210.69099426    1.80999994    2.59999990
   13.99750042  231.76600647    1.80999994    2.59999990
   14.00083351  237.49400330    1.80999994    2.59999990
   14.00388908  258.90899658    1.80999994    2.59999990
   14.01000023  258.90899658    1.78999996    2.59999990
   14.01416683  211.37899780    1.78999996    2.59999990
   14.01749992  202.78399658    1.78999996    2.59999990
   14.01944447  201.16299438    1.78999996    2.59999990
   14.02111053  196.17900085    1.78999996    2.59999990
   14.02444458  196.95100403    1.78999996    2.59999990
   14.02750015  193.31399536    1.78999996    2.59999990
   14.03083324  205.11300659    1.78999996    2.59999990
   14.03416729  202.76800537    1.76999998    2.59999990
   14.03722286  202.24899292    1.76999998    2.59999990
   14.04055595  190.31300354    1.76999998    2.59999990
   14.04361153  183.36199951    1.76999998    2.59999990
   14.04694462  193.05299377    1.76999998    2.59999990
   14.05277824  193.05299377    1.75000000    2.59999990
   14.05694485  183.85200500    1.75000000    2.59999990
   14.06027794  169.93699646    1.75000000    2.59999990
   14.06361103  204.95100403    1.75000000    2.59999990
   14.06666660  209.17999268    1.73000002    2.59999990
   14.06999969  185.71499634    1.75000000    2.59999990
   14.07333374  207.96600342    1.75000000    2.59999990
   14.07638836  178.38200378    1.73000002    2.61999989
   14.07972240  189.41700745    1.73000002    2.61999989
   14.08305550  173.58599854    1.73000002    2.59999990
   14.08611107  187.21600342    1.73000002    2.59999990
   14.08666611  192.36500549    1.73000002    2.59999990
   14.09000015  176.85200500    1.73000002    2.61999989
   14.09583282  176.85200500    1.73000002    2.59999990
   14.10000038  222.57000732    1.73000002    2.61999989
   14.10305595  171.93499756    1.73000002    2.61999989
   14.10638905  200.78399658    1.73000002    2.59999990
   14.10972214  236.34599304    1.73000002    2.59999990
   14.11277771  263.73999023    1.73000002    2.61999989
   14.11611176  226.64399719    1.71000004    2.61999989
   14.11916637  249.85000610    1.71000004    2.59999990
   14.11999989  277.67800903    1.71000004    2.59999990
   14.12305546  261.67001343    1.71000004    2.61999989
   14.12611103  243.66400146    1.71000004    2.59999990
   14.12944412  282.95800781    1.71000004    2.59999990
   14.13277817  247.20199585    1.69000006    2.59999990
   14.13861084  247.20199585    1.69000006    2.59999990
   14.14277744  268.45498657    1.69000006    2.61999989
   14.14611053  253.02099609    1.69000006    2.61999989
   14.14916611  235.32200623    1.66999996    2.61999989
   14.15249920  253.99499512    1.66999996    2.61999989
   14.15333271  231.37800598    1.66999996    2.61999989
   14.15611076  227.97399902    1.64999998    2.61999989
   14.15944386  217.31799316    1.64999998    2.61999989
   14.16249943  232.18800354    1.64999998    2.61999989
   14.16583252  237.11099243    1.64999998    2.61999989
   14.16916656  258.32598877    1.64999998    2.61999989
   14.17222214  247.07699585    1.64999998    2.61999989
   14.17555618  232.41499329    1.64999998    2.61999989
   14.18138885  232.41499329    1.64999998    2.61999989
   14.18555546  227.21699524    1.64999998    2.61999989
   14.18666649  208.48800659    1.64999998    2.61999989
   14.18916702  229.95399475    1.64999998    2.61999989
   14.19222260  228.10899353    1.64999998    2.61999989
   14.19555569  189.82899475    1.64999998    2.61999989
   14.19888878  235.07499695    1.64999998    2.61999989
   14.20194435  243.30000305    1.64999998    2.61999989
   14.20527744  212.14599609    1.64999998    2.61999989
   14.20833302  237.54299927    1.63000000    2.61999989
   14.21166611  202.91299438    1.63000000    2.61999989
   14.21500015  234.33700562    1.63000000    2.61999989
   14.21833324  224.97399902    1.63000000    2.61999989
   14.21999931  220.66200256    1.63000000    2.61999989
   14.22416592  220.66200256    1.63000000    2.61999989
   14.22833252  213.63800049    1.63000000    2.61999989
   14.23166656  189.43699646    1.63000000    2.61999989
   14.23500061  218.05299377    1.63000000    2.61999989
   14.23805618  189.61399841    1.64999998    2.61999989
   14.24138927  193.11199951    1.64999998    2.61999989
   14.24472237  182.45199585    1.64999998    2.61999989
   14.24777794  201.14199829    1.64999998    2.64000010
   14.25111103  188.80000305    1.64999998    2.61999989
   14.25333309  205.48100281    1.64999998    2.61999989
   14.25472260  201.06300354    1.64999998    2.61999989
   14.25777817  195.78500366    1.64999998    2.64000010
   14.26111126  192.19099426    1.66999996    2.64000010
   14.26722240  192.19099426    1.64999998    2.61999989
   14.27138901  214.89100647    1.64999998    2.64000010
   14.27444458  182.65699768    1.64999998    2.64000010
   14.27777767  203.15600586    1.64999998    2.61999989
   14.28083324  203.60800171    1.63000000    2.61999989
   14.28416729  204.25300598    1.63000000    2.61999989
   14.28666687  212.80799866    1.63000000    2.61999989
   14.28777790  197.05099487    1.64999998    2.61999989
   14.29083347  204.17399597    1.64999998    2.61999989
   14.29416752  181.35000610    1.64999998    2.61999989
   14.29750061  198.00700378    1.64999998    2.61999989
   14.30055618  196.17999268    1.64999998    2.64000010
   14.30388927  185.39999390    1.64999998    2.61999989
   14.31000042  185.39999390    1.64999998    2.61999989
   14.31416702  220.67399597    1.66999996    2.64000010
   14.31722260  204.85299683    1.66999996    2.61999989
   14.31999969  236.22799683    1.66999996    2.61999989
   14.32111073  219.07899475    1.66999996    2.61999989
   14.32444477  219.46299744    1.64999998    2.64000010
   14.32750034  191.78799438    1.64999998    2.61999989
   14.33083344  212.16700745    1.64999998    2.61999989
   14.33416653  225.72700500    1.64999998    2.61999989
   14.33722210  204.78900146    1.64999998    2.64000010
   14.34055519  197.60699463    1.63000000    2.61999989
   14.34361076  193.63299561    1.61000001    2.61999989
   14.34694386  226.85899353    1.63000000    2.61999989
   14.35277843  226.85899353    1.61000001    2.64000010
   14.35694504  193.31500244    1.61000001    2.61999989
   14.36027813  223.73800659    1.61000001    2.61999989
   14.36333370  235.53999329    1.61000001    2.64000010
   14.36666679  217.77900696    1.61000001    2.64000010
   14.36999989  211.52400208    1.61000001    2.64000010
   14.37305546  202.26400757    1.61000001    2.64000010
   14.37638855  202.98599243    1.61000001    2.64000010
   14.37944412  183.80499268    1.61000001    2.64000010
   14.38277817  194.04200745    1.61000001    2.61999989
   14.38611126  212.82600403    1.60000002    2.64000010
   14.38777733  201.82699585    1.60000002    2.64000010
   14.38972187  192.67799377    1.60000002    2.64000010
   14.39555550  192.67799377    1.60000002    2.64000010
   14.39972210  196.40400696    1.58000004    2.64000010
   14.40305519  196.65499878    1.58000004    2.64000010
   14.40638828  202.51699829    1.58000004    2.64000010
   14.40972137  182.38400269    1.58000004    2.64000010
   14.41277695  207.61000061    1.58000004    2.64000010
   14.41611099  184.16900635    1.58000004    2.64000010
   14.41944504  189.99299622    1.58000004    2.64000010
   14.42111111  188.06399536    1.55999994    2.64000010
   14.42305565  184.80900574    1.55999994    2.64000010
   14.42638874  198.62800598    1.55999994    2.64000010
   14.42944431  168.61500549    1.55999994    2.64000010
   14.43277836  185.43699646    1.53999996    2.61999989
   14.43861103  185.43699646    1.53999996    2.61999989
   14.44277763  168.61599731    1.53999996    2.64000010
   14.44611073  163.80400085    1.51999998    2.64000010
   14.44916630  171.83200073    1.51999998    2.64000010
   14.45249939  165.13999939    1.50000000    2.64000010
   14.45472240  170.68600464    1.50000000    2.64000010
   14.45611095  173.47999573    1.50000000    2.64000010
   14.45916653  165.64900208    1.50000000    2.64000010
   14.46249962  159.40699768    1.51999998    2.64000010
   14.46583271  168.55999756    1.51999998    2.64000010
   14.46888828  143.44700623    1.51999998    2.64000010
   14.47222137  149.10699463    1.53999996    2.64000010
   14.47527695  170.16499329    1.53999996    2.64000010
   14.48138809  170.16499329    1.55999994    2.64000010
   14.48555565  161.69200134    1.55999994    2.64000010
   14.48805618  156.75000000    1.53999996    2.64000010
   14.48916721  171.92399597    1.53999996    2.64000010
   14.49222279  177.77000427    1.53999996    2.64000010
   14.49555588  172.29200745    1.53999996    2.64000010
   14.49888897  151.88299561    1.53999996    2.64000010
   14.50194454  158.06900024    1.53999996    2.64000010
   14.50527763  159.10400391    1.53999996    2.64000010
   14.50861073  149.08399963    1.53999996    2.64000010
   14.51166630  165.11000061    1.55999994    2.64000010
   14.51500034  138.38499451    1.55999994    2.64000010
   14.51805496  183.39999390    1.55999994    2.64000010
   14.52416611  183.39999390    1.53999996    2.64000010
   14.52833271  189.65600586    1.51999998    2.64000010
   14.53166676  160.87100220    1.51999998    2.64000010
   14.53472233  176.67999268    1.50000000    2.64000010
   14.53805637  158.27299500    1.50000000    2.64000010
   14.54138947  164.39500427    1.50000000    2.64000010
   14.54444504  152.77499390    1.50000000    2.64000010
   14.54777813  166.27200317    1.48000002    2.64000010
   14.55111122  139.69900513    1.50000000    2.64000010
   14.55416679  191.74099731    1.50000000    2.64000010
   14.55500031  156.50399780    1.48000002    2.66000009
   14.55777836  169.44200134    1.48000002    2.66000009
   14.56111145  156.90199280    1.46000004    2.66000009
   14.56694412  156.90199280    1.44000006    2.66000009
   14.57111073  170.64100647    1.44000006    2.64000010
   14.57444477  156.14300537    1.46000004    2.64000010
   14.57777786  198.99299622    1.46000004    2.64000010
   14.58083344  151.85499573    1.46000004    2.64000010
   14.58416653  193.64900208    1.48000002    2.64000010
   14.58749962  159.98199463    1.61000001    2.64000010
   14.58833313  162.20100403    1.69000006    2.64000010
   14.59111118  166.34899902    1.73000002    2.66000009
   14.59444427  174.01800537    1.69000006    2.66000009
   14.59749985  169.52099609    1.58000004    2.64000010
   14.60083389  154.88600159    1.58000004    2.64000010
   14.60416698  191.71600342    1.55999994    2.64000010
   14.61000061  191.71600342    1.78999996    2.64000010
   14.61416721  163.16999817    2.05999994    2.64000010
   14.61722279  155.58799744    2.13000011    2.64000010
   14.62055588  144.53900146    2.26999998    2.61999989
   14.62194443  159.50700378    2.28999996    2.64000010
   14.62416649  151.64500427    2.23000002    2.64000010
   14.62722206  154.18899536    2.00000000    2.64000010
   14.63055611  165.00900269    1.94000006    2.64000010
   14.63388920  170.05099487    1.94000006    2.64000010
   14.63694477  154.47200012    1.88000000    2.64000010
   14.64027786  163.92199707    1.64999998    2.64000010
   14.64361095  170.68299866    1.53999996    2.64000010
   14.64666653  155.53500366    1.51999998    2.64000010
   14.65277767  155.53500366    1.50000000    2.64000010
   14.67111111  146.86599731    1.50000000    2.66000009
   14.67444515  162.84800720    1.50000000    2.66000009
   14.67750072  159.88800049    1.48000002    2.66000009
   14.68083382  147.47599792    1.46000004    2.64000010
   14.68416691  150.39199829    1.46000004    2.64000010
   14.68722248  161.10899353    1.46000004    2.64000010
   14.69055557  155.49400330    1.46000004    2.66000009
   14.69583321  155.49400330    1.44000006    2.66000009
   14.69999981  152.04299927    1.44000006    2.66000009
   14.70333290  168.34899902    1.44000006    2.66000009
   14.70416641  151.51400757    1.44000006    2.66000009
   14.70694447  138.31900024    1.44000006    2.64000010
   14.71000004  161.74299622    1.44000006    2.64000010
   14.71333313  135.58900452    1.44000006    2.64000010
   14.71666622  149.92900085    1.41999996    2.64000010
   14.71972179  170.61000061    1.41999996    2.66000009
   14.72305489  149.32099915    1.44000006    2.64000010
   14.72611046  155.98500061    1.41999996    2.64000010
   14.72944355  166.33999634    1.41999996    2.64000010
   14.73277760  152.27799988    1.41999996    2.64000010
   14.73861122  152.27799988    1.39999998    2.66000009
   14.74305534  157.81199646    1.39999998    2.66000009
   14.74638939  163.48800659    1.38000000    2.66000009
   14.74944496  165.97399902    1.38000000    2.66000009
   14.75277805  167.80299377    1.38000000    2.64000010
   14.75611115  156.00999451    1.36000001    2.66000009
   14.75944424  161.66000366    1.36000001    2.66000009
   14.76249981  166.96200562    1.36000001    2.66000009
   14.76583290  181.92999268    1.36000001    2.66000009
   14.76888847  154.32299805    1.36000001    2.66000009
   14.77083302  155.43400574    1.36000001    2.66000009
   14.77277756  138.99600220    1.36000001    2.66000009
   14.77583313  151.35099792    1.36000001    2.66000009
   14.78138828  151.35099792    1.36000001    2.66000009
   14.78555584  161.13999939    1.36000001    2.66000009
   14.78888893  162.99699402    1.36000001    2.66000009
   14.79194450  150.53700256    1.36000001    2.66000009
   14.79527855  152.90499878    1.38000000    2.66000009
   14.79861164  172.26100159    1.38000000    2.64000010
   14.80166721  165.85099792    1.38000000    2.64000010
   14.80416679  142.61900330    1.38000000    2.64000010
   14.80555534  165.18200684    1.38000000    2.66000009
   14.80861092  171.83599854    1.38000000    2.64000010
   14.81194496  173.03900146    1.38000000    2.64000010
   14.81500053  165.29100037    1.36000001    2.66000009
   14.81833363  143.46699524    1.36000001    2.64000010
   14.82444477  143.46699524    1.34000003    2.66000009
   14.82833290  164.68299866    1.34000003    2.66000009
   14.83166695  147.18899536    1.34000003    2.66000009
   14.83500004  147.06100464    1.36000001    2.66000009
   14.83749962  188.26400757    1.36000001    2.66000009
   14.83861065  154.20599365    1.38000000    2.66000009
   14.84194374  161.59199524    1.38000000    2.66000009
   14.84499931  162.05900574    1.38000000    2.66000009
   14.84833336  152.97599792    1.38000000    2.66000009
   14.85138893  154.13000488    1.36000001    2.64000010
   14.85472298  157.49099731    1.36000001    2.66000009
   14.85805607  156.62399292    1.34000003    2.66000009
   14.86111164  165.30900574    1.34000003    2.66000009
   14.86722279  165.30900574    1.34000003    2.66000009
   14.87138939  179.30499268    1.33000004    2.66000009
   14.87444496  162.35400391    1.33000004    2.66000009
   14.87777805  151.01600647    1.33000004    2.66000009
   14.88111115  145.13400269    1.33000004    2.66000009
   14.88416672  151.74600220    1.33000004    2.67000008
   14.88749981  151.73899841    1.33000004    2.67000008
   14.89083290  166.56599426    1.33000004    2.66000009
   14.89388847  154.34599304    1.34000003    2.66000009
   14.89722252  164.52900696    1.38000000    2.66000009
   14.90055561  161.48399353    1.38000000    2.66000009
   14.90361118  157.26300049    1.38000000    2.67000008
   14.90416622  153.56300354    1.38000000    2.67000008
   14.90999985  153.56300354    1.39999998    2.66000009
   14.91416645  164.84399414    1.38000000    2.67000008
   14.91750050  165.14900208    1.38000000    2.66000009
   14.92055607  151.51600647    1.36000001    2.66000009
   14.92388916  160.50300598    1.36000001    2.66000009
   14.92694473  145.91700745    1.36000001    2.66000009
   14.93027782  155.93800354    1.36000001    2.66000009
   14.93361092  158.51699829    1.36000001    2.66000009
   14.93666649  153.19000244    1.36000001    2.66000009
   14.93750000  171.56300354    1.36000001    2.66000009
   14.94055557  157.18699646    1.36000001    2.64000010
   14.94361115  157.24600220    1.36000001    2.66000009
   14.94694424  148.20500183    1.36000001    2.66000009
   14.95277786  148.20500183    1.36000001    2.66000009
   14.95694447  155.54800415    1.36000001    2.66000009
   14.96027756  141.40199280    1.36000001    2.66000009
   14.96333313  149.92900085    1.36000001    2.67000008
   14.96666622  169.86900330    1.34000003    2.66000009
   14.96999931  155.52000427    1.34000003    2.66000009
   14.97083282  158.51400757    1.34000003    2.66000009
   14.97361088  166.33299255    1.33000004    2.66000009
   14.97666645  150.49099731    1.33000004    2.66000009
   14.97999954  163.62300110    1.33000004    2.67000008
   14.98333359  152.02900696    1.33000004    2.67000008
   14.98638916  158.18699646    1.30999994    2.66000009
   14.98972225  152.65100098    1.30999994    2.66000009
   14.99583340  152.65100098    1.30999994    2.66000009
   14.99972248  157.82200623    1.30999994    2.66000009
   15.00305557  160.21099854    1.30999994    2.67000008
   15.00416660  154.73500061    1.30999994    2.67000008
   15.00666714  154.53799438    1.30999994    2.66000009
   15.00972176  169.11199951    1.30999994    2.66000009
   15.01305580  155.11199951    1.30999994    2.66000009
   15.01638889  149.71400452    1.30999994    2.66000009
   15.01944447  157.35899353    1.30999994    2.66000009
   15.02277756  158.58999634    1.30999994    2.67000008
   15.02611065  148.26300049    1.30999994    2.67000008
   15.02916622  149.81100464    1.33000004    2.67000008
   15.03249931  150.79200745    1.33000004    2.67000008
   15.03861141  150.79200745    1.33000004    2.67000008
   15.04277802  157.85099792    1.33000004    2.66000009
   15.04611111  148.34599304    1.30999994    2.67000008
   15.04916668  152.87100220    1.30999994    2.67000008
   15.05249977  149.42300415    1.30999994    2.67000008
   15.05555534  146.35499573    1.30999994    2.67000008
   15.05888939  152.17599487    1.30999994    2.67000008
   15.06222248  148.03799438    1.30999994    2.67000008
   15.06527805  151.60200500    1.30999994    2.66000009
   15.06861115  156.89999390    1.30999994    2.66000009
   15.07083321  142.60400391    1.30999994    2.66000009
   15.07222176  149.28999329    1.30999994    2.67000008
   15.07527733  149.35099792    1.30999994    2.67000008
   15.08138847  149.35099792    1.28999996    2.67000008
   15.08555508  166.33500671    1.30999994    2.67000008
   15.08888817  147.69700623    1.30999994    2.67000008
   15.09222221  152.21099854    1.33000004    2.66000009
   15.09555531  157.26600647    1.33000004    2.66000009
   15.09861088  169.41900635    1.33000004    2.66000009
   15.10194492  173.83399963    1.30999994    2.66000009
   15.10416698  151.84199524    1.30999994    2.67000008
   15.10555553  168.48599243    1.30999994    2.67000008
   15.10861111  159.58399963    1.30999994    2.67000008
   15.11194515  158.19999695    1.33000004    2.67000008
   15.11527824  147.63499451    1.33000004    2.66000009
   15.11833382  156.62199402    1.33000004    2.66000009
   15.12416649  156.62199402    1.33000004    2.67000008
   15.12833309  146.67199707    1.33000004    2.66000009
   15.13166714  145.53999329    1.33000004    2.66000009
   15.13500023  151.28799438    1.33000004    2.67000008
   15.13749981  161.08099365    1.33000004    2.67000008
   15.13861084  146.33099365    1.33000004    2.67000008
   15.14166641  158.83399963    1.33000004    2.67000008
   15.14499950  137.28500366    1.33000004    2.66000009
   15.14833355  154.44900513    1.33000004    2.67000008
   15.15138817  150.80299377    1.30999994    2.67000008
   15.15472221  152.46800232    1.30999994    2.67000008
   15.15805531  154.96899414    1.30999994    2.67000008
   15.16111088  151.64500427    1.28999996    2.67000008
   15.16722298  151.64500427    1.28999996    2.67000008
   15.17138958  149.84399414    1.28999996    2.66000009
   15.17472267  159.43200684    1.28999996    2.67000008
   15.17777824  140.33099365    1.28999996    2.66000009
   15.18111134  150.21899414    1.28999996    2.66000009
   15.18416691  141.99200439    1.30999994    2.67000008
   15.18750000  153.36799622    1.30999994    2.67000008
   15.19083309  140.07200623    1.30999994    2.67000008
   15.19388866  137.54200745    1.30999994    2.67000008
   15.19722271  136.45899963    1.30999994    2.67000008
   15.20055580  136.06799316    1.30999994    2.67000008
   15.20361137  147.71600342    1.30999994    2.67000008
   15.20416641  140.29600525    1.30999994    2.67000008
   15.21000004  140.29600525    1.30999994    2.67000008
   15.21416664  141.14199829    1.30999994    2.67000008
   15.21722221  141.31300354    1.30999994    2.67000008
   15.22055531  151.64100647    1.28999996    2.67000008
   15.22388840  152.36300659    1.28999996    2.67000008
   15.22694397  138.74800110    1.26999998    2.67000008
   15.23027706  150.14500427    1.26999998    2.67000008
   15.23333359  142.84599304    1.26999998    2.67000008
   15.23666668  157.41299438    1.26999998    2.67000008
   15.23750019  148.61099243    1.26999998    2.67000008
   15.24027824  132.49099731    1.26999998    2.67000008
   15.24333382  138.68600464    1.26999998    2.67000008
   15.24666691  138.72399902    1.26999998    2.67000008
   15.25277805  138.72399902    1.28999996    2.67000008
   15.25694466  149.63999939    1.28999996    2.67000008
   15.26027775  148.97999573    1.28999996    2.67000008
   15.26333332  137.87300110    1.28999996    2.67000008
   15.26666641  133.88699341    1.28999996    2.67000008
   15.26999950  152.38499451    1.28999996    2.67000008
   15.27083302  149.91499329    1.28999996    2.67000008
   15.27361107  134.89700317    1.28999996    2.67000008
   15.27694416  138.85499573    1.26999998    2.67000008
   15.27999973  132.95199585    1.26999998    2.67000008
   15.28333378  142.80700684    1.26999998    2.67000008
   15.28638935  129.61199951    1.26999998    2.67000008
   15.28972244  148.89500427    1.26999998    2.67000008
   15.29555607  148.89500427    1.26999998    2.67000008
   15.29972267  145.56799316    1.26999998    2.67000008
   15.30305576  147.86799622    1.26999998    2.67000008
   15.30416679  143.60699463    1.26999998    2.67000008
   15.30666733  137.22500610    1.25000000    2.67000008
   15.31000042  154.85800171    1.25000000    2.67000008
   15.31305599  146.02799988    1.25000000    2.67000008
   15.31638908  141.25599670    1.25000000    2.67000008
   15.31944466  158.13600159    1.25000000    2.67000008
   15.32277775  151.42900085    1.23000002    2.67000008
   15.32611084  146.62600708    1.23000002    2.67000008
   15.32916641  146.76899719    1.25000000    2.67000008
   15.33249950  151.21200562    1.25000000    2.67000008
   15.33861065  151.21200562    1.25000000    2.67000008
