    HOUR (UT)   FLARE FACTOR    SKY TESTER    SUN TESTER
   10.48111057   -1.00000000   -1.00000000   -1.00000000
   10.49972248  151.64799500    4.90999985    1.44000006
   10.50277805  168.47599792    4.90999985    1.44000006
   10.50611115  136.22500610    4.90999985    1.44000006
   10.50944424  180.63200378    4.90999985    1.46000004
   10.51277733  187.98100281    4.90999985    1.46000004
   10.51749992  193.86300659    4.90999985    1.46000004
   10.52083302  212.95500183    4.90999985    1.46000004
   10.52388859  206.10899353    4.90999985    1.48000002
   10.52722168  223.16400146    4.90999985    1.48000002
   10.53027725  215.90600586    4.90999985    1.48000002
   10.53249931  242.16999817    4.90999985    1.50000000
   10.53416729  250.52400208    4.90999985    1.50000000
   10.53722286  251.92799377    4.90999985    1.50000000
   10.54055595  263.77099609    4.90999985    1.50000000
   10.54388905  295.56399536    4.90999985    1.51999998
   10.54694462  264.94100952    4.90999985    1.51999998
   10.55027771  290.99398804    4.90999985    1.51999998
   10.55361176  299.95901489    4.90999985    1.51999998
   10.55666733  299.20199585    4.90999985    1.53999996
   10.56000042  290.16101074    4.90999985    1.53999996
   10.56305599  292.62600708    4.90999985    1.53999996
   10.56583309  296.79800415    4.90999985    1.55999994
   10.56694412  314.58099365    4.90999985    1.55999994
   10.56999969  320.79598999    4.90999985    1.55999994
   10.57333374  326.69400024    4.90999985    1.55999994
   10.57666683  332.34399414    4.90999985    1.55999994
   10.57972240  348.72500610    4.90999985    1.55999994
   10.58305550  326.98800659    4.90999985    1.58000004
   10.58638859  321.33801270    4.90999985    1.58000004
   10.58944416  322.50698853    4.90999985    1.58000004
   10.59277725  303.40499878    4.90999985    1.60000002
   10.59583282  299.10900879    4.90999985    1.60000002
   10.59916592  293.36801147    4.90999985    1.60000002
   10.59972191  315.78900146    4.90999985    1.60000002
   10.60277843  295.70498657    4.90999985    1.60000002
   10.60611153  297.81600952    4.90999985    1.61000001
   10.60944462  297.03201294    4.90999985    1.61000001
   10.61250019  311.42199707    4.90999985    1.61000001
   10.61583328  301.78298950    4.90999985    1.63000000
   10.61916637  297.17800903    4.90999985    1.63000000
   10.62222195  281.83898926    4.90999985    1.63000000
   10.62555599  295.68301392    4.90999985    1.63000000
   10.62861156  283.13000488    4.90999985    1.64999998
   10.63194466  296.30099487    4.90999985    1.64999998
   10.63249969  272.23400879    4.90999985    1.64999998
   10.63555527  303.72601318    4.90999985    1.64999998
   10.63861084  277.39300537    4.90999985    1.64999998
   10.64194393  270.95300293    4.90999985    1.64999998
   10.64527798  277.89898682    4.90999985    1.66999996
   10.64833355  273.61700439    4.90999985    1.66999996
   10.65166664  273.14099121    4.90999985    1.66999996
   10.65499973  282.54098511    4.90999985    1.66999996
   10.65805531  264.77398682    4.90999985    1.69000006
   10.66138840  283.51800537    4.90999985    1.69000006
   10.66444397  276.63299561    4.90999985    1.69000006
   10.66583252  273.27099609    4.90999985    1.69000006
   10.66833401  288.34698486    4.90999985    1.71000004
   10.67166710  264.79299927    4.90999985    1.71000004
   10.67472267  255.28599548    4.90999985    1.71000004
   10.67805576  263.85598755    4.90999985    1.71000004
   10.68111134  255.53199768    4.90999985    1.71000004
   10.68444443  270.98498535    4.90999985    1.71000004
   10.68777752  274.12600708    4.90999985    1.71000004
   10.69083309  237.30299377    4.90999985    1.73000002
   10.69416714  232.50799561    4.90999985    1.73000002
   10.69750023  249.57200623    4.90999985    1.73000002
   10.69916630  255.94799805    4.90999985    1.75000000
   10.70111084  238.84300232    4.90999985    1.75000000
   10.70444393  245.17199707    4.90999985    1.75000000
   10.70749950  266.02099609    4.90999985    1.75000000
   10.71083355  246.87500000    4.90999985    1.75000000
   10.71388912  242.40100098    4.90999985    1.75000000
   10.71722221  281.95999146    4.90999985    1.75000000
   10.72055531  253.63200378    4.90999985    1.75000000
   10.72361088  249.51800537    4.90999985    1.75000000
   10.72694397  232.51899719    4.90999985    1.75000000
   10.73027706  231.06300354    4.90999985    1.75000000
   10.73249912  239.59899902    4.90999985    1.76999998
   10.73388958  232.07800293    4.90999985    1.76999998
   10.73722267  221.03500366    4.90999985    1.76999998
   10.74027824  227.20599365    4.90999985    1.76999998
   10.74361134  233.18099976    4.90999985    1.78999996
   10.74666691  222.43899536    4.90999985    1.78999996
   10.75000000  223.08200073    4.90999985    1.78999996
   10.75333309  231.61500549    4.90999985    1.78999996
   10.75638866  220.25999451    4.90999985    1.78999996
   10.75972176  217.86199951    4.90999985    1.78999996
   10.76305580  247.44000244    4.90999985    1.80999994
   10.76583290  220.01499939    4.90999985    1.78999996
   10.76666641  226.13499451    4.90999985    1.80999994
   10.76972198  231.61300659    4.90999985    1.80999994
   10.77305508  226.10299683    4.90999985    1.80999994
   10.77638817  227.83700562    4.90999985    1.80999994
   10.77944374  224.22200012    4.90999985    1.83000004
   10.78277779  224.73100281    4.90999985    1.83000004
   10.78611183  229.34399414    4.90999985    1.83000004
   10.78916740  218.52799988    4.90999985    1.83000004
   10.79250050  231.60899353    4.90999985    1.83000004
   10.79555607  205.33999634    4.90999985    1.83000004
   10.79888916  218.67199707    4.90999985    1.83000004
   10.79944515  219.14300537    4.90999985    1.83000004
   10.80277824  201.33299255    4.90999985    1.83000004
   10.80583382  227.08399963    4.90999985    1.85000002
   10.80916691  223.91799927    4.90999985    1.83000004
   10.81222248  211.74099731    4.90999985    1.85000002
   10.81555557  218.37800598    4.90999985    1.85000002
   10.81888866  215.33799744    4.90999985    1.85000002
   10.82194424  213.85099792    4.90999985    1.85000002
   10.82527733  215.19700623    4.90999985    1.86000001
   10.82861137  209.26499939    4.90999985    1.86000001
   10.83166695  209.48899841    4.90999985    1.86000001
   10.83277798  208.96699524    4.90999985    1.86000001
   10.83555508  219.02699280    4.90999985    1.86000001
   10.83861065  198.53599548    4.90999985    1.86000001
   10.84194374  207.32600403    4.90999985    1.88000000
   10.84499931  216.59899902    4.90999985    1.86000001
   10.84833336  212.78599548    4.90999985    1.88000000
   10.85166740  206.32899475    4.90999985    1.86000001
   10.85472298  216.43600464    4.90999985    1.88000000
   10.85805607  200.83999634    4.90999985    1.88000000
   10.86138916  216.27999878    4.90999985    1.88000000
   10.86444473  194.25799561    4.90999985    1.89999998
   10.86611176  205.35499573    4.90999985    1.89999998
   10.86833382  203.25500488    4.90999985    1.89999998
   10.87138939  195.89799500    4.90999985    1.89999998
   10.87472248  194.72300720    4.90999985    1.89999998
   10.87777805  205.21099854    4.90999985    1.91999996
   10.88111115  208.38600159    4.90999985    1.91999996
   10.88444424  195.19299316    4.90999985    1.89999998
   10.88749981  208.85899353    4.90999985    1.91999996
   10.89083290  198.99400330    4.90999985    1.91999996
   10.89416695  202.96200562    4.90999985    1.91999996
   10.89722252  203.30799866    4.90999985    1.94000006
   10.89944458  199.45100403    4.90999985    1.91999996
   10.90111065  195.77200317    4.90999985    1.94000006
   10.90416622  198.04800415    4.90999985    1.94000006
   10.90749931  207.67300415    4.90999985    1.94000006
   10.91055489  194.80900574    4.90999985    1.94000006
   10.91388893  190.99000549    4.90999985    1.94000006
   10.91722298  197.63999939    4.90999985    1.94000006
   10.92027855  207.28399658    4.90999985    1.94000006
   10.92361164  190.89199829    4.90999985    1.94000006
   10.92694473  195.67199707    4.90999985    1.94000006
   10.93000031  196.11000061    4.90999985    1.94000006
   10.93277836  191.48800659    4.90999985    1.96000004
   10.93388939  207.21600342    4.90999985    1.96000004
   10.93694496  190.81500244    4.90999985    1.96000004
   10.94027805  202.05900574    4.90999985    1.96000004
   10.94361115  200.12399292    4.90999985    1.96000004
   10.94666672  185.51400757    4.90999985    1.98000002
   10.94999981  202.22900391    4.90999985    1.98000002
   10.95305538  190.45700073    4.90999985    1.98000002
   10.95638847  206.17199707    4.90999985    1.98000002
   10.95972157  189.75300598    4.90999985    1.98000002
   10.96277714  190.92799377    4.90999985    1.98000002
   10.96611118  187.63699341    4.90999985    1.98000002
   10.96666622  184.55900574    4.90999985    1.98000002
   10.96972179  203.59399414    4.90999985    2.00000000
   10.97305489  189.87199402    4.90999985    1.98000002
   10.97638798  196.23699951    4.90999985    2.00000000
   10.97944355  195.50900269    4.90999985    2.00000000
   10.98277760  186.89300537    4.90999985    2.00000000
   10.98583317  184.33799744    4.90999985    2.00000000
   10.98916721  186.14199829    4.90999985    2.00000000
   10.99250031  183.48899841    4.90999985    2.00000000
   10.99555588  185.37800598    4.90999985    2.00000000
   10.99888897  186.91499329    4.90999985    2.00000000
   10.99944496  193.00199890    4.90999985    2.00000000
   11.00249958  195.60899353    4.90999985    2.00000000
   11.00555515  183.67500305    4.90999985    2.00000000
   11.00888920  199.35000610    4.90999985    2.00000000
   11.01222229  183.42100525    4.90999985    2.01999998
   11.01527786  179.27099609    4.90999985    2.01999998
   11.01861095  201.33299255    4.90999985    2.01999998
   11.02166653  185.24699402    4.90999985    2.01999998
   11.02499962  196.17700195    4.90999985    2.01999998
   11.02833271  182.89799500    4.90999985    2.03999996
   11.03138828  177.27299500    4.90999985    2.03999996
   11.03277779  182.48100281    4.90999985    2.03999996
   11.03527832  183.48399353    4.90999985    2.03999996
   11.03833389  181.18800354    4.90999985    2.03999996
   11.04166698  180.87899780    4.90999985    2.03999996
   11.04472256  185.49099731    4.90999985    2.05999994
   11.04805565  183.98199463    4.90999985    2.05999994
   11.05138874  178.92199707    4.90999985    2.05999994
   11.05444431  184.59300232    4.90999985    2.05999994
   11.05777836  183.49000549    4.90999985    2.05999994
   11.06111145  176.11999512    4.90999985    2.05999994
   11.06416702  182.66799927    4.90999985    2.05999994
   11.06611156  181.63000488    4.90999985    2.05999994
   11.06805515  185.98300171    4.90999985    2.05999994
   11.07111073  184.80400085    4.90999985    2.05999994
   11.07444477  183.23800659    4.90999985    2.05999994
   11.07750034  175.99400330    4.90999985    2.05999994
   11.08083344  186.95300293    4.90999985    2.05999994
   11.08416653  179.07000732    4.90999985    2.05999994
   11.08749962  176.30900574    4.90999985    2.07999992
   11.09055519  156.10200500    4.90999985    2.07999992
   11.09388828  183.68400574    4.90999985    2.07999992
   11.09722233  174.83900452    4.90999985    2.07999992
   11.09944439  174.36999512    4.90999985    2.07999992
   11.10083389  174.14199829    4.90999985    2.09999990
   11.10388947  171.84300232    4.90999985    2.09999990
   11.10722256  184.20599365    4.90999985    2.07999992
   11.11055565  177.62699890    4.90999985    2.09999990
   11.11361122  171.37500000    4.90999985    2.09999990
   11.11694431  169.94599915    4.90999985    2.09999990
   11.11999989  169.67999268    4.90999985    2.09999990
   11.12333393  174.05400085    4.90999985    2.09999990
   11.12666702  165.71200562    4.90999985    2.09999990
   11.12972260  183.37899780    4.90999985    2.09999990
   11.13277817  166.33900452    4.90999985    2.09999990
   11.13361073  173.18600464    4.90999985    2.09999990
   11.13666630  182.82200623    4.90999985    2.09999990
   11.14000034  167.94500732    4.90999985    2.09999990
   11.14305496  175.40100098    4.90999985    2.11999989
   11.14638901  172.64199829    4.90999985    2.11999989
   11.14972210  174.93200684    4.90999985    2.11999989
   11.15277767  170.12399292    4.90999985    2.11999989
   11.15611076  171.61700439    4.90999985    2.11999989
   11.15944386  172.27799988    4.90999985    2.11999989
   11.16249943  178.82899475    4.90999985    2.11999989
   11.16583252  172.36599731    4.90999985    2.11999989
   11.16638851  172.38699341    4.90999985    2.11999989
   11.16944504  171.56900024    4.90999985    2.11999989
   11.17277813  170.73199463    4.90999985    2.11999989
   11.17611122  167.51899719    4.90999985    2.11999989
   11.17916679  165.06799316    4.90999985    2.11999989
   11.18249989  165.07099915    4.90999985    2.13000011
   11.18555546  167.64500427    4.90999985    2.13000011
   11.18888855  165.63499451    4.90999985    2.13000011
   11.19222260  160.22500610    4.90999985    2.13000011
   11.19527817  165.71099854    4.90999985    2.11999989
   11.19861126  165.15199280    4.90999985    2.13000011
   11.19972229  167.97900391    4.90999985    2.13000011
   11.20222187  167.71699524    4.90999985    2.13000011
   11.20555496  172.01199341    4.90999985    2.13000011
   11.20861053  165.75000000    4.90999985    2.15000010
   11.21194458  164.66299438    4.90999985    2.13000011
   11.21527767  163.27200317    4.90999985    2.15000010
   11.21833324  165.02200317    4.90999985    2.15000010
   11.22166634  160.57099915    4.90999985    2.15000010
   11.22499943  165.56100464    4.90999985    2.15000010
   11.22805500  162.09500122    4.90999985    2.17000008
   11.23138809  165.28199768    4.90999985    2.17000008
   11.23305511  167.40600586    4.90999985    2.17000008
   11.23500061  172.58200073    4.90999985    2.17000008
   11.23833370  158.85099792    4.90999985    2.17000008
   11.24166679  166.10600281    4.90999985    2.17000008
   11.24472237  162.65800476    4.90999985    2.17000008
   11.24805546  156.60200500    4.90999985    2.17000008
   11.25111103  162.89599609    4.90999985    2.17000008
   11.25444412  158.36500549    4.90999985    2.17000008
   11.25777817  158.82200623    4.90999985    2.17000008
   11.26083374  164.24800110    4.90999985    2.17000008
   11.26416683  169.35899353    4.90999985    2.17000008
   11.26638889  168.04100037    4.90999985    2.17000008
   11.26777744  171.10800171    4.90999985    2.17000008
   11.27111053  165.45300293    4.90999985    2.17000008
   11.27416611  162.45100403    4.90999985    2.17000008
   11.27750015  161.29299927    4.90999985    2.17000008
   11.28083324  159.75599670    4.90999985    2.17000008
   11.28388977  168.66900635    4.90999985    2.19000006
   11.28722286  159.35000610    4.90999985    2.19000006
   11.29055595  162.00599670    4.90999985    2.19000006
   11.29361153  157.74400330    4.90999985    2.19000006
   11.29694462  154.40499878    4.90999985    2.19000006
   11.29972267  154.83700562    4.90999985    2.19000006
   11.30027771  156.75999451    4.90999985    2.19000006
   11.30361176  164.01699829    4.90999985    2.19000006
   11.30666733  162.02200317    4.90999985    2.19000006
   11.31000042  157.14100647    4.90999985    2.19000006
   11.31333351  159.39999390    4.90999985    2.19000006
   11.31638908  158.05299377    4.90999985    2.19000006
   11.31972218  160.02499390    4.90999985    2.19000006
   11.32305527  159.44099426    4.90999985    2.21000004
   11.32611084  160.05799866    4.90999985    2.21000004
   11.32944393  164.13999939    4.90999985    2.21000004
   11.33249950  162.19500732    4.90999985    2.21000004
   11.33305550  166.06900024    4.90999985    2.21000004
   11.33611107  163.20300293    4.90999985    2.21000004
   11.33916664  158.72599792    4.90999985    2.21000004
   11.34249973  158.28100586    4.90999985    2.21000004
   11.34583282  158.55400085    4.90999985    2.23000002
   11.34888840  154.55999756    4.90999985    2.23000002
   11.35222244  155.98300171    4.90999985    2.21000004
   11.35555553  155.98800659    4.90999985    2.23000002
   11.35861111  159.03300476    4.90999985    2.23000002
   11.36194515  155.04800415    4.90999985    2.23000002
   11.36500072  154.41499329    4.90999985    2.25000000
   11.36638927  152.71099854    4.90999985    2.25000000
   11.36888885  160.03799438    4.90999985    2.25000000
   11.37222195  151.67500305    4.90999985    2.23000002
   11.37527752  153.61500549    4.90999985    2.25000000
   11.37861156  151.86599731    4.90999985    2.25000000
   11.38166714  153.61399841    4.90999985    2.25000000
   11.38500023  149.54400635    4.90999985    2.25000000
   11.38833332  149.44799805    4.90999985    2.25000000
   11.39138889  148.39399719    4.90999985    2.26999998
   11.39472198  159.79400635    4.90999985    2.26999998
   11.39805508  161.86399841    4.90999985    2.25000000
   11.39972210  155.81300354    4.90999985    2.25000000
   11.40166664  159.59700012    4.90999985    2.25000000
   11.40499973  162.20199585    4.90999985    2.25000000
   11.40805531  156.36599731    4.90999985    2.25000000
   11.41138840  157.97500610    4.90999985    2.25000000
   11.41444397  154.45399475    4.90999985    2.25000000
   11.41777802  155.80400085    4.90999985    2.26999998
   11.42111111  159.42700195    4.90999985    2.26999998
   11.42416668  155.65100098    4.90999985    2.25000000
   11.42750072  152.96000671    4.90999985    2.25000000
   11.43083382  153.65899658    4.90999985    2.26999998
   11.43305588  151.79600525    4.90999985    2.25000000
   11.43444443  157.74200439    4.90999985    2.25000000
   11.43777752  151.76800537    4.90999985    2.25000000
   11.44083309  157.36199951    4.90999985    2.26999998
   11.44416714  149.03599548    4.90999985    2.25000000
   11.44722271  150.66099548    4.90999985    2.26999998
   11.45055580  149.65199280    4.90999985    2.26999998
   11.45388889  161.69700623    4.90999985    2.26999998
   11.45694447  149.79200745    4.90999985    2.26999998
   11.46027756  157.54400635    4.90999985    2.26999998
   11.46361065  156.83999634    4.90999985    2.25000000
   11.46638870  156.85000610    4.90999985    2.26999998
   11.46722221  161.42300415    4.90999985    2.26999998
   11.47055531  159.01600647    4.90999985    2.26999998
   11.47361088  153.96400452    4.90999985    2.26999998
   11.47694397  153.65299988    4.90999985    2.26999998
   11.47999954  157.53799438    4.90999985    2.26999998
   11.48333359  151.69799805    4.90999985    2.26999998
   11.48666668  152.99499512    4.90999985    2.26999998
   11.48972225  150.92500305    4.90999985    2.28999996
   11.49305534  149.00799561    4.90999985    2.28999996
   11.49638939  156.46299744    4.90999985    2.28999996
   11.51583290  148.04200745    4.90999985    2.30999994
   11.51638889  153.94500732    4.90999985    2.30999994
   11.51972198  149.48500061    4.84999990    2.30999994
   11.52277756  153.33099365    4.80999994    2.32999992
   11.52611065  155.89399719    4.78000021    2.32999992
   11.52944374  151.22500610    4.73999977    2.32999992
   11.53249931  156.67300415    4.76000023    2.30999994
   11.53583336  156.13999939    4.76000023    2.32999992
   11.53888893  149.60800171    4.80000019    2.32999992
   11.54222298  150.52499390    4.80000019    2.32999992
   11.54555607  151.21899414    4.80999994    2.30999994
   11.54861164  151.66000366    4.86999989    2.32999992
   11.54972267  152.62199402    4.90999985    2.32999992
   11.55249977  157.68600464    4.90999985    2.32999992
   11.55555534  156.30299377    4.90999985    2.32999992
   11.55888939  150.75000000    4.90999985    2.32999992
   11.56222248  150.43299866    4.90999985    2.32999992
   11.56527805  153.61799622    4.90999985    2.32999992
   11.56861115  146.80200195    4.90999985    2.30999994
   11.57166672  149.39799500    4.90999985    2.30999994
   11.57499981  147.18699646    4.90999985    2.32999992
   11.57833290  146.86099243    4.90999985    2.32999992
   11.58138847  149.66700745    4.90999985    2.32999992
   11.58305550  146.00100708    4.90999985    2.32999992
   11.58527756  151.17500305    4.90999985    2.32999992
   11.58833313  159.85000610    4.90999985    2.32999992
   11.59166622  153.72000122    4.90999985    2.34999990
   11.59499931  157.00599670    4.90999985    2.32999992
   11.59805489  156.66499329    4.90999985    2.32999992
   11.60138893  152.28399658    4.90999985    2.32999992
   11.60444450  150.19700623    4.88999987    2.32999992
   11.60777855  150.30299377    4.86999989    2.32999992
   11.61111164  152.75000000    4.82999992    2.32999992
   11.61416721  147.05099487    4.80999994    2.34999990
   11.61638927  146.40899658    4.82999992    2.34999990
   11.61805534  145.05999756    4.80000019    2.34999990
   11.62111092  149.18699646    4.80999994    2.34999990
   11.62444496  150.09100342    4.80999994    2.36999989
   11.62777805  151.68200684    4.82999992    2.34999990
   11.63083363  149.40100098    4.82999992    2.34999990
   11.63416672  148.61500549    4.84999990    2.34999990
   11.63722229  146.87600708    4.86999989    2.34999990
   11.64055538  147.05299377    4.88999987    2.34999990
   11.64388847  153.58700562    4.90999985    2.34999990
   11.64694405  152.50999451    4.90999985    2.34999990
   11.64972210  150.75199890    4.90999985    2.34999990
   11.65083313  150.03999329    4.90999985    2.36999989
   11.65388870  144.91400146    4.90999985    2.36999989
   11.65722179  142.89599609    4.90999985    2.36999989
   11.66055489  153.10899353    4.90999985    2.36999989
   11.66361046  150.08099365    4.90999985    2.36999989
   11.66694450  152.00199890    4.90999985    2.36999989
   11.67000008  146.73899841    4.90999985    2.36999989
   11.67333412  137.49400330    4.90999985    2.36999989
   11.67666721  155.23599243    4.90999985    2.36999989
   11.67972279  147.24000549    4.90999985    2.36999989
   11.68305588  151.08700562    4.90999985    2.36999989
   11.68361092  147.22099304    4.90999985    2.36999989
   11.68666649  151.59899902    4.90999985    2.36999989
   11.69000053  155.94299316    4.88999987    2.39000010
   11.69333363  146.02099609    4.86999989    2.39000010
   11.69638920  145.59399414    4.80999994    2.39000010
   11.69972229  149.78399658    4.82999992    2.36999989
   11.70277786  142.03300476    4.80000019    2.39000010
   11.70611095  145.56799316    4.76000023    2.36999989
   11.70944405  147.09700012    4.73999977    2.39000010
   11.71249962  148.82099915    4.63999987    2.39000010
   11.71583271  144.43099976    4.63999987    2.39000010
   11.71638870  148.31300354    4.63999987    2.39000010
   11.71944427  150.98800659    4.61999989    2.39000010
   11.72249985  148.46800232    4.61999989    2.40000010
   11.72583294  151.30000305    4.61999989    2.40000010
   11.72916603  145.69099426    4.67999983    2.40000010
   11.73222160  147.02699280    4.73999977    2.40000010
   11.73555565  145.54699707    4.80999994    2.40000010
   11.73888874  147.22799683    4.82999992    2.40000010
   11.74194431  144.96800232    4.84999990    2.40000010
   11.74527836  151.30200195    4.86999989    2.40000010
   11.74833393  147.12300110    4.90999985    2.40000010
   11.74972248  142.70500183    4.90999985    2.40000010
   11.75222206  147.80000305    4.90999985    2.40000010
   11.75527763  142.50799561    4.88999987    2.39000010
   11.75861073  145.11199951    4.90999985    2.40000010
   11.76194477  144.38900757    4.88999987    2.40000010
   11.76500034  146.26800537    4.88999987    2.40000010
   11.76833344  151.70799255    4.84999990    2.40000010
   11.77166653  151.41000366    4.80999994    2.40000010
   11.77472210  156.20300293    4.76000023    2.40000010
   11.77805519  157.80099487    4.71999979    2.40000010
   11.78111076  154.06300354    4.71999979    2.42000008
   11.78305531  161.06300354    4.67999983    2.40000010
   11.78500080  154.86799622    4.65999985    2.40000010
   11.78805637  156.49499512    4.65999985    2.42000008
   11.79138947  150.82899475    4.67999983    2.40000010
   11.79472256  151.99600220    4.69999981    2.40000010
   11.79777813  142.86799622    4.69999981    2.42000008
   11.80111122  155.50599670    4.67999983    2.40000010
   11.80416679  144.77400208    4.67999983    2.42000008
   11.80749989  148.41999817    4.71999979    2.40000010
   11.81083393  147.47300720    4.76000023    2.40000010
   11.81388950  153.37300110    4.76000023    2.42000008
   11.81638908  149.30099487    4.82999992    2.42000008
   11.81777763  143.31599426    4.80000019    2.42000008
   11.82083321  148.98800659    4.80999994    2.42000008
   11.82416630  145.86000061    4.80000019    2.44000006
   11.82750034  140.48300171    4.82999992    2.42000008
   11.83055592  146.34100342    4.88999987    2.42000008
   11.83388901  142.98699951    4.88999987    2.44000006
   11.83722210  148.42900085    4.90999985    2.42000008
   11.84027767  152.19400024    4.90999985    2.44000006
   11.84361076  149.52799988    4.90999985    2.44000006
   11.84666634  150.62500000    4.90999985    2.44000006
   11.84972191  160.56900024    4.86999989    2.42000008
   11.85027790  152.74600220    4.86999989    2.42000008
   11.85361195  150.16900635    4.90999985    2.44000006
   11.85666752  146.53500366    4.90999985    2.44000006
   11.86000061  146.24600220    4.90999985    2.44000006
   11.86333370  147.26100159    4.86999989    2.44000006
   11.86638927  144.10099792    4.84999990    2.44000006
   11.86972237  150.11399841    4.76000023    2.44000006
   11.87277794  146.66200256    4.78000021    2.44000006
   11.87611103  145.38299561    4.65999985    2.44000006
   11.87944412  152.75799561    4.67999983    2.44000006
   11.88249969  148.62800598    4.67999983    2.44000006
   11.88305569  145.61500549    4.63999987    2.44000006
   11.88611126  150.86599731    4.59999990    2.46000004
   11.88944435  146.75399780    4.59999990    2.44000006
   11.89249992  143.74299622    4.63999987    2.44000006
   11.89583302  148.10099792    4.67999983    2.44000006
   11.89916611  144.34899902    4.69999981    2.44000006
   11.90222168  147.16600037    4.73999977    2.44000006
   11.90555477  142.35200500    4.78000021    2.44000006
   11.90861034  148.14399719    4.82999992    2.44000006
   11.91194439  148.77600098    4.84999990    2.44000006
   11.91527748  146.17300415    4.82999992    2.44000006
   11.91638851  153.01800537    4.88999987    2.46000004
   11.91888905  151.34700012    4.88999987    2.46000004
   11.92222214  147.57000732    4.90999985    2.46000004
   11.92527771  148.92900085    4.90999985    2.44000006
   11.92861176  150.09500122    4.90999985    2.46000004
   11.93194485  147.61199951    4.90999985    2.46000004
   11.93500042  145.21099854    4.90999985    2.46000004
   11.93833351  146.61799622    4.90999985    2.44000006
   11.94166660  148.22599792    4.90999985    2.44000006
   11.94472218  146.65199280    4.90999985    2.46000004
   11.94805527  145.32499695    4.90999985    2.44000006
   11.94972229  144.44200134    4.90999985    2.46000004
   11.95166683  144.94999695    4.90999985    2.46000004
   11.95499992  145.83500671    4.90999985    2.46000004
   11.95805550  143.99600220    4.90999985    2.46000004
   11.96138859  143.99400330    4.90999985    2.44000006
   11.96472168  144.06100464    4.88999987    2.48000002
   11.96777725  148.91700745    4.82999992    2.46000004
   11.97111034  149.24899292    4.80000019    2.48000002
   11.97416592  148.55400085    4.76000023    2.46000004
   11.97749996  147.48500061    4.80000019    2.48000002
   11.98083305  143.90299988    4.80999994    2.48000002
   11.98333359  150.75500488    4.88999987    2.46000004
   11.98444462  158.50799561    4.84999990    2.48000002
   11.98777771  154.14399719    4.84999990    2.48000002
   11.99083328  156.10200500    4.88999987    2.46000004
   11.99416733  150.52900696    4.90999985    2.48000002
   11.99750042  144.30200195    4.90999985    2.48000002
   12.00055599  146.99400330    4.90999985    2.46000004
   12.00388908  155.56199646    4.90999985    2.46000004
   12.00722218  154.94400024    4.90999985    2.48000002
   12.01027775  147.69700623    4.90999985    2.48000002
   12.01361084  146.54400635    4.90999985    2.48000002
   12.01638889  148.45100403    4.90999985    2.48000002
   12.01722240  148.16099548    4.90999985    2.48000002
   12.02055550  148.36199951    4.90999985    2.48000002
   12.02361107  148.89900208    4.90999985    2.48000002
   12.02694416  147.60499573    4.90999985    2.48000002
   12.03027725  142.14399719    4.90999985    2.48000002
   12.03333378  142.00999451    4.90999985    2.48000002
   12.03666687  143.28999329    4.90999985    2.50000000
   12.03972244  147.93899536    4.90999985    2.48000002
   12.04305553  146.08900452    4.90999985    2.48000002
   12.04638958  137.96400452    4.88999987    2.48000002
   12.04944515  142.65800476    4.84999990    2.50000000
   12.05000019  144.40600586    4.84999990    2.50000000
   12.05333328  143.05299377    4.76000023    2.48000002
   12.05638885  150.40199280    4.73999977    2.50000000
   12.05972195  146.44500732    4.76000023    2.50000000
   12.06305599  147.42199707    4.63999987    2.51999998
   12.06611156  146.81199646    4.63999987    2.50000000
   12.06944466  143.54899597    4.67999983    2.50000000
   12.07250023  148.59399414    4.76000023    2.50000000
   12.07583332  144.79299927    4.76000023    2.50000000
   12.07916641  150.26300049    4.78000021    2.50000000
   12.08222198  147.49299622    4.78000021    2.50000000
   12.08333302  149.02099609    4.82999992    2.50000000
   12.08583260  143.51699829    4.88999987    2.51999998
   12.08888817  140.60899353    4.90999985    2.50000000
   12.09222221  140.84199524    4.90999985    2.50000000
   12.09555531  144.95100403    4.90999985    2.50000000
   12.09861088  146.27400208    4.90999985    2.48000002
   12.10194492  142.55799866    4.90999985    2.51999998
   12.10527802  143.36999512    4.90999985    2.50000000
   12.10833359  138.77900696    4.90999985    2.50000000
   12.11166668  142.65699768    4.90999985    2.48000002
   12.11500072  141.44999695    4.90999985    2.50000000
   12.11666679  140.49299622    4.90999985    2.50000000
   12.11861134  137.98899841    4.90999985    2.50000000
   12.12166691  139.48399353    4.90999985    2.50000000
   12.12500000  143.65199280    4.90999985    2.50000000
   12.12833309  144.80599976    4.90999985    2.50000000
   12.13138866  143.17900085    4.90999985    2.50000000
   12.13472176  135.26300049    4.90999985    2.50000000
   12.13805580  144.30299377    4.90999985    2.51999998
   12.14111137  144.96400452    4.90999985    2.51999998
   12.14444447  136.55999756    4.90999985    2.51999998
   12.14750004  149.23899841    4.90999985    2.50000000
   12.14999962  141.56199646    4.90999985    2.51999998
   12.15138817  143.27699280    4.86999989    2.51999998
   12.15444374  146.94799805    4.86999989    2.51999998
   12.15777779  144.03900146    4.84999990    2.51999998
   12.16111088  141.04600525    4.82999992    2.51999998
   12.16416645  138.07600403    4.82999992    2.53999996
   12.16750050  139.79800415    4.80000019    2.51999998
   12.17055607  138.54200745    4.90999985    2.51999998
   12.17388916  141.23300171    4.90999985    2.51999998
   12.17722225  141.70100403    4.90999985    2.51999998
   12.18027782  136.05200195    4.90999985    2.53999996
   12.18333340  138.05099487    4.90999985    2.51999998
   12.18388939  140.50500488    4.90999985    2.51999998
   12.18722248  145.26300049    4.90999985    2.51999998
   12.19027805  141.94700623    4.90999985    2.51999998
   12.19361115  140.57400513    4.90999985    2.51999998
   12.19694424  137.46699524    4.90999985    2.53999996
   12.19999981  140.36500549    4.90999985    2.51999998
   12.20333290  146.38299561    4.90999985    2.53999996
   12.20638847  142.89500427    4.90999985    2.53999996
   12.20972157  141.33099365    4.90999985    2.53999996
   12.21305561  141.66400146    4.90999985    2.53999996
   12.21611118  142.00900269    4.90999985    2.51999998
   12.21666622  140.16499329    4.90999985    2.53999996
   12.21972179  133.00100708    4.90999985    2.51999998
   12.22277737  139.95199585    4.90999985    2.53999996
   12.22611046  142.28999329    4.90999985    2.53999996
   12.22944355  138.23399353    4.90999985    2.53999996
   12.23249912  135.61500549    4.90999985    2.53999996
   12.23583317  138.46200562    4.90999985    2.53999996
   12.23916721  137.89900208    4.90999985    2.53999996
   12.24222279  137.76400757    4.90999985    2.53999996
   12.24555588  137.86099243    4.90999985    2.53999996
   12.24861145  142.89900208    4.90999985    2.55999994
   12.25000000  142.57299805    4.90999985    2.55999994
   12.25249958  146.33399963    4.90999985    2.55999994
   12.25555515  143.33000183    4.90999985    2.53999996
   12.25888920  141.19500732    4.90999985    2.55999994
   12.26222229  132.29600525    4.90999985    2.55999994
   12.26527786  141.78900146    4.90999985    2.55999994
   12.26861095  136.46600342    4.90999985    2.55999994
   12.27194405  148.62300110    4.90999985    2.55999994
   12.27499962  144.84199524    4.90999985    2.57999992
   12.27833271  139.60800171    4.90999985    2.53999996
   12.28138828  143.65699768    4.90999985    2.55999994
   12.28333378  141.90800476    4.90999985    2.55999994
   12.28527832  141.77699280    4.90999985    2.55999994
   12.28833389  142.31900024    4.90999985    2.55999994
   12.29166698  139.41900635    4.90999985    2.55999994
   12.29500008  138.37399292    4.90999985    2.55999994
   12.29805565  142.05000305    4.90999985    2.55999994
   12.30138874  138.29600525    4.90999985    2.55999994
   12.30472279  142.57000732    4.90999985    2.55999994
   12.30777836  137.82800293    4.90999985    2.55999994
   12.31111145  137.81199646    4.90999985    2.55999994
   12.31416702  138.45100403    4.90999985    2.55999994
   12.31666660  140.37100220    4.90999985    2.55999994
   12.31805515  138.72999573    4.90999985    2.57999992
   12.32111073  139.38299561    4.90999985    2.55999994
   12.32444477  138.47700500    4.90999985    2.55999994
   12.32777786  138.19999695    4.90999985    2.55999994
   12.33083344  140.91099548    4.90999985    2.55999994
   12.33416653  136.52400208    4.90999985    2.55999994
   12.33749962  142.14700317    4.90999985    2.57999992
   12.34055519  139.02299500    4.90999985    2.57999992
   12.34388828  141.44099426    4.90999985    2.57999992
   12.34694386  139.48399353    4.90999985    2.55999994
   12.35000038  148.17799377    4.90999985    2.55999994
   12.35083389  140.09399414    4.90999985    2.55999994
   12.35388947  140.93400574    4.90999985    2.57999992
   12.35722256  137.88600159    4.90999985    2.55999994
   12.36055565  139.15800476    4.90999985    2.57999992
   12.36361122  137.24600220    4.90999985    2.55999994
   12.36694431  140.31599426    4.90999985    2.59999990
   12.37027836  147.11300659    4.90999985    2.57999992
   12.37333393  139.20799255    4.90999985    2.59999990
   12.37666702  145.84800720    4.90999985    2.59999990
   12.37972260  134.04400635    4.90999985    2.59999990
   12.38305569  141.89500427    4.90999985    2.59999990
   12.38361073  142.47200012    4.90999985    2.57999992
   12.38666630  138.17199707    4.90999985    2.59999990
   12.39000034  135.57400513    4.90999985    2.59999990
   12.39333344  134.80999756    4.90999985    2.59999990
   12.39638901  139.97000122    4.90999985    2.59999990
   12.39972210  142.65800476    4.90999985    2.59999990
   12.40305519  142.73500061    4.90999985    2.59999990
   12.40611076  141.18499756    4.90999985    2.59999990
   12.40944386  146.33900452    4.90999985    2.59999990
   12.41249943  146.12699890    4.90999985    2.57999992
   12.41583252  143.28599548    4.90999985    2.59999990
   12.41694450  147.70899963    4.90999985    2.59999990
   12.41916656  143.03599548    4.90999985    2.57999992
   12.42250061  142.84399414    4.90999985    2.59999990
   12.42583370  146.53799438    4.90999985    2.59999990
   12.42888927  145.10499573    4.90999985    2.57999992
   12.43222237  143.48599243    4.90999985    2.59999990
   12.43555546  141.21400452    4.90999985    2.59999990
   12.43861103  137.40600586    4.90999985    2.59999990
   12.44194412  148.34500122    4.90999985    2.59999990
   12.44499969  140.30299377    4.90999985    2.59999990
   12.44833374  143.31799316    4.90999985    2.57999992
   12.45027733  147.10800171    4.90999985    2.59999990
   12.45194435  144.72000122    4.90999985    2.59999990
   12.45527744  138.68499756    4.90999985    2.59999990
   12.45861053  138.73199463    4.90999985    2.59999990
   12.46166611  138.45599365    4.90999985    2.61999989
   12.46500015  135.50300598    4.90999985    2.61999989
   12.46833324  143.32600403    4.90999985    2.59999990
   12.47138882  140.93499756    4.90999985    2.61999989
   12.47472191  140.15100098    4.90999985    2.59999990
   12.47777748  141.66099548    4.90999985    2.59999990
   12.48111057  135.71400452    4.90999985    2.59999990
   12.48361111  143.77999878    4.90999985    2.59999990
   12.48500061  144.40100098    4.90999985    2.59999990
   12.48805618  147.21899414    4.90999985    2.59999990
   12.49138927  143.21200562    4.90999985    2.59999990
   12.49444485  142.68499756    4.90999985    2.59999990
   12.49777794  145.99699402    4.90999985    2.61999989
   12.50111103  142.17599487    4.90999985    2.59999990
   12.50416660  146.08099365    4.90999985    2.59999990
   12.50749969  142.74600220    4.90999985    2.59999990
   12.51083374  142.26600647    4.90999985    2.61999989
   12.51388931  136.74899292    4.90999985    2.59999990
   12.53249931  135.62699890    4.90999985    2.61999989
   12.53388977  134.86900330    4.90999985    2.59999990
   12.53694534  138.70799255    4.90999985    2.61999989
   12.54027843  140.77900696    4.90999985    2.61999989
   12.54361153  140.68600464    4.90999985    2.61999989
   12.54666710  144.55299377    4.90999985    2.59999990
   12.55000019  139.07800293    4.90999985    2.61999989
   12.55305576  138.88499451    4.90999985    2.61999989
   12.55638885  141.72999573    4.90999985    2.61999989
   12.55972195  140.90199280    4.90999985    2.61999989
   12.56277752  142.47700500    4.90999985    2.61999989
   12.56583309  141.99499512    4.90999985    2.61999989
   12.56638908  140.22399902    4.90999985    2.61999989
   12.56972218  136.88499451    4.90999985    2.61999989
   12.57305527  140.06100464    4.90999985    2.61999989
   12.57611084  141.24000549    4.90999985    2.61999989
   12.57944393  140.91200256    4.90999985    2.61999989
   12.58249950  138.73199463    4.90999985    2.61999989
   12.58583260  137.78199768    4.90999985    2.61999989
   12.58916664  140.01800537    4.90999985    2.61999989
   12.59222221  140.22700500    4.90999985    2.61999989
   12.59555531  145.37500000    4.90999985    2.59999990
   12.59888840  137.20700073    4.90999985    2.61999989
   12.59916592  140.86599731    4.90999985    2.61999989
   12.60249996  139.36599731    4.90999985    2.61999989
   12.60583401  139.87199402    4.90999985    2.61999989
   12.60888958  136.06599426    4.90999985    2.61999989
   12.61222267  136.97599792    4.90999985    2.64000010
   12.61527824  139.68600464    4.90999985    2.61999989
   12.61861134  136.58000183    4.90999985    2.61999989
   12.62194443  140.58399963    4.90999985    2.64000010
   12.62500000  133.48399353    4.90999985    2.61999989
   12.62833309  137.89199829    4.90999985    2.61999989
   12.63166714  138.25199890    4.90999985    2.64000010
   12.63249969  131.60499573    4.90999985    2.64000010
   12.63500023  142.74899292    4.90999985    2.64000010
   12.63833332  142.85899353    4.90999985    2.64000010
   12.64138889  141.40299988    4.90999985    2.64000010
   12.64472198  145.40400696    4.90999985    2.64000010
   12.64805508  138.27699280    4.90999985    2.64000010
   12.65111065  145.21899414    4.90999985    2.64000010
   12.65444374  132.36500549    4.90999985    2.64000010
   12.65749931  135.49800110    4.90999985    2.64000010
   12.66083336  139.38600159    4.90999985    2.64000010
   12.66416645  139.16299438    4.90999985    2.64000010
   12.66583252  140.35400391    4.90999985    2.64000010
   12.66777802  142.57000732    4.90999985    2.64000010
   12.67111111  139.41299438    4.90999985    2.64000010
   12.67416668  138.27499390    4.90999985    2.64000010
   12.67750072  136.46200562    4.90999985    2.66000009
   12.68083382  139.80400085    4.90999985    2.64000010
   12.68388939  132.30099487    4.90999985    2.66000009
   12.68722248  137.39700317    4.90999985    2.64000010
   12.69027805  135.42599487    4.90999985    2.64000010
   12.69361115  137.06500244    4.90999985    2.64000010
   12.69694424  137.17100525    4.90999985    2.66000009
   12.69916630  138.58900452    4.90999985    2.64000010
   12.70055580  139.44099426    4.90999985    2.64000010
   12.70388889  146.72200012    4.90999985    2.64000010
   12.70694447  139.13699341    4.90999985    2.64000010
   12.71027756  141.23399353    4.90999985    2.64000010
   12.71333313  139.42500305    4.90999985    2.64000010
   12.71666622  138.78599548    4.90999985    2.64000010
   12.71999931  136.91099548    4.90999985    2.64000010
   12.72305489  146.64500427    4.90999985    2.61999989
   12.72638798  140.44000244    4.90999985    2.64000010
   12.72972202  136.08399963    4.90999985    2.64000010
   12.73249912  135.88800049    4.90999985    2.64000010
   12.73305511  135.09199524    4.90999985    2.64000010
   12.73638916  134.42500305    4.90999985    2.64000010
   12.73944473  137.69999695    4.90999985    2.64000010
   12.74277782  135.14700317    4.90999985    2.66000009
   12.74611092  138.91499329    4.90999985    2.64000010
   12.74916649  139.91600037    4.90999985    2.66000009
   12.75249958  137.85499573    4.90999985    2.66000009
   12.75555515  137.99299622    4.90999985    2.66000009
   12.75888920  138.71299744    4.90999985    2.66000009
   12.76222229  135.37199402    4.90999985    2.64000010
   12.76527786  135.86399841    4.90999985    2.64000010
   12.76583290  139.62899780    4.90999985    2.64000010
   12.76888847  136.91000366    4.90999985    2.64000010
   12.77222157  133.54699707    4.90999985    2.66000009
   12.77527714  135.91600037    4.90999985    2.67000008
   12.77861118  142.53100586    4.90999985    2.66000009
   12.78194427  139.42300415    4.90999985    2.67000008
   12.78500080  143.20300293    4.90999985    2.66000009
   12.78833389  140.69400024    4.90999985    2.67000008
   12.79138947  142.62399292    4.90999985    2.66000009
   12.79472256  140.31100464    4.90999985    2.67000008
   12.79805565  143.58700562    4.90999985    2.66000009
   12.79916668  147.47900391    4.90999985    2.64000010
   12.80166721  140.22799683    4.90999985    2.64000010
   12.80500031  138.15199280    4.90999985    2.64000010
   12.80805588  139.22099304    4.90999985    2.66000009
   12.81138897  138.86900330    4.90999985    2.66000009
   12.81472206  137.83399963    4.90999985    2.64000010
   12.81777763  140.85699463    4.90999985    2.66000009
   12.82111073  138.43600464    4.90999985    2.66000009
   12.82416630  141.58999634    4.90999985    2.64000010
   12.82750034  132.28199768    4.90999985    2.67000008
   12.83083344  137.38200378    4.90999985    2.66000009
   12.83249950  140.59599304    4.90999985    2.66000009
   12.83444405  137.21099854    4.90999985    2.66000009
   12.83777714  137.49600220    4.90999985    2.66000009
   12.84083271  141.19900513    4.90999985    2.67000008
   12.84416676  138.90199280    4.90999985    2.66000009
   12.84749985  141.25000000    4.90999985    2.67000008
   12.85055637  143.81599426    4.90999985    2.66000009
   12.85388947  143.28999329    4.90999985    2.67000008
   12.85694504  142.53799438    4.90999985    2.66000009
   12.86027813  144.18899536    4.90999985    2.66000009
   12.86361122  139.02699280    4.90999985    2.66000009
   12.86583328  136.77299500    4.90999985    2.67000008
   12.86722279  139.88900757    4.90999985    2.67000008
   12.87055588  143.24099731    4.90999985    2.66000009
   12.87388897  141.60000610    4.90999985    2.67000008
   12.87694454  139.59199524    4.90999985    2.67000008
   12.88027763  141.50399780    4.90999985    2.67000008
   12.88333321  141.02099609    4.90999985    2.67000008
   12.88666630  139.02000427    4.90999985    2.67000008
   12.89000034  141.54800415    4.90999985    2.67000008
   12.89305496  140.61500549    4.90999985    2.67000008
   12.89638901  138.61199951    4.90999985    2.66000009
   12.89916611  138.31300354    4.90999985    2.66000009
   12.89999962  135.80299377    4.90999985    2.66000009
   12.90333271  138.66499329    4.90999985    2.67000008
   12.90638828  133.54899597    4.90999985    2.67000008
   12.90972137  135.60000610    4.90999985    2.67000008
   12.91305542  136.03599548    4.90999985    2.67000008
   12.91611099  133.29699707    4.90999985    2.67000008
   12.91944504  139.28999329    4.90999985    2.67000008
   12.92250061  136.58999634    4.90999985    2.69000006
   12.92583370  139.84500122    4.90999985    2.66000009
   12.92916679  140.80200195    4.90999985    2.67000008
   12.93222237  143.97300720    4.90999985    2.67000008
   12.93277836  139.80599976    4.90999985    2.67000008
   12.93611145  142.08700562    4.90999985    2.67000008
   12.93916702  142.52499390    4.90999985    2.69000006
   12.94250011  138.94700623    4.90999985    2.67000008
   12.94583321  141.43400574    4.90999985    2.67000008
   12.94888878  142.68099976    4.90999985    2.67000008
   12.95222187  138.38900757    4.90999985    2.67000008
   12.95527744  140.35600281    4.90999985    2.67000008
   12.95861053  140.68499756    4.90999985    2.67000008
   13.06416702   -1.00000000   -1.00000000   -1.00000000
   13.28361130  145.56500244    4.90999985    2.71000004
   13.28694534  138.75500488    4.90999985    2.71000004
   13.29000092  141.34100342    4.90999985    2.71000004
   13.29333401  141.35000610    4.90999985    2.71000004
   13.29666710  143.33599854    4.90999985    2.71000004
   13.29972267  139.51899719    4.90999985    2.69000006
   13.30388927  139.51899719    4.90999985    2.71000004
   13.30805588  149.26400757    4.90999985    2.67000008
   13.31138897  148.88299561    4.90999985    2.69000006
   13.31444454  149.49600220    4.90999985    2.69000006
   13.31694412  150.59500122    4.90999985    2.69000006
   13.31805515  144.91700745    4.90999985    2.69000006
   13.32111073  148.40400696    4.90999985    2.69000006
   13.32444477  143.37199402    4.90999985    2.69000006
   13.32777786  140.30999756    4.90999985    2.69000006
   13.33083344  146.64599609    4.90999985    2.69000006
   13.33416653  140.55599976    4.90999985    2.69000006
   13.33749962  142.25399780    4.90999985    2.69000006
   13.34055519  142.62899780    4.90999985    2.69000006
   13.34666634  142.62899780    4.90999985    2.71000004
   13.35083389  136.84700012    4.90999985    2.71000004
   13.35416698  142.28900146    4.90999985    2.71000004
   13.35722256  133.82899475    4.90999985    2.73000002
   13.36055565  136.72700500    4.90999985    2.73000002
   13.36388969  133.23500061    4.90999985    2.73000002
   13.36694431  137.83299255    4.90999985    2.73000002
   13.37027836  136.74299622    4.90999985    2.73000002
   13.37361145  142.01100159    4.90999985    2.73000002
   13.37666702  140.89300537    4.90999985    2.71000004
   13.38000011  145.33900452    4.90999985    2.71000004
   13.38305569  147.50399780    4.90999985    2.71000004
   13.38361073  145.88299561    4.90999985    2.71000004
   13.38972187  145.88299561    4.90999985    2.71000004
   13.39388847  139.87399292    4.90999985    2.71000004
   13.39694405  142.40299988    4.90999985    2.71000004
   13.40027714  142.66299438    4.90999985    2.71000004
   13.40333271  144.29299927    4.90999985    2.71000004
   13.40666676  145.69400024    4.90999985    2.71000004
   13.40999985  138.35299683    4.90999985    2.71000004
   13.41333294  140.85899353    4.90999985    2.71000004
   13.41638851  139.89799500    4.90999985    2.71000004
   13.41694450  142.99099731    4.90999985    2.71000004
   13.42000008  140.25100708    4.90999985    2.71000004
   13.42333412  140.21899414    4.90999985    2.71000004
   13.42638874  136.78199768    4.90999985    2.71000004
   13.43249989  136.78199768    4.90999985    2.71000004
   13.43666649  138.83599854    4.90999985    2.71000004
   13.43972206  134.26899719    4.90999985    2.71000004
   13.44305515  131.09300232    4.90999985    2.71000004
   13.44638920  137.94700623    4.90999985    2.71000004
   13.44944477  140.18600464    4.90999985    2.71000004
   13.45027733  143.28300476    4.90999985    2.71000004
   13.45305538  140.49600220    4.90999985    2.71000004
   13.45638847  142.30400085    4.90999985    2.71000004
   13.45944405  139.02299500    4.90999985    2.71000004
   13.46277714  138.19200134    4.90999985    2.71000004
   13.46583271  142.90899658    4.90999985    2.73000002
   13.46916580  142.05400085    4.90999985    2.71000004
   13.47527695  142.05400085    4.90999985    2.71000004
   13.47944355  136.32899475    4.90999985    2.71000004
   13.48277760  132.44999695    4.90999985    2.71000004
   13.48361111  131.78799438    4.90999985    2.71000004
   13.48638916  131.49400330    4.90999985    2.71000004
   13.48972225  132.03799438    4.90999985    2.71000004
   13.49277782  133.52200317    4.90999985    2.71000004
   13.49611092  132.55999756    4.90999985    2.71000004
   13.49916649  131.09300232    4.90999985    2.71000004
   13.50249958  137.91499329    4.90999985    2.71000004
   13.50583363  135.85400391    4.90999985    2.71000004
   13.50888920  134.08500671    4.90999985    2.71000004
   13.51222229  137.23300171    4.90999985    2.71000004
   13.51805496  137.23300171    4.90999985    2.71000004
   13.52222157  136.18699646    4.90999985    2.71000004
   13.52555561  139.97399902    4.90999985    2.71000004
   13.52888870  137.38800049    4.90999985    2.73000002
   13.53194427  136.83500671    4.90999985    2.71000004
   13.53527832  141.14199829    4.90999985    2.73000002
   13.53833389  138.13800049    4.90999985    2.73000002
   13.54166698  136.33799744    4.90999985    2.73000002
   13.54500008  137.35499573    4.90999985    2.71000004
   13.54805565  134.46600342    4.90999985    2.71000004
   13.55027771  139.58999634    4.90999985    2.75000000
   13.55166721  134.48399353    4.90999985    2.73000002
   13.55500031  135.83700562    4.90999985    2.73000002
   13.56111145  135.83700562    4.90999985    2.73000002
   13.56500053  135.92199707    4.90999985    2.75000000
   13.56833363  137.43600464    4.90999985    2.75000000
   13.57166672  134.90699768    4.90999985    2.75000000
   13.57472229  135.21400452    4.90999985    2.73000002
   13.57805538  131.23899841    4.90999985    2.73000002
   13.58138847  141.61999512    4.90999985    2.73000002
   13.58361053  140.49800110    4.90999985    2.73000002
   13.58500004  146.30900574    4.90999985    2.73000002
   13.58833313  141.65400696    4.90999985    2.71000004
   13.59138870  140.54899597    4.90999985    2.73000002
   13.59472179  137.60099792    4.90999985    2.73000002
   13.59777737  138.06799316    4.90999985    2.73000002
   13.60388947  138.06799316    4.90999985    2.73000002
   13.60805607  136.62899780    4.90999985    2.73000002
   13.61111164  137.73599243    4.90999985    2.71000004
   13.61444473  138.41000366    4.90999985    2.71000004
   13.61694431  135.84399414    4.90999985    2.73000002
   13.61805534  137.75399780    4.90999985    2.71000004
   13.62138939  133.57499695    4.90999985    2.71000004
   13.62444496  135.55000305    4.90999985    2.73000002
   13.62777805  130.38299561    4.90999985    2.73000002
   13.63083363  134.60800171    4.90999985    2.73000002
   13.63416672  129.75700378    4.90999985    2.73000002
   13.63749981  137.08799744    4.90999985    2.73000002
   13.64055538  132.02000427    4.90999985    2.73000002
   13.64666653  132.02000427    4.90999985    2.73000002
   13.65083313  129.92799377    4.90999985    2.75000000
   13.65416622  144.34100342    4.90999985    2.73000002
   13.65722179  142.05700684    4.90999985    2.75000000
   13.66055489  137.11199951    4.90999985    2.73000002
   13.66361046  140.03999329    4.90999985    2.73000002
   13.66694450  139.87100220    4.90999985    2.73000002
   13.67027855  139.08000183    4.90999985    2.75000000
   13.67333412  137.03199768    4.90999985    2.73000002
   13.67666721  141.14500427    4.90999985    2.73000002
   13.68000031  135.87800598    4.90999985    2.75000000
   13.68305588  133.15100098    4.90999985    2.75000000
   13.68361092  133.19599915    4.90999985    2.75000000
   13.68944454  133.19599915    4.90999985    2.75000000
   13.69361115  137.32899475    4.90999985    2.75000000
   13.69694424  134.80200195    4.90999985    2.75000000
   13.69999981  131.91400146    4.90999985    2.75000000
   13.70333290  131.32099915    4.90999985    2.73000002
   13.70666695  129.00399780    4.90999985    2.75000000
   13.70972157  133.03999329    4.90999985    2.75000000
   13.71305561  131.33200073    4.90999985    2.75000000
   13.71638870  132.18499756    4.90999985    2.75000000
   13.71694374  134.16700745    4.90999985    2.75000000
   13.71972179  132.22799683    4.90999985    2.75000000
   13.72305489  143.69799805    4.90999985    2.75000000
   13.72611046  136.96499634    4.90999985    2.75000000
   13.73249912  136.96499634    4.90999985    2.75000000
   13.73638916  141.30999756    4.90999985    2.76999998
   13.73972225  138.57200623    4.90999985    2.75000000
   13.74305534  143.32699585    4.90999985    2.75000000
   13.74611092  146.20500183    4.90999985    2.75000000
   13.74944496  141.95899963    4.90999985    2.75000000
   13.75027752  137.25300598    4.90999985    2.75000000
   13.75305557  137.05900574    4.90999985    2.75000000
   13.75638866  137.29899597    4.90999985    2.75000000
   13.75944424  139.19299316    4.90999985    2.75000000
   13.76277733  141.74400330    4.90999985    2.75000000
   13.76611137  134.40800476    4.90999985    2.75000000
   13.76916599  136.01899719    4.90999985    2.75000000
   13.77527714  136.01899719    4.90999985    2.75000000
   13.77944374  130.62600708    4.90999985    2.76999998
   13.78249931  131.69500732    4.90999985    2.75000000
   13.78361130  134.50599670    4.90999985    2.75000000
   13.78611183  130.73599243    4.90999985    2.75000000
   13.78944492  134.87600708    4.90999985    2.75000000
   13.79250050  140.43699646    4.90999985    2.75000000
   13.79583359  142.46000671    4.90999985    2.75000000
   13.79916668  139.33500671    4.90999985    2.75000000
   13.80222225  143.18699646    4.90999985    2.75000000
   13.80555534  141.08399963    4.90999985    2.75000000
   13.80861092  136.43600464    4.90999985    2.73000002
   13.81194496  137.84500122    4.90999985    2.75000000
   13.81805515  137.84500122    4.90999985    2.75000000
   13.82222176  138.80599976    4.90999985    2.75000000
   13.82555580  146.71899414    4.90999985    2.75000000
   13.82888889  135.92399597    4.90999985    2.76999998
   13.83194447  137.08799744    4.90999985    2.75000000
   13.83527756  135.40800476    4.90999985    2.75000000
   13.83833313  134.96600342    4.90999985    2.76999998
   13.84166622  136.06399536    4.90999985    2.76999998
   13.84499931  137.08399963    4.90999985    2.76999998
   13.84805489  133.95899963    4.90999985    2.76999998
   13.85027790  135.61799622    4.90999985    2.75000000
   13.85166740  135.57899475    4.90999985    2.75000000
   13.85500050  137.48699951    4.90999985    2.76999998
   13.86083412  137.48699951    4.90999985    2.76999998
   13.86500072  142.09100342    4.90999985    2.76999998
   13.86833382  139.23800659    4.90999985    2.75000000
   13.87138939  136.48300171    4.90999985    2.76999998
   13.87472248  139.49299622    4.90999985    2.76999998
   13.87805557  137.17900085    4.90999985    2.78999996
   13.88111115  140.05299377    4.90999985    2.76999998
   13.88361073  141.50799561    4.90999985    2.75000000
   13.88472176  140.75599670    4.90999985    2.76999998
   13.88805580  137.53900146    4.90999985    2.76999998
   13.89111137  142.16700745    4.90999985    2.76999998
   13.89444447  134.17100525    4.90999985    2.76999998
   13.89777756  135.87600708    4.90999985    2.78999996
   13.90388870  135.87600708    4.90999985    2.78999996
   13.90777779  141.21200562    4.90999985    2.76999998
   13.91111088  138.50700378    4.90999985    2.76999998
   13.91444397  134.45300293    4.90999985    2.76999998
   13.91694450  134.36099243    4.90999985    2.76999998
   13.91805553  134.88499451    4.90999985    2.76999998
   13.92138958  131.95700073    4.90999985    2.76999998
   13.92444515  129.99600220    4.90999985    2.76999998
   13.92777824  132.30799866    4.90999985    2.78999996
   13.93111134  130.79100037    4.90999985    2.76999998
   13.93416691  136.24299622    4.90999985    2.76999998
   13.93750000  140.85200500    4.90999985    2.76999998
   13.94055557  140.87300110    4.90999985    2.76999998
   13.94666672  140.87300110    4.90999985    2.76999998
   13.95083332  139.01100159    4.90999985    2.76999998
   13.95388889  139.86099243    4.90999985    2.76999998
   13.95722198  136.06900024    4.90999985    2.76999998
   13.96055508  138.53599548    4.90999985    2.78999996
   13.96361065  136.18600464    4.90999985    2.76999998
   13.96694374  139.06100464    4.90999985    2.78999996
   13.96999931  137.30099487    4.90999985    2.76999998
   13.97333336  133.66600037    4.90999985    2.78999996
   13.97666645  133.23199463    4.90999985    2.78999996
   13.97972202  136.86599731    4.90999985    2.76999998
   13.98305511  134.31900024    4.90999985    2.76999998
   13.98361111  131.24600220    4.90999985    2.76999998
   13.98944473  131.24600220    4.90999985    2.78999996
   13.99361134  130.79100037    4.90999985    2.78999996
   13.99694443  131.18699646    4.90999985    2.78999996
   14.00000000  130.88800049    4.90999985    2.78999996
   14.00333309  130.68499756    4.90999985    2.78999996
   14.00638866  138.99699402    4.90999985    2.78999996
   14.00972176  142.41700745    4.90999985    2.78999996
   14.01305580  144.87300110    4.90999985    2.78999996
   14.01611137  139.80299377    4.90999985    2.78999996
   14.01694393  139.06199646    4.90999985    2.78999996
   14.01972198  136.79200745    4.90999985    2.78999996
   14.02305508  139.96099854    4.90999985    2.78999996
   14.02611065  138.68699646    4.90999985    2.86999989
   14.03222179  138.68699646    0.09000000    0.41999999
   14.03638935  136.75300598    0.07000000    0.13000000
   14.03972244  135.56799316    0.07000000    0.05000000
   14.04277802  135.76100159    0.07000000    0.05000000
   14.04611111  139.46000671    0.07000000    0.05000000
   14.04944515  137.40600586    0.07000000    0.05000000
   14.05027771  138.56399536    0.07000000    0.05000000
   14.05277824  138.30499268    0.07000000    0.05000000
   14.05611134  138.34100342    0.07000000    0.05000000
   14.05916691  128.39199829    0.07000000    0.05000000
   14.06250000  132.50300598    0.07000000    0.05000000
   14.06583309  135.28399658    0.07000000    0.05000000
   14.06888866  134.58099365    0.07000000    0.05000000
   14.07527733  134.58099365    0.07000000    0.05000000
   14.07916641  141.10099792    0.07000000    0.05000000
   14.08249950  142.43800354    0.07000000    0.05000000
   14.08361053  140.70500183    0.07000000    0.05000000
   14.08611107  139.80200195    0.07000000    0.05000000
   14.08944416  137.32299805    0.07000000    0.05000000
   14.09249973  138.18299866    0.07000000    0.05000000
   14.09583282  135.52999878    0.07000000    0.05000000
   14.09916592  136.82699585    0.07000000    0.05000000
   14.10222244  135.55499268    0.07000000    0.05000000
   14.10555553  137.84800720    0.07000000    0.05000000
   14.10888958  145.68600464    0.07000000    0.05000000
   14.11194515  135.43800354    0.07000000    0.05000000
   14.11805534  135.43800354    0.07000000    0.05000000
   14.12222195  134.68600464    0.07000000    0.05000000
   14.12527752  141.11900330    0.07000000    0.05000000
   14.12861156  138.72799683    0.07000000    0.05000000
   14.13194466  138.60499573    0.07000000    0.05000000
   14.13500023  137.34399414    0.07000000    0.05000000
   14.13833332  135.09500122    0.07000000    0.05000000
   14.14138889  137.83299255    0.07000000    0.05000000
   14.14472198  129.79400635    0.07000000    0.05000000
   14.14805508  142.57499695    0.07000000    0.05000000
   14.15027714  144.06599426    0.07000000    0.05000000
   14.15138817  140.33900452    0.07000000    0.05000000
   14.15472221  139.14100647    0.07000000    0.05000000
   14.16083336  139.14100647    0.07000000    0.05000000
   14.16499996  140.21299744    0.07000000    0.05000000
   14.16833401  141.11300659    0.07000000    0.05000000
   14.17138958  142.55499268    0.07000000    0.05000000
   14.17472267  142.36399841    0.07000000    0.05000000
   14.17805576  139.27400208    0.07000000    0.05000000
   14.18111134  136.91200256    0.07000000    0.05000000
   14.18388939  136.39500427    0.07000000    0.05000000
   14.18472195  133.16600037    0.07000000    0.05000000
   14.18805599  134.22200012    0.07000000    0.05000000
   14.19111156  137.74299622    0.07000000    0.05000000
   14.19444466  135.43800354    0.07000000    0.05000000
   14.19777775  133.67500305    0.07000000    0.05000000
   14.20361137  133.67500305    0.07000000    0.05000000
   14.20777798  135.72799683    0.07000000    0.05000000
   14.21111107  136.92900085    0.07000000    0.05000000
   14.21416664  134.73199463    0.07000000    0.05000000
   14.21722221  135.85899353    0.07000000    0.05000000
   14.21777725  132.92199707    0.07000000    0.05000000
   14.22111034  143.78500366    0.07000000    0.05000000
   14.22416592  145.71400452    0.07000000    0.05000000
   14.22749996  142.33799744    0.07000000    0.05000000
   14.23083305  143.52400208    0.07000000    0.05000000
   14.23388958  140.61000061    0.07000000    0.05000000
   14.23722267  141.89500427    0.07000000    0.05000000
   14.24027824  140.11199951    0.07000000    0.05000000
   14.24666691  140.11199951    0.07000000    0.05000000
   14.25055599  136.16799927    0.07000000    0.05000000
   14.25388908  138.77000427    0.07000000    0.05000000
   14.25722218  140.16700745    0.07000000    0.05000000
   14.26027775  139.87100220    0.07000000    0.05000000
   14.26361084  135.43299866    0.07000000    0.05000000
   14.26694393  135.71400452    0.07000000    0.05000000
   14.26999950  135.77000427    0.07000000    0.05000000
   14.27333355  135.43899536    0.07000000    0.05000000
   14.27666664  134.26600647    0.07000000    0.05000000
   14.27972221  136.26199341    0.07000000    0.05000000
   14.28305531  131.10099792    0.07000000    0.05000000
   14.28388977  135.09500122    0.07000000    0.05000000
   14.30444431  135.09500122    0.07000000    0.05000000
   14.30861092  136.83299255    0.07000000    0.05000000
   14.31166649  137.90600586    0.07000000    0.05000000
   14.31500053  138.59100342    0.07000000    0.05000000
   14.31722260  135.91600037    0.07000000    0.05000000
   14.31861115  135.39399719    0.07000000    0.05000000
   14.32194424  133.38999939    0.07000000    0.05000000
   14.32499981  134.79400635    0.07000000    0.05000000
   14.32833290  139.50399780    0.07000000    0.05000000
   14.33166695  138.21200562    0.07000000    0.05000000
   14.33472157  134.68800354    0.07000000    0.05000000
   14.33805561  137.30999756    0.07000000    0.05000000
   14.34138870  126.14499664    0.07000000    0.05000000
   14.34722233  126.14499664    0.07000000    0.05000000
   14.35138893  138.51400757    0.07000000    0.05000000
   14.35444450  135.55400085    0.07000000    0.05000000
   14.35777855  135.64199829    0.07000000    0.05000000
   14.36111164  139.88400269    0.07000000    0.05000000
   14.36416721  135.80900574    0.07000000    0.05000000
   14.36750031  136.15499878    0.07000000    0.05000000
   14.37055588  141.26800537    0.07000000    0.05000000
   14.37388897  135.57899475    0.07000000    0.05000000
   14.37722206  133.16099548    0.07000000    0.05000000
   14.38027763  130.37899780    0.07000000    0.05000000
   14.38361073  136.68800354    0.07000000    0.05000000
   14.38416672  134.57400513    0.07000000    0.05000000
   14.39000034  134.57400513    0.07000000    0.05000000
   14.39416695  134.10400391    0.07000000    0.05000000
   14.39750004  130.34199524    0.07000000    0.05000000
   14.40055561  133.41499329    0.07000000    0.05000000
   14.40388870  143.40400696    0.07000000    0.05000000
   14.40694427  135.94799805    0.07000000    0.05000000
   14.41027737  138.48800659    0.07000000    0.05000000
   14.41361046  141.29100037    0.07000000    0.05000000
   14.41666698  142.25100708    0.07000000    0.05000000
   14.41750050  137.82899475    0.07000000    0.05000000
   14.42027855  132.73300171    0.07000000    0.05000000
   14.42361164  139.81399536    0.07000000    0.05000000
   14.42694473  137.72799683    0.07000000    0.05000000
   14.43277836  137.72799683    0.07000000    0.05000000
   14.43694496  135.39999390    0.07000000    0.05000000
   14.44027805  135.91099548    0.07000000    0.05000000
   14.44333363  133.69400024    0.07000000    0.05000000
   14.44666672  139.87399292    0.07000000    0.05000000
   14.44999981  136.58700562    0.07000000    0.05000000
   14.45083332  133.36000061    0.07000000    0.05000000
   14.45333290  136.69700623    0.07000000    0.05000000
   14.45666695  131.13400269    0.07000000    0.05000000
   14.46000004  136.23399353    0.07000000    0.05000000
   14.46305561  135.10800171    0.07000000    0.05000000
   14.46638870  132.61500549    0.07000000    0.05000000
   14.46972179  133.09700012    0.07000000    0.05000000
   14.47583294  133.09700012    0.07000000    0.05000000
   14.47999954  139.89500427    0.07000000    0.05000000
   14.48305511  139.97999573    0.07000000    0.05000000
   14.48416710  139.78300476    0.07000000    0.05000000
   14.48666668  141.17399597    0.07000000    0.05000000
   14.49000072  135.47000122    0.07000000    0.05000000
   14.49333382  142.43800354    0.07000000    0.05000000
   14.49638939  141.20399475    0.07000000    0.05000000
   14.49972248  138.92900085    0.07000000    0.05000000
   14.50305557  133.38699341    0.07000000    0.05000000
   14.50611115  133.03300476    0.07000000    0.05000000
   14.50944424  135.58200073    0.07000000    0.05000000
   14.51249981  137.42599487    0.07000000    0.05000000
   14.51861095  137.42599487    0.07000000    0.05000000
   14.52277756  136.13200378    0.07000000    0.05000000
   14.52583313  131.99600220    0.07000000    0.05000000
   14.52916622  134.34100342    0.07000000    0.05000000
   14.53249931  134.77499390    0.07000000    0.05000000
   14.53555584  126.51599884    0.07000000    0.05000000
   14.53888893  139.67100525    0.07000000    0.05000000
   14.54194450  140.49299622    0.07000000    0.05000000
   14.54527855  141.18499756    0.07000000    0.05000000
   14.54861164  142.26199341    0.07000000    0.05000000
   14.55083370  141.65899658    0.07000000    0.05000000
   14.55194473  139.43400574    0.07000000    0.05000000
   14.55527782  134.43400574    0.07000000    0.05000000
   14.56138897  134.43400574    0.07000000    0.05000000
   14.56555557  143.71200562    0.07000000    0.05000000
   14.56888866  136.76499939    0.07000000    0.05000000
   14.57194424  143.76899719    0.07000000    0.05000000
   14.57527733  139.96699524    0.07000000    0.05000000
   14.57833290  136.10400391    0.07000000    0.05000000
   14.58166695  134.10299683    0.07000000    0.05000000
   14.58416653  132.65100098    0.07000000    0.05000000
   14.58527756  135.59399414    0.07000000    0.05000000
   14.58861065  133.10400391    0.07000000    0.05000000
   14.59194374  133.02600098    0.07000000    0.05000000
   14.59499931  131.43600464    0.07000000    0.05000000
   14.59833336  134.95500183    0.07000000    0.05000000
   14.60416698  134.95500183    0.07000000    0.05000000
   14.60833359  140.87199402    0.07000000    0.05000000
   14.61166668  137.59899902    0.07000000    0.05000000
   14.61472225  141.93699646    0.07000000    0.05000000
   14.61750031  143.67999268    0.07000000    0.05000000
   14.61861134  140.22200012    0.07000000    0.05000000
   14.62166691  140.35000610    0.07000000    0.05000000
   14.62500000  139.72399902    0.07000000    0.05000000
   14.62833309  141.19299316    0.07000000    0.05000000
   14.63138866  140.71600342    0.07000000    0.05000000
   14.63472176  137.23899841    0.07000000    0.05000000
   14.63777733  135.84300232    0.07000000    0.05000000
   14.64111137  137.91200256    0.07000000    0.05000000
   14.64722252  137.91200256    0.07000000    0.05000000
   14.65111065  139.08000183    0.07000000    0.05000000
   14.65444374  135.48199463    0.07000000    0.05000000
   14.65777779  133.91999817    0.07000000    0.05000000
   14.66083336  136.34899902    0.07000000    0.05000000
   14.66416645  132.83299255    0.07000000    0.05000000
   14.66750050  134.88699341    0.07000000    0.05000000
   14.67055607  137.36099243    0.07000000    0.05000000
