    HOUR (UT)   FLARE FACTOR    SKY TESTER    SUN TESTER
   12.49722290   -1.00000000   -1.00000000   -1.00000000
   12.58138847  100.97100067    4.90999985    1.98000002
   12.58444405  109.90000153    4.90999985    1.98000002
   12.58777714  110.91699982    4.90999985    1.96000004
   12.59111118  107.31400299    4.90999985    1.98000002
   12.59416676  106.56600189    4.90999985    1.98000002
   12.59749985  119.23400116    4.90999985    1.98000002
   12.60055637  105.14700317    4.90999985    1.98000002
   12.60388947  101.06800079    4.90999985    1.98000002
   12.60722256  108.61900330    4.90999985    2.00000000
   12.61027813   96.74130249    4.90999985    2.00000000
   12.61361122  105.00499725    4.90999985    2.00000000
   12.61444473  109.57900238    4.90999985    2.00000000
   12.61722279  102.90599823    4.90999985    2.00000000
   12.62055588  108.99600220    4.90999985    2.00000000
   12.62361145  105.58899689    4.90999985    2.00000000
   12.62694454  107.71900177    4.90999985    2.00000000
   12.63027763  126.11199951    4.90999985    2.00000000
   12.63333321  129.88499451    4.90999985    2.00000000
   12.63666630  115.46900177    4.90999985    2.00000000
   12.63972187  121.54000092    4.90999985    2.00000000
   12.64305496  113.10800171    4.90999985    2.00000000
   12.64638901  106.70600128    4.90999985    2.01999998
   12.64777756  104.95099640    4.90999985    2.01999998
   12.64999962  108.43199921    4.90999985    2.01999998
   12.65333271  105.77899933    4.90999985    2.01999998
   12.65638828  108.60600281    4.90999985    2.01999998
   12.65972137  117.63800049    4.90999985    2.01999998
   12.66305542  119.37300110    4.90999985    2.01999998
   12.66611099  116.12999725    4.90999985    2.03999996
   12.66944504  109.83499908    4.90999985    2.03999996
   12.67250061  113.34200287    4.90999985    2.03999996
   12.67583370  121.30899811    4.90999985    2.03999996
   12.67916679  117.65299988    4.90999985    2.03999996
   12.68111134  122.77200317    4.90999985    2.01999998
   12.68277836  113.09300232    4.90999985    2.03999996
   12.68611145  112.40399933    4.90999985    2.05999994
   12.68916702  117.27200317    4.90999985    2.03999996
   12.69250011  109.69100189    4.90999985    2.03999996
   12.69583321  121.47100067    4.90999985    2.05999994
   12.69888878  126.30100250    4.90999985    2.03999996
   12.70222187  117.62699890    4.90999985    2.05999994
   12.70527744  118.80200195    4.90999985    2.03999996
   12.70861053  107.80999756    4.90999985    2.05999994
   12.71194458  119.90000153    4.90999985    2.03999996
   12.71472168  118.94599915    4.90999985    2.05999994
   12.71555519  117.37200165    4.90999985    2.05999994
   12.71888828  127.76999664    4.90999985    2.05999994
   12.72194386  115.40499878    4.90999985    2.07999992
   12.72527695  119.69000244    4.90999985    2.07999992
   12.72861099   99.50189972    4.90999985    2.07999992
   12.73166656  116.43699646    4.90999985    2.05999994
   12.73500061  115.52200317    4.90999985    2.07999992
   12.73833370  124.11100006    4.90999985    2.07999992
   12.74138927  112.04799652    4.90999985    2.07999992
   12.74472237  115.25800323    4.90999985    2.07999992
   12.74805546  122.04000092    4.90999985    2.07999992
   12.74833393  125.12999725    4.90999985    2.07999992
   12.75166702   96.08660126    4.90999985    2.07999992
   12.75472260  104.23799896    4.90999985    2.07999992
   12.75805569  116.25499725    4.90999985    2.07999992
   12.76138878  123.32900238    4.90999985    2.07999992
   12.76444435   97.28810120    4.90999985    2.07999992
   12.76777744   89.50140381    4.90999985    2.09999990
   12.77111053  101.00399780    4.90999985    2.07999992
   12.77416611  105.26999664    4.90999985    2.09999990
   12.77750015  114.46900177    4.90999985    2.09999990
   12.78083324  106.09600067    4.90999985    2.09999990
   12.78138828   95.37899780    4.90999985    2.09999990
   12.78416729  100.65799713    4.90999985    2.11999989
   12.78750038   97.60389709    4.90999985    2.09999990
   12.79083347  104.74700165    4.90999985    2.09999990
   12.79388905  107.60800171    4.90999985    2.09999990
   12.79722309   94.51319885    4.90999985    2.09999990
   12.80027771  103.30400085    4.90999985    2.09999990
   12.80361176  110.04900360    4.90999985    2.09999990
   12.80694485  103.93800354    4.90999985    2.11999989
   12.81000042  126.10900116    4.90999985    2.09999990
   12.81333351  121.24400330    4.90999985    2.11999989
   12.81472206  112.01300049    4.90999985    2.11999989
   12.81694412  120.80899811    4.90999985    2.11999989
   12.82027817   95.80169678    4.90999985    2.11999989
   12.82361126  108.00299835    4.90999985    2.11999989
   12.82666683  117.18599701    4.90999985    2.11999989
   12.82999992  117.12000275    4.90999985    2.11999989
   12.83333302  120.97100067    4.90999985    2.11999989
   12.83638859  118.76499939    4.90999985    2.13000011
   12.83972168  111.91600037    4.90999985    2.13000011
   12.84277725  108.21800232    4.90999985    2.13000011
   12.84611034  109.27400208    4.90999985    2.13000011
   12.84805489  128.43600464    4.90999985    2.13000011
   12.84972191  138.05299377    4.88999987    2.13000011
   12.85305595  130.96699524    4.88999987    2.13000011
   12.85638905  123.56900024    4.86999989    2.13000011
   12.85944462  133.40600586    4.84999990    2.13000011
   12.86277771  133.68699646    4.84999990    2.13000011
   12.86611176  119.53900146    4.82999992    2.13000011
   12.86916637  114.11399841    4.82999992    2.13000011
   12.87250042  112.41699982    4.80999994    2.15000010
   12.87555599  115.81400299    4.80999994    2.15000010
   12.87888908  120.05999756    4.80000019    2.15000010
   12.88138866  122.46499634    4.78000021    2.15000010
   12.88249969  123.87300110    4.78000021    2.15000010
   12.88583279  112.00599670    4.78000021    2.15000010
   12.88916683  125.51100159    4.78000021    2.15000010
   12.89222240  105.59300232    4.78000021    2.15000010
   12.89555550  128.33099365    4.80000019    2.17000008
   12.89888859  120.97699738    4.80999994    2.15000010
   12.90194416  130.15499878    4.82999992    2.15000010
   12.90527725  121.46199799    4.82999992    2.15000010
   12.90861034  117.92500305    4.86999989    2.17000008
   12.91166592  130.32499695    4.88999987    2.17000008
   12.91472149  110.63400269    4.90999985    2.15000010
   12.91527748  122.36199951    4.90999985    2.17000008
   12.91861153  116.95899963    4.90999985    2.17000008
   12.92194462  110.76899719    4.90999985    2.17000008
   12.92500019   96.86019897    4.90999985    2.17000008
   12.92833328  102.26999664    4.90999985    2.17000008
   12.93166733  105.88899994    4.90999985    2.17000008
   12.93472195  105.48400116    4.90999985    2.17000008
   12.93805599  100.73799896    4.86999989    2.17000008
   12.94111156  109.23500061    4.82999992    2.17000008
   12.94444466  102.07199860    4.80000019    2.17000008
   12.94777775  105.18599701    4.76000023    2.17000008
   12.94805527  102.21900177    4.76000023    2.17000008
   12.95138836  106.06999969    4.73999977    2.17000008
   12.95472240  105.90699768    4.73999977    2.19000006
   12.95777798  110.06600189    4.71999979    2.19000006
   12.96111107  113.80200195    4.71999979    2.17000008
   12.96444416  103.84700012    4.71999979    2.19000006
   12.96749973  104.85299683    4.71999979    2.19000006
   12.97083282  104.10199738    4.69999981    2.17000008
   12.97416592  105.75599670    4.69999981    2.19000006
   12.97722149   92.62090302    4.69999981    2.19000006
   12.98055553  105.44000244    4.69999981    2.19000006
   12.98138809  105.44200134    4.69999981    2.19000006
   12.98416710   89.38410187    4.67999983    2.19000006
   12.98750019   99.71130371    4.65999985    2.19000006
   12.99083328   89.01789856    4.63999987    2.19000006
   12.99388885   95.15529633    4.61999989    2.19000006
   12.99722290   95.60209656    4.59999990    2.19000006
   13.00055599   94.75240326    4.55999994    2.19000006
   13.00361156  100.62000275    4.53999996    2.21000004
   13.00694466  111.79900360    4.53000021    2.19000006
   13.01000023  114.61599731    4.51000023    2.21000004
   13.01333332  107.00299835    4.51000023    2.19000006
   13.01472187  104.88899994    4.51000023    2.21000004
   13.01694393  104.77400208    4.48999977    2.21000004
   13.02027798  106.66999817    4.48999977    2.21000004
   13.02333355  101.11799622    4.51000023    2.23000002
   13.02666664  103.95200348    4.48999977    2.21000004
   13.02999973  113.45400238    4.48999977    2.21000004
   13.03305531  108.92900085    4.48999977    2.21000004
   13.03638935  105.79799652    4.48999977    2.21000004
   13.03972244  103.61699677    4.48999977    2.23000002
   13.04277802  112.35500336    4.44999981    2.21000004
   13.04611111  111.07099915    4.42999983    2.23000002
   13.04833412  113.68000031    4.42999983    2.21000004
   13.04972267  114.01200104    4.40999985    2.21000004
   13.05305576  107.72200012    4.38999987    2.23000002
   13.05638885  118.69599915    4.38999987    2.23000002
   13.05944443  122.34500122    4.36999989    2.23000002
   13.06277752  110.98300171    4.36999989    2.23000002
   13.06583309  121.89399719    4.36999989    2.23000002
   13.06916618  124.27100372    4.36999989    2.23000002
   13.07250023  126.45300293    4.34999990    2.23000002
   13.07555580  119.31400299    4.32999992    2.23000002
   13.07888889  113.77600098    4.32999992    2.23000002
   13.08166695  119.07599640    4.30999994    2.23000002
   13.08249950  111.85099792    4.30999994    2.23000002
   13.08583260  121.63200378    4.26999998    2.23000002
   13.08916664  119.21600342    4.26000023    2.23000002
   13.09222221  132.83000183    4.21999979    2.23000002
   13.09555531  117.22200012    4.21999979    2.23000002
   13.09861088  112.05000305    4.19999981    2.25000000
   13.10194492  107.95500183    4.19999981    2.25000000
   13.10527802  113.06199646    4.19999981    2.25000000
   13.10833359  105.81199646    4.19999981    2.25000000
   13.11166668  119.07700348    4.19999981    2.25000000
   13.11500072  111.68599701    4.19999981    2.25000000
   13.11527824  112.55599976    4.19999981    2.25000000
   13.11861134  112.52899933    4.19999981    2.25000000
   13.12166691  123.12200165    4.17999983    2.25000000
   13.12500000  119.50299835    4.17999983    2.25000000
   13.12833309  115.30999756    4.17999983    2.25000000
   13.13138866  112.66300201    4.17999983    2.25000000
   13.13472176  115.63899994    4.17999983    2.25000000
   13.13805580  111.88400269    4.15999985    2.25000000
   13.14111137  123.51699829    4.17999983    2.25000000
   13.14444447  110.12400055    4.15999985    2.25000000
   13.14750004  106.92800140    4.15999985    2.25000000
   13.14833355  106.95300293    4.15999985    2.25000000
   13.15111065  112.03099823    4.15999985    2.26999998
   13.15444374  116.65499878    4.13999987    2.26999998
   13.15777779  116.52300262    4.13999987    2.25000000
   13.16083336  120.37699890    4.13999987    2.25000000
   13.16416645  124.96900177    4.13999987    2.26999998
   13.16722298  120.98899841    4.15999985    2.26999998
   13.17055607  120.68800354    4.17999983    2.26999998
   13.17388916  127.00499725    4.19999981    2.26999998
   13.17694473  123.15599823    4.19999981    2.26999998
   13.18027782  119.58100128    4.21999979    2.26999998
   13.18166733  114.18399811    4.21999979    2.25000000
   13.18388939  119.55899811    4.26000023    2.26999998
   13.18722248  117.34200287    4.26000023    2.26999998
   13.19055557  109.89299774    4.26999998    2.28999996
   13.19361115  113.83599854    4.26999998    2.26999998
   13.19694424  121.40100098    4.26999998    2.26999998
   13.19999981  114.40499878    4.26999998    2.28999996
   13.20333290  117.76799774    4.26999998    2.28999996
   13.20666695  119.46600342    4.26999998    2.28999996
   13.20972157  107.93800354    4.26000023    2.28999996
   13.21305561  132.72900391    4.23999977    2.28999996
   13.21500015  122.01599884    4.23999977    2.26999998
   13.21666622  119.27400208    4.21999979    2.28999996
   13.21999931  123.89700317    4.19999981    2.28999996
   13.22333336  120.40499878    4.19999981    2.26999998
   13.22638798  122.67900085    4.17999983    2.26999998
   13.22972202  114.10600281    4.17999983    2.28999996
   13.23277760  122.42299652    4.17999983    2.26999998
   13.23611164  116.57599640    4.17999983    2.28999996
   13.23944473  131.69099426    4.19999981    2.28999996
   13.24250031  124.23200226    4.19999981    2.28999996
   13.24583340  122.12699890    4.21999979    2.28999996
   13.24833393  127.44200134    4.21999979    2.28999996
   13.24944496  116.32800293    4.26000023    2.28999996
   13.25277805  122.04599762    4.26000023    2.28999996
   13.25611115  119.87000275    4.26999998    2.28999996
   13.25916672  116.67800140    4.26000023    2.28999996
   13.26249981  124.94699860    4.26000023    2.28999996
   13.26555538  119.60800171    4.23999977    2.30999994
   13.26888847  116.03500366    4.19999981    2.30999994
   13.27222157  127.25399780    4.15999985    2.30999994
   13.27527714  121.42199707    4.11999989    2.30999994
   13.27861118  117.43000031    4.07999992    2.30999994
   13.28166676  123.72299957    4.05999994    2.30999994
   13.28222179  126.38099670    4.05999994    2.30999994
   13.28555584  129.15899658    4.03999996    2.30999994
   13.28888893  131.59800720    4.00000000    2.30999994
   13.29194450  153.73699951    4.00000000    2.30999994
   13.29527855  135.46400452    4.00000000    2.30999994
   13.29861164  142.24899292    3.99000001    2.30999994
   13.30166721  140.43499756    3.99000001    2.30999994
   13.30500031  131.96000671    3.99000001    2.30999994
   13.30805588  138.64399719    3.99000001    2.30999994
   13.31138897  141.71699524    3.99000001    2.30999994
   13.31472206  138.16700745    3.99000001    2.32999992
   13.31527805  139.57000732    3.99000001    2.30999994
   13.31833363  143.59899902    3.99000001    2.30999994
   13.32166672  143.70300293    4.00000000    2.30999994
   13.32499981  144.63099670    4.00000000    2.30999994
   13.32805538  129.61300659    4.00000000    2.30999994
   13.33138847  143.64799500    3.99000001    2.30999994
   13.33472157  148.17900085    3.95000005    2.32999992
   13.33777714  146.51400757    3.93000007    2.32999992
   13.34111118  167.00199890    3.91000009    2.30999994
   13.34416676  148.92999268    3.91000009    2.32999992
   13.34749985  154.80200195    3.89000010    2.32999992
   13.34861088  132.29800415    3.89000010    2.32999992
   13.35111141  155.69000244    3.89000010    2.32999992
   13.35444450  138.83299255    3.86999989    2.32999992
   13.35777855  148.64700317    3.86999989    2.32999992
   13.36083412  130.54200745    3.86999989    2.32999992
   13.36416721  157.18899536    3.89000010    2.32999992
   13.36750031  143.07600403    3.89000010    2.32999992
   13.37055588  153.86199951    3.89000010    2.32999992
   13.37388897  155.69700623    3.89000010    2.32999992
   13.37694454  169.44400024    3.89000010    2.32999992
   13.38027763  143.79899597    3.89000010    2.32999992
   13.38194466  156.37399292    3.91000009    2.32999992
   13.38388920  148.45399475    3.91000009    2.32999992
   13.38722229  158.23199463    3.91000009    2.32999992
   13.39055538  153.71499634    3.93000007    2.34999990
   13.39361095  136.80400085    3.93000007    2.34999990
   13.39694405  147.13800049    3.93000007    2.32999992
   13.40027714  154.81500244    3.91000009    2.32999992
   13.40333271  154.13099670    3.93000007    2.32999992
   13.40666676  152.82000732    3.89000010    2.32999992
   13.40999985  149.75599670    3.89000010    2.34999990
   13.41305542  153.16200256    3.86999989    2.32999992
   13.41527748  148.66000366    3.86999989    2.34999990
   13.41666698  165.10600281    3.86999989    2.34999990
   13.42000008  152.17100525    3.86999989    2.34999990
   13.42333412  154.07200623    3.84999990    2.34999990
   13.42638874  162.19599915    3.80999994    2.34999990
   13.42972279  146.29499817    3.78999996    2.34999990
   13.43305588  153.53199768    3.78999996    2.34999990
   13.43611145  147.01499939    3.78999996    2.34999990
   13.43944454  163.84599304    3.76999998    2.34999990
   13.44250011  140.67700195    3.76999998    2.34999990
   13.44583321  151.46400452    3.78999996    2.36999989
   13.44861126  148.80499268    3.80999994    2.34999990
   13.44944477  148.23300171    3.82999992    2.34999990
   13.45277786  131.60499573    3.82999992    2.34999990
   13.45583344  146.93800354    3.82999992    2.34999990
   13.45916653  154.52099609    3.82999992    2.34999990
   13.46249962  148.85000610    3.80999994    2.36999989
   13.46555519  122.41400146    3.78999996    2.34999990
   13.46888828  141.50799561    3.76999998    2.34999990
   13.47222137  132.61700439    3.75000000    2.36999989
   13.47527695  154.97799683    3.73000002    2.36999989
   13.47861099  149.37899780    3.73000002    2.36999989
   13.48194408  153.01199341    3.73000002    2.36999989
   13.48222160  158.46600342    3.73000002    2.36999989
   13.48555565  146.73100281    3.72000003    2.36999989
   13.48861122  160.62500000    3.73000002    2.36999989
   13.49194431  142.04600525    3.73000002    2.36999989
   13.49527836  123.09999847    3.73000002    2.36999989
   13.49833393  146.88099670    3.75000000    2.36999989
   13.50166702  145.15100098    3.73000002    2.36999989
   13.50500011  142.35499573    3.73000002    2.36999989
   13.50805569  134.81799316    3.72000003    2.36999989
   13.51138878  149.62500000    3.68000007    2.36999989
   13.51472187  142.06300354    3.66000009    2.36999989
   13.51527786  140.35000610    3.66000009    2.36999989
   13.51805496  142.11300659    3.66000009    2.36999989
   13.52138901  147.57899475    3.64000010    2.36999989
   13.52472210  135.22000122    3.66000009    2.36999989
   13.52777767  138.78999329    3.61999989    2.36999989
   13.53111076  132.68499756    3.59999990    2.39000010
   13.53416729  136.89799500    3.59999990    2.36999989
   13.53750038  139.22799683    3.59999990    2.36999989
   13.54083347  134.15800476    3.57999992    2.36999989
   13.54388905  130.85400391    3.61999989    2.39000010
   13.54722309  142.32699585    3.64000010    2.39000010
   13.54861164  137.67700195    3.64000010    2.39000010
   13.55083370  132.33000183    3.66000009    2.39000010
   13.55416679  137.89900208    3.66000009    2.39000010
   13.55777836  131.37600708    3.68000007    2.39000010
   13.56083393  122.12599945    3.68000007    2.36999989
   13.56416702  131.66600037    3.68000007    2.39000010
   13.56750011  132.38200378    3.68000007    2.39000010
   13.57055569  135.52900696    3.66000009    2.39000010
   13.57388878  130.74800110    3.64000010    2.39000010
   13.57694435  124.14499664    3.61999989    2.39000010
   13.58027744  133.26800537    3.57999992    2.39000010
   13.59777737  128.10099792    3.48000002    2.39000010
   13.60000038  121.79699707    3.45000005    2.39000010
   13.60333347  118.27100372    3.43000007    2.39000010
   13.60638905  116.94100189    3.36999989    2.40000010
   13.60972214  117.28900146    3.30999994    2.40000010
   13.61305618  123.02300262    3.26999998    2.39000010
   13.61611176  109.14900208    3.26999998    2.39000010
   13.61944485  120.07599640    3.26999998    2.39000010
   13.62250042  132.11500549    3.26999998    2.40000010
   13.62583351  121.49600220    3.30999994    2.40000010
   13.62916660  118.48300171    3.32999992    2.39000010
   13.63111115  125.36399841    3.32999992    2.40000010
   13.63277817  114.73500061    3.34999990    2.40000010
   13.63583279  122.54900360    3.32999992    2.40000010
   13.63916683  119.99700165    3.32999992    2.39000010
   13.64249992  120.32099915    3.32999992    2.40000010
   13.64555550  126.55100250    3.32999992    2.39000010
   13.64888859  116.48899841    3.30999994    2.40000010
   13.65194416  117.12100220    3.28999996    2.40000010
   13.65527725  114.97399902    3.26999998    2.40000010
   13.65861034  122.73699951    3.25000000    2.40000010
   13.66166592  121.53500366    3.21000004    2.40000010
   13.66444397  122.42500305    3.20000005    2.40000010
   13.66555500  116.15899658    3.21000004    2.40000010
   13.66888905  121.94000244    3.18000007    2.40000010
   13.67194462  114.29100037    3.16000009    2.40000010
   13.67527771  117.66600037    3.14000010    2.40000010
   13.67833328  117.75599670    3.16000009    2.40000010
   13.68166733  123.42800140    3.16000009    2.40000010
   13.68500042  120.27200317    3.16000009    2.40000010
   13.68805599  123.99099731    3.14000010    2.40000010
   13.69138908  122.51699829    3.14000010    2.40000010
   13.69472218  125.60099792    3.14000010    2.40000010
   13.69777775  123.42900085    3.16000009    2.42000008
   13.69833374  122.68599701    3.14000010    2.40000010
   13.70166683  125.54799652    3.18000007    2.42000008
   13.70472240  131.45399475    3.18000007    2.40000010
   13.70805550  124.27600098    3.20000005    2.40000010
   13.71138859  123.36100006    3.20000005    2.40000010
   13.71444416  113.12300110    3.20000005    2.40000010
   13.71777725  125.85700226    3.18000007    2.42000008
   13.72083282  124.88800049    3.20000005    2.40000010
   13.72416592  130.09199524    3.18000007    2.42000008
   13.72749996  126.59600067    3.20000005    2.42000008
   13.73055553  130.15100098    3.20000005    2.42000008
   13.73111057  118.75000000    3.21000004    2.42000008
   13.73416710  118.26899719    3.20000005    2.42000008
   13.73750019  118.66100311    3.20000005    2.42000008
   13.74055576  115.67099762    3.20000005    2.42000008
   13.74388885  121.72100067    3.21000004    2.42000008
   13.74722290  124.30400085    3.21000004    2.42000008
   13.75027752  117.70600128    3.21000004    2.42000008
   13.75361156  121.63600159    3.20000005    2.42000008
   13.75694466  118.79799652    3.20000005    2.42000008
   13.76000023  119.98999786    3.21000004    2.40000010
   13.76333332  117.62300110    3.20000005    2.42000008
   13.76444435  113.22100067    3.20000005    2.42000008
   13.76694393  116.10299683    3.20000005    2.42000008
   13.77027798  118.14099884    3.20000005    2.42000008
   13.77333355  118.63200378    3.14000010    2.42000008
   13.77666664  115.37200165    3.09999990    2.42000008
   13.77999973  115.77799988    3.05999994    2.42000008
   13.78305531  115.31400299    3.03999996    2.42000008
   13.78638935  113.11599731    3.03999996    2.42000008
   13.78944492  118.34200287    3.03999996    2.42000008
   13.79277802  121.42199707    3.07999992    2.42000008
   13.79611111  129.16600037    3.11999989    2.44000006
   13.79777813  119.06800079    3.16000009    2.42000008
   13.79972267  109.10299683    3.16000009    2.44000006
   13.80305576  124.23500061    3.18000007    2.42000008
   13.80611134  113.50000000    3.20000005    2.42000008
   13.80944443  127.05899811    3.21000004    2.42000008
   13.81250000  115.24600220    3.21000004    2.42000008
   13.81583309  117.68199921    3.21000004    2.44000006
   13.81916618  109.25800323    3.20000005    2.42000008
   13.82222176  127.24099731    3.20000005    2.44000006
   13.82555580  125.29399872    3.21000004    2.42000008
   13.82888889  115.46399689    3.25000000    2.44000006
   13.83111095  131.01899719    3.25000000    2.42000008
   13.83249950  120.15499878    3.25000000    2.44000006
   13.83583260  123.63600159    3.26999998    2.44000006
   13.83888817  121.37100220    3.30999994    2.44000006
   13.84222221  143.94500732    3.30999994    2.44000006
   13.84555531  124.47599792    3.32999992    2.42000008
   13.84861088  121.31600189    3.28999996    2.44000006
   13.85194492  124.72899628    3.26999998    2.44000006
   13.85527802  122.57399750    3.21000004    2.46000004
   13.85833359  122.20500183    3.20000005    2.42000008
   13.86166668  126.28399658    3.18000007    2.42000008
   13.86444473  134.95799255    3.20000005    2.44000006
   13.86527824  119.32099915    3.21000004    2.44000006
   13.86861134  123.91699982    3.25000000    2.44000006
   13.87166691  115.38600159    3.25000000    2.44000006
   13.87500000  119.21299744    3.28999996    2.44000006
   13.87805557  117.39199829    3.28999996    2.42000008
   13.88138866  113.22200012    3.21000004    2.46000004
   13.88472176  125.55100250    3.20000005    2.44000006
   13.88777733  128.97200012    3.16000009    2.44000006
   13.89111137  113.79000092    3.16000009    2.44000006
   13.89444447  131.13299561    3.16000009    2.44000006
   13.89750004  117.33399963    3.20000005    2.44000006
   13.89805508  128.63200378    3.21000004    2.44000006
   13.90138817  120.65200043    3.21000004    2.46000004
   13.90444374  117.10199738    3.21000004    2.44000006
   13.90777779  123.17400360    3.23000002    2.44000006
   13.91111088  126.14800262    3.25000000    2.46000004
   13.91416645  110.29100037    3.23000002    2.46000004
   13.91750050  123.47799683    3.23000002    2.46000004
   13.92083359  124.35099792    3.18000007    2.46000004
   13.92388916  114.03900146    3.14000010    2.46000004
   13.92722225  134.29299927    3.09999990    2.46000004
   13.93055630  124.54000092    3.03999996    2.44000006
   13.93138885  125.61799622    3.05999994    2.44000006
   13.93416691  125.62699890    3.03999996    2.46000004
   13.93722248  121.06700134    3.01999998    2.46000004
   13.94055557  123.48500061    3.01999998    2.46000004
   13.94388866  121.36599731    3.01999998    2.46000004
   13.94694424  116.20500183    3.00000000    2.46000004
   13.95027733  124.12799835    3.00000000    2.46000004
   13.95361137  116.81999969    2.98000002    2.46000004
   13.95666695  121.57599640    3.00000000    2.46000004
   13.96000004  115.64800262    2.98000002    2.46000004
   13.96333313  119.09400177    3.00000000    2.46000004
   13.96472168  119.93000031    3.01999998    2.46000004
   13.96694374  118.81500244    3.03999996    2.46000004
   13.97027779  120.79699707    3.03999996    2.44000006
   13.97333336  113.01300049    3.05999994    2.46000004
   13.97666645  122.39399719    3.05999994    2.46000004
   13.98027706  123.99299622    3.05999994    2.46000004
   13.98333359  120.46199799    3.07999992    2.46000004
   13.98666668  115.66899872    3.07999992    2.46000004
   13.98972225  108.98100281    3.05999994    2.46000004
   13.99305534  122.50399780    3.03999996    2.46000004
   13.99638939  119.41400146    3.03999996    2.46000004
   13.99805546  111.85900116    3.01999998    2.46000004
   14.00000000  117.71800232    3.03999996    2.46000004
   14.00333309  123.26799774    3.01999998    2.46000004
   14.00638866  119.38800049    3.01999998    2.46000004
   14.00972176  108.54399872    3.01999998    2.46000004
   14.01277733  118.12300110    3.00000000    2.46000004
   14.01611137  104.94400024    2.98000002    2.46000004
   14.01944447  109.33899689    2.94000006    2.46000004
   14.02250004  115.07499695    2.93000007    2.46000004
   14.02583313  123.83899689    2.94000006    2.46000004
   14.02916622  119.82900238    2.98000002    2.46000004
   14.03138828  112.46800232    2.98000002    2.48000002
   14.03277779  110.14299774    3.00000000    2.46000004
   14.03583336  109.96700287    3.01999998    2.48000002
   14.03916740  115.03199768    3.01999998    2.48000002
   14.04250050  113.30000305    3.01999998    2.46000004
   14.04555607  121.43000031    3.01999998    2.46000004
   14.04888916  110.80000305    2.98000002    2.46000004
   14.05222225  113.54100037    2.96000004    2.46000004
   14.05527782  116.76699829    2.96000004    2.48000002
   14.05861092  111.96099854    2.94000006    2.48000002
   14.06166649  112.15399933    2.91000009    2.46000004
   14.06472206  112.73300171    2.91000009    2.48000002
   14.06555557  115.18099976    2.91000009    2.48000002
   14.06861115  119.58699799    2.91000009    2.46000004
   14.07194424  121.88500214    2.93000007    2.48000002
   14.07527733  116.61299896    2.94000006    2.48000002
   14.07833290  118.97499847    2.96000004    2.48000002
   14.08166695  107.03299713    2.94000006    2.48000002
   14.08500004  112.91500092    2.91000009    2.46000004
   14.08805561  112.70899963    2.89000010    2.48000002
   14.09138870  120.29399872    2.84999990    2.48000002
   14.09472179  111.28700256    2.84999990    2.48000002
   14.09777737  113.25299835    2.89000010    2.48000002
   14.09833336  108.59200287    2.89000010    2.48000002
   14.10166740  111.26799774    2.91000009    2.48000002
   14.10500050  111.57800293    2.94000006    2.48000002
   14.10805607  110.12100220    2.94000006    2.46000004
   14.11138916  108.93699646    2.91000009    2.48000002
   14.11444473  114.56700134    2.89000010    2.48000002
   14.11777782  116.35900116    2.84999990    2.48000002
   14.12111092  104.38999939    2.82999992    2.48000002
   14.12416649  116.52999878    2.78999996    2.46000004
   14.12750053  114.53199768    2.78999996    2.48000002
   14.13083363  109.90599823    2.80999994    2.48000002
   14.13166714  111.89700317    2.82999992    2.48000002
   14.13444424  114.69400024    2.84999990    2.48000002
   14.13777733  119.72399902    2.89000010    2.48000002
   14.14083290  105.75199890    2.91000009    2.48000002
   14.14416695  113.09100342    2.93000007    2.48000002
   14.14722252  114.69100189    2.91000009    2.50000000
   14.15055561  116.53299713    2.93000007    2.48000002
   14.15388870  105.31500244    2.91000009    2.48000002
   14.15694427  111.68099976    2.94000006    2.48000002
   14.16027737  114.97499847    2.94000006    2.48000002
   14.16361046  113.09400177    2.96000004    2.50000000
   14.16499996  118.50599670    2.94000006    2.48000002
   14.16722298  107.68900299    2.94000006    2.48000002
   14.17055607  103.86499786    2.94000006    2.48000002
   14.17361164  114.34400177    2.91000009    2.48000002
   14.17694473   99.17379761    2.91000009    2.50000000
   14.18000031  114.08699799    2.91000009    2.48000002
   14.18333340  114.93199921    2.84999990    2.48000002
   14.18666649  110.42099762    2.82999992    2.48000002
   14.18972206  115.94100189    2.84999990    2.48000002
   14.19333363  100.44799805    2.80999994    2.48000002
   14.19666672  111.22399902    2.78999996    2.50000000
   14.19833374  108.58200073    2.75000000    2.48000002
   14.20027733  103.64099884    2.75000000    2.48000002
   14.20361137  105.62400055    2.71000004    2.48000002
   14.20666695  114.39800262    2.67000008    2.50000000
   14.21000004  106.12999725    2.66000009    2.50000000
   14.21305561  106.33000183    2.64000010    2.48000002
   14.21638870  105.74500275    2.64000010    2.48000002
   14.21972179   95.97209930    2.64000010    2.50000000
   14.22277737  106.71499634    2.61999989    2.48000002
   14.22611046  100.66999817    2.64000010    2.50000000
   14.22944355  109.34200287    2.66000009    2.48000002
   14.23166656  122.77899933    2.67000008    2.50000000
   14.23305511   98.53520203    2.67000008    2.50000000
   14.23638916  110.03600311    2.71000004    2.50000000
   14.23944473  115.93499756    2.67000008    2.50000000
   14.24277782  114.85900116    2.67000008    2.50000000
   14.24583340  109.94599915    2.67000008    2.50000000
   14.24916649  114.18099976    2.73000002    2.50000000
   14.25249958  112.38500214    2.75000000    2.50000000
   14.25555515  103.56300354    2.75000000    2.50000000
   14.25888920  113.69200134    2.76999998    2.50000000
   14.26222229  122.14700317    2.80999994    2.50000000
   14.26500034  115.41200256    2.82999992    2.50000000
   14.26583290  119.81300354    2.82999992    2.48000002
   14.26916599  113.89199829    2.82999992    2.50000000
   14.27222157  116.62500000    2.80999994    2.48000002
   14.27555561  121.35700226    2.76999998    2.50000000
   14.27861118  119.35900116    2.75000000    2.50000000
   14.28194427  117.73600006    2.75000000    2.50000000
   14.28527832  116.80200195    2.73000002    2.50000000
   14.28833389  111.72000122    2.71000004    2.50000000
   14.29166698  109.96399689    2.67000008    2.50000000
   14.29500008  115.89399719    2.69000006    2.50000000
   14.29805565  108.42299652    2.67000008    2.50000000
   14.29861164  107.60900116    2.67000008    2.50000000
   14.30194473  106.47299957    2.67000008    2.50000000
   14.30500031  120.63300323    2.66000009    2.50000000
   14.30833340  112.06600189    2.66000009    2.50000000
   14.31166649  105.36399841    2.64000010    2.50000000
   14.31472206  108.62500000    2.66000009    2.50000000
   14.31805515  107.91000366    2.67000008    2.50000000
   14.32138920  103.09500122    2.69000006    2.50000000
   14.32444477  107.80100250    2.73000002    2.50000000
   14.32777786  107.03600311    2.75000000    2.50000000
   14.33083344  111.42400360    2.80999994    2.51999998
   14.33194447  109.78099823    2.80999994    2.50000000
   14.33472157  116.55200195    2.82999992    2.50000000
   14.33777714  113.63899994    2.82999992    2.51999998
   14.34111118  113.62300110    2.78999996    2.51999998
   14.34444427  118.61100006    2.78999996    2.50000000
   14.34749985  114.62300110    2.76999998    2.51999998
   14.35083389  117.51999664    2.78999996    2.51999998
   14.35416698  111.20600128    2.78999996    2.51999998
   14.35722256  120.33100128    2.75000000    2.50000000
   14.36055565  114.87200165    2.73000002    2.50000000
   14.36361122  106.14499664    2.67000008    2.50000000
   14.36527824  106.71700287    2.71000004    2.50000000
   14.36750031  118.81099701    2.61999989    2.50000000
   14.37055588  109.10199738    2.57999992    2.51999998
   14.37388897  115.73400116    2.57999992    2.50000000
   14.37722206  111.45200348    2.59999990    2.50000000
   14.38027763  131.02099609    2.61999989    2.51999998
   14.38361073  119.80599976    2.64000010    2.51999998
   14.38694477  115.05200195    2.64000010    2.50000000
   14.39000034  101.85500336    2.61999989    2.50000000
   14.39333344  107.94899750    2.59999990    2.50000000
   14.39638901  106.85299683    2.59999990    2.50000000
   14.39861107  110.30400085    2.57999992    2.51999998
   14.40027714  106.91100311    2.57999992    2.51999998
   14.40333271  103.91999817    2.55999994    2.50000000
   14.40666676  104.43499756    2.55999994    2.51999998
   14.40999985  113.45600128    2.55999994    2.50000000
   14.41305542  112.59899902    2.53999996    2.51999998
   14.41638851  104.62200165    2.55999994    2.50000000
   14.41972256  112.97399902    2.50000000    2.51999998
   14.42277813  122.97299957    2.50000000    2.50000000
   14.42611122  113.89399719    2.53999996    2.50000000
   14.42916679  116.20200348    2.57999992    2.51999998
   14.43194485  127.15200043    2.55999994    2.51999998
   14.43305588  119.61599731    2.57999992    2.51999998
   14.43611145  111.76200104    2.59999990    2.51999998
   14.43944454  119.01000214    2.64000010    2.51999998
   14.44277763  129.10299683    2.67000008    2.50000000
   14.44583321  109.75900269    2.71000004    2.51999998
   14.44916630  112.99500275    2.73000002    2.51999998
   14.45249939  113.84899902    2.71000004    2.51999998
   14.45555496  129.18099976    2.69000006    2.51999998
   14.45888901  121.82299805    2.67000008    2.51999998
   14.46194458  112.04100037    2.67000008    2.50000000
   14.46527767  120.44200134    2.61999989    2.51999998
   14.46583271  122.33300018    2.61999989    2.51999998
   14.46888828  130.14199829    2.64000010    2.51999998
   14.47222137  113.20400238    2.64000010    2.51999998
   14.47555542  120.88300323    2.64000010    2.51999998
   14.47861099  122.60199738    2.64000010    2.51999998
   14.48194408  124.19799805    2.64000010    2.51999998
   14.48527813  124.67700195    2.64000010    2.51999998
   14.48833370  120.76200104    2.61999989    2.51999998
   14.49166679  111.30400085    2.61999989    2.50000000
   14.49472237  118.42600250    2.61999989    2.51999998
   14.49805546  118.35500336    2.64000010    2.51999998
   14.49861145  123.14099884    2.61999989    2.51999998
   14.50166702  121.05200195    2.64000010    2.51999998
   14.50500011  122.92400360    2.61999989    2.51999998
   14.50805569  115.15299988    2.66000009    2.51999998
   14.51138878  140.36199951    2.67000008    2.51999998
   14.51444435  129.21000671    2.71000004    2.51999998
   14.51777744  122.57399750    2.76999998    2.51999998
   14.52111053  123.82700348    2.78999996    2.51999998
   14.52416611  115.46800232    2.78999996    2.51999998
   14.52750015  115.15100098    2.76999998    2.51999998
   14.53083324  125.60600281    2.80999994    2.51999998
   14.53194427  124.23000336    2.78999996    2.51999998
   14.53444481  114.07499695    2.78999996    2.51999998
   14.53750038  120.88099670    2.76999998    2.51999998
   14.54083347  125.27899933    2.76999998    2.51999998
   14.54416752  123.77700043    2.78999996    2.51999998
   14.54722309  117.26399994    2.78999996    2.51999998
   14.55055618  120.46800232    2.80999994    2.51999998
   14.55388927  125.03800201    2.80999994    2.51999998
   14.55694485  111.57299805    2.78999996    2.51999998
   14.56027794  112.87100220    2.82999992    2.51999998
   14.56333351  124.27700043    2.84999990    2.51999998
   14.56527805  115.50599670    2.78999996    2.51999998
   14.56722260  113.61799622    2.76999998    2.51999998
   14.57055569  115.48300171    2.76999998    2.51999998
   14.57361126  119.31999969    2.82999992    2.51999998
   14.57694435  120.40499878    2.84999990    2.51999998
   14.57999992  111.27100372    2.86999989    2.51999998
   14.58333302  122.51100159    2.89000010    2.51999998
   14.58666611  121.77300262    2.82999992    2.51999998
   14.58972168  116.84200287    2.82999992    2.51999998
   14.59305477  123.17199707    2.84999990    2.51999998
   14.59638882  126.70999908    2.86999989    2.51999998
   14.61444473  118.99400330    3.09999990    2.53999996
   14.61611176  117.96900177    3.09999990    2.51999998
   14.61916637  109.41400146    3.07999992    2.51999998
   14.62250042  107.26100159    3.03999996    2.51999998
   14.62583351  118.76399994    3.01999998    2.51999998
   14.62888908  124.22499847    3.00000000    2.51999998
   14.63222218  123.65299988    2.98000002    2.53999996
   14.63555527  119.05899811    2.93000007    2.53999996
   14.63861084  116.02600098    2.93000007    2.53999996
   14.64194393  123.56900024    2.89000010    2.51999998
   14.64499950  113.21800232    2.89000010    2.53999996
   14.64777756  115.80899811    2.80999994    2.53999996
   14.64861107  118.48600006    2.82999992    2.53999996
   14.65194416  125.06500244    2.80999994    2.53999996
   14.65527725  122.11499786    2.78999996    2.53999996
   14.65833282  123.16799927    2.80999994    2.53999996
   14.66166592  120.94300079    2.80999994    2.53999996
   14.66499996  121.48100281    2.80999994    2.53999996
   14.66805553  122.11499786    2.80999994    2.53999996
   14.67138958  127.95800018    2.84999990    2.53999996
   14.67444515  127.02600098    2.89000010    2.51999998
   14.67777824  122.17600250    2.91000009    2.53999996
   14.68111134  114.03299713    2.93000007    2.53999996
   14.68166733  120.78700256    2.93000007    2.53999996
   14.68472195  124.98300171    2.91000009    2.53999996
   14.68805599  118.23600006    2.93000007    2.53999996
   14.69111156  120.15000153    2.93000007    2.53999996
   14.69444466  116.02799988    2.96000004    2.53999996
   14.69777775  122.10500336    2.94000006    2.53999996
   14.70083332  126.28800201    2.96000004    2.53999996
   14.70416641  114.61799622    2.93000007    2.53999996
   14.70749950  123.64199829    2.91000009    2.53999996
   14.71055508  121.45999908    2.89000010    2.53999996
   14.71388912  117.95999908    2.89000010    2.53999996
   14.71444416  119.88400269    2.89000010    2.53999996
   14.71749973  116.10900116    2.89000010    2.53999996
   14.72055531  113.31700134    2.89000010    2.53999996
   14.72388840  119.77100372    2.86999989    2.53999996
   14.72722149  117.48899841    2.84999990    2.53999996
   14.73027706  114.07099915    2.86999989    2.53999996
   14.73361111  110.72699738    2.82999992    2.53999996
   14.73694515  122.48100281    2.84999990    2.53999996
   14.74000072  124.62200165    2.86999989    2.53999996
   14.74333382  118.27700043    2.84999990    2.53999996
   14.74638939  120.57299805    2.86999989    2.51999998
   14.74777794  121.20800018    2.86999989    2.53999996
   14.75027752  122.86900330    2.84999990    2.53999996
   14.75333309  123.58899689    2.86999989    2.53999996
   14.75666714  112.31600189    2.84999990    2.53999996
   14.76000023  117.77999878    2.86999989    2.53999996
   14.76305580  110.97799683    2.86999989    2.55999994
   14.76638889  100.05400085    2.89000010    2.53999996
   14.76972198  110.07199860    2.91000009    2.53999996
   14.77277756  111.96299744    2.93000007    2.53999996
   14.77611065  120.04100037    2.93000007    2.53999996
   14.77916622  118.55500031    2.91000009    2.53999996
   14.78111076  113.14600372    2.89000010    2.53999996
   14.78305531  113.78600311    2.89000010    2.53999996
   14.78611183  110.21199799    2.86999989    2.53999996
   14.78944492  121.56500244    2.84999990    2.53999996
   14.79277802  114.81900024    2.80999994    2.55999994
   14.79583359   96.16940308    2.80999994    2.55999994
   14.79916668  107.30999756    2.84999990    2.53999996
   14.80222225  109.01300049    2.94000006    2.53999996
   14.80555534  123.51300049    2.94000006    2.53999996
   14.80888939  108.38999939    2.91000009    2.53999996
   14.81194496  124.52600098    2.91000009    2.53999996
   14.81444454  122.06800079    2.91000009    2.53999996
   14.81583309  122.34300232    2.91000009    2.53999996
   14.81888866  102.22200012    2.91000009    2.53999996
   14.82222176  123.11499786    2.94000006    2.55999994
   14.82555580  114.79699707    2.98000002    2.53999996
   14.82861137  110.80799866    2.98000002    2.55999994
   14.83194447  106.96299744    2.98000002    2.53999996
   14.83527756  118.62400055    3.00000000    2.55999994
   14.83833313  119.04699707    3.01999998    2.53999996
   14.84166622  109.39099884    3.01999998    2.53999996
   14.84472179  110.87999725    3.05999994    2.53999996
   14.84777737  110.04199982    3.07999992    2.53999996
   14.84861088  109.66600037    3.09999990    2.53999996
   14.85166740  110.53800201    3.11999989    2.53999996
   14.85500050   94.50379944    3.16000009    2.53999996
   14.85833359  100.79599762    3.14000010    2.53999996
   14.86138916  110.01499939    3.11999989    2.53999996
   14.86472225  112.06099701    3.05999994    2.55999994
   14.86777782  113.15200043    3.05999994    2.53999996
   14.87111092  109.91600037    3.03999996    2.53999996
   14.87444496  112.23200226    3.01999998    2.55999994
   14.87750053  107.34799957    2.98000002    2.53999996
   14.88083363  111.77999878    3.01999998    2.53999996
   14.88138866  111.66799927    3.01999998    2.53999996
   14.88472176  109.60299683    2.96000004    2.53999996
   14.88777733  100.47599792    2.94000006    2.53999996
   14.89111137  110.36399841    2.94000006    2.53999996
   14.89416695  109.94899750    2.94000006    2.55999994
   14.89750004  102.91200256    2.93000007    2.55999994
   14.90083313  103.06999969    2.94000006    2.55999994
   14.90388870  102.26999664    2.82999992    2.53999996
   14.90722179  108.69300079    2.78999996    2.55999994
   14.91055489  110.25800323    2.75000000    2.53999996
   14.91361046  105.98400116    2.80999994    2.55999994
   14.91472149  109.87500000    2.80999994    2.53999996
   14.91750050  111.54499817    2.82999992    2.53999996
   14.92055607  111.76599884    2.86999989    2.55999994
   14.92388916  105.46199799    2.89000010    2.53999996
   14.92694473  108.42500305    2.93000007    2.53999996
   14.93027782  104.45500183    2.93000007    2.55999994
   14.93361092  110.31300354    2.96000004    2.53999996
   14.93666649  104.37300110    3.00000000    2.53999996
   14.94000053   97.40989685    3.07999992    2.53999996
   14.94333363  102.07199860    3.18000007    2.53999996
   14.94638920   95.56529999    3.18000007    2.53999996
   14.94805527   98.87370300    3.18000007    2.53999996
   14.95027733  100.47599792    3.20000005    2.53999996
   14.95333290  101.38800049    3.30999994    2.55999994
   14.95666695  108.08000183    3.28999996    2.53999996
   14.95972157  111.36499786    3.25000000    2.53999996
   14.96305561  105.87400055    3.28999996    2.53999996
   14.96638870  102.18199921    3.30999994    2.55999994
   14.96944427  103.56099701    3.36999989    2.53999996
   14.97277737  109.65499878    3.39000010    2.53999996
   14.97611046  105.90599823    3.43000007    2.53999996
   14.97916603  107.61399841    3.45000005    2.55999994
   14.98138809  115.80300140    3.45000005    2.55999994
   14.98305511  101.82599640    3.43000007    2.55999994
   14.98611164  106.38999939    3.36999989    2.53999996
   14.98944473   97.36740112    3.28999996    2.53999996
   14.99250031  101.27999878    3.25000000    2.55999994
   14.99583340   93.42630005    3.18000007    2.53999996
   14.99916649   93.24800110    3.09999990    2.55999994
   15.00222206  100.38999939    3.05999994    2.55999994
   15.00555515  103.96399689    3.05999994    2.53999996
   15.00888920  104.00800323    3.01999998    2.53999996
   15.01194477   95.90789795    3.00000000    2.55999994
   15.01472187  107.76899719    2.94000006    2.53999996
   15.01583290   98.12079620    2.98000002    2.53999996
   15.01888847   98.04570007    2.96000004    2.53999996
   15.02222157   98.60279846    2.98000002    2.55999994
   15.02527714   95.32800293    3.00000000    2.55999994
   15.02861118  104.43800354    3.01999998    2.55999994
   15.03194427   97.76119995    3.09999990    2.55999994
   15.03500080  106.62100220    3.14000010    2.55999994
   15.03833389   99.46520233    3.16000009    2.55999994
   15.04166698  108.88899994    3.20000005    2.55999994
   15.04472256  107.87899780    3.16000009    2.55999994
   15.04805565  111.78399658    3.16000009    2.55999994
   15.04861164  106.44699860    3.16000009    2.55999994
   15.05166721  116.20899963    3.18000007    2.55999994
   15.05500031  110.66899872    3.16000009    2.55999994
   15.05805588  109.47899628    3.14000010    2.55999994
   15.06138897  109.04000092    3.11999989    2.55999994
   15.06472206  117.02700043    3.11999989    2.55999994
   15.06777763  114.53099823    3.14000010    2.55999994
   15.07111073  115.78199768    3.14000010    2.55999994
   15.07444477  110.45099640    3.14000010    2.55999994
   15.07750034  107.87899780    3.14000010    2.55999994
   15.08083344  107.02500153    3.09999990    2.55999994
   15.08138847  115.15799713    3.09999990    2.55999994
   15.08444405  114.16100311    3.07999992    2.53999996
   15.08749962  114.90899658    3.05999994    2.53999996
   15.09083271  108.27700043    3.03999996    2.55999994
   15.09388828  107.64499664    2.98000002    2.55999994
   15.09722233  111.16999817    3.01999998    2.55999994
   15.10055637  119.28700256    3.00000000    2.55999994
   15.10361195  119.81500244    3.03999996    2.55999994
   15.10694504  113.74900055    3.05999994    2.55999994
   15.11027813  121.10199738    3.05999994    2.55999994
   15.11333370  110.62100220    3.05999994    2.53999996
   15.11472225  122.04799652    3.05999994    2.55999994
   15.11722279  114.58100128    3.09999990    2.55999994
   15.12027836  120.01499939    3.09999990    2.55999994
   15.12361145  117.04599762    3.11999989    2.55999994
   15.12666702  110.26699829    3.11999989    2.55999994
   15.13000011  107.02700043    3.14000010    2.55999994
   15.13333321  113.71399689    3.14000010    2.55999994
   15.13638878  116.74900055    3.14000010    2.55999994
   15.13972187  108.08999634    3.14000010    2.55999994
   15.14305496  104.25599670    3.14000010    2.55999994
   15.14611053  106.92199707    3.11999989    2.55999994
   15.14805508  103.97299957    3.09999990    2.55999994
   15.14999962  115.63800049    3.11999989    2.55999994
   15.15305519  104.68800354    3.07999992    2.55999994
   15.15638828  110.00399780    3.07999992    2.55999994
   15.15972137  111.56300354    3.09999990    2.55999994
   15.16277695  102.85900116    3.14000010    2.55999994
   15.16611099   96.81549835    3.14000010    2.55999994
   15.16916656   97.52880096    3.11999989    2.55999994
   15.17250061  112.14900208    3.05999994    2.55999994
   15.17583370   97.36699677    3.05999994    2.55999994
   15.17888927  110.87400055    3.00000000    2.55999994
   15.18138885   97.30840302    2.98000002    2.55999994
   15.18277836   90.51570129    2.94000006    2.55999994
   15.18583298  100.07700348    2.86999989    2.57999992
   15.18916702  112.25199890    2.80999994    2.55999994
   15.19250011  105.25000000    2.84999990    2.55999994
   15.19555569  107.73400116    2.93000007    2.55999994
   15.19888878  109.15000153    2.91000009    2.55999994
   15.20222187  112.63300323    2.94000006    2.55999994
   15.20527744  111.35199738    2.93000007    2.55999994
   15.20861053  117.61399841    2.98000002    2.55999994
   15.21166611  114.14700317    3.00000000    2.55999994
   15.21472168  114.66200256    2.98000002    2.55999994
   15.21555519  115.05699921    2.96000004    2.55999994
   15.21861076  114.21099854    3.01999998    2.55999994
   15.22194386  113.68299866    3.07999992    2.55999994
   15.22527695  113.99800110    3.09999990    2.55999994
   15.22833252  106.68399811    3.11999989    2.57999992
   15.23166656  111.22599792    3.16000009    2.55999994
   15.23472214  113.64499664    3.16000009    2.57999992
   15.23805618  116.13099670    3.16000009    2.57999992
   15.24138927  119.34899902    3.16000009    2.57999992
   15.24472237  115.08100128    3.20000005    2.55999994
   15.24805546  113.49700165    3.20000005    2.57999992
   15.24861145  117.25000000    3.20000005    2.57999992
   15.25166702  113.57499695    3.14000010    2.55999994
   15.25500011  109.67199707    3.09999990    2.57999992
   15.25833321  109.51000214    3.01999998    2.57999992
   15.26138878  107.08000183    2.98000002    2.55999994
   15.26472187  110.56400299    2.89000010    2.57999992
   15.26777744  113.01699829    2.86999989    2.55999994
   15.27111053  118.06800079    2.80999994    2.55999994
   15.27444458  111.44000244    2.78999996    2.57999992
   15.27750015  126.45400238    2.76999998    2.55999994
   15.28083324  115.66400146    2.76999998    2.55999994
   15.28138828  123.29499817    2.76999998    2.55999994
   15.28444481  113.32399750    2.76999998    2.55999994
   15.28750038  116.08599854    2.84999990    2.57999992
   15.29083347  120.10099792    2.86999989    2.55999994
   15.29416752  123.44300079    2.86999989    2.57999992
   15.29722309  113.18399811    2.91000009    2.55999994
   15.30055618  115.56400299    2.91000009    2.57999992
   15.30361176  116.62899780    2.94000006    2.55999994
   15.30694485  114.44400024    2.98000002    2.57999992
   15.31027794  120.01100159    3.00000000    2.55999994
   15.31333351  115.62300110    3.05999994    2.57999992
   15.31472206  116.19599915    3.07999992    2.57999992
   15.31722260  112.59200287    3.14000010    2.57999992
   15.32027817  114.77899933    3.16000009    2.55999994
   15.32361126  112.67199707    3.16000009    2.57999992
   15.32694435  121.95200348    3.11999989    2.57999992
   15.32999992  104.12000275    3.14000010    2.55999994
   15.33333302  117.19799805    3.11999989    2.57999992
   15.33638859  105.76999664    3.14000010    2.55999994
   15.33972168  119.64099884    3.03999996    2.57999992
   15.34305477  117.66400146    3.01999998    2.57999992
   15.34611034  109.12300110    3.01999998    2.57999992
   15.34805489  108.97399902    3.01999998    2.55999994
   15.35000038  122.70600128    3.03999996    2.55999994
   15.35305595  116.82700348    3.05999994    2.57999992
   15.35638905  114.44499969    3.07999992    2.57999992
   15.35972214  105.99800110    3.05999994    2.57999992
   15.36277771  111.91100311    3.07999992    2.55999994
   15.36611176  108.37400055    3.09999990    2.57999992
   15.36916637  111.50900269    3.05999994    2.55999994
   15.37250042  107.99600220    3.05999994    2.57999992
   15.37583351  103.16200256    3.07999992    2.57999992
   15.37888908  114.78299713    3.14000010    2.57999992
   15.38138866  101.34899902    3.16000009    2.57999992
   15.38277817  106.83000183    3.16000009    2.57999992
   15.38583279  112.18900299    3.16000009    2.55999994
   15.38916683  110.79000092    3.16000009    2.55999994
   15.39249992   97.90309906    3.09999990    2.57999992
   15.39555550  102.05500031    3.11999989    2.57999992
   15.49472237   -1.00000000   -1.00000000   -1.00000000
   15.61277771   -1.00000000   -1.00000000   -1.00000000
   15.75166702   -1.00000000   -1.00000000   -1.00000000
   15.82499981   90.30110168    3.28999996    2.59999990
   15.82833290  114.74700165    3.28999996    2.57999992
   15.83166695  108.82499695    3.34999990    2.59999990
   15.83472157  116.13500214    3.39000010    2.59999990
   15.83805561  119.15200043    3.39000010    2.59999990
   15.84138870  118.17900085    3.43000007    2.59999990
   15.84444427  114.49900055    3.50000000    2.59999990
   15.84777737  112.77899933    3.51999998    2.59999990
   15.85111141  114.58499908    3.51999998    2.59999990
   15.85416698  110.20099640    3.53999996    2.59999990
   15.85750008  114.31500244    3.55999994    2.59999990
   15.85833359  119.32700348    3.55999994    2.57999992
   15.86111164  114.19999695    3.53999996    2.59999990
   15.86444473  113.02200317    3.51999998    2.59999990
   15.86750031  116.73200226    3.50000000    2.61999989
   15.87083340  117.44000244    3.45000005    2.59999990
   15.87388897  120.27799988    3.48000002    2.59999990
   15.87722206  119.78700256    3.46000004    2.59999990
   15.88055611  115.08799744    3.41000009    2.57999992
   15.88361073  108.90499878    3.43000007    2.59999990
   15.88694477  111.88300323    3.36999989    2.57999992
   15.89027786  126.17199707    3.34999990    2.59999990
   15.89166641  107.98600006    3.32999992    2.59999990
   15.89388847  110.82700348    3.34999990    2.59999990
   15.89722252  110.41600037    3.30999994    2.59999990
   15.90027714  117.31999969    3.34999990    2.59999990
   15.90361118  104.01399994    3.36999989    2.61999989
   15.90666676  105.88899994    3.34999990    2.57999992
   15.90999985  106.45600128    3.43000007    2.59999990
   15.91333294  104.16000366    3.45000005    2.59999990
   15.91638851  115.52200317    3.45000005    2.59999990
   15.91972256  113.78700256    3.51999998    2.59999990
   15.92305565  112.11900330    3.59999990    2.61999989
   15.92500019  111.96099854    3.55999994    2.59999990
   15.92666721  110.00199890    3.61999989    2.59999990
   15.93000031  111.22399902    3.70000005    2.59999990
   15.93305588  113.15399933    3.72000003    2.59999990
   15.93638897  118.69300079    3.78999996    2.59999990
   15.93972206  106.49299622    3.84999990    2.59999990
   15.94277763  105.16200256    3.86999989    2.59999990
   15.94611073  105.76999664    3.80999994    2.59999990
   15.94916630  115.61699677    3.82999992    2.59999990
   15.95249939  113.94799805    3.82999992    2.57999992
   15.95583344  106.33100128    3.80999994    2.59999990
   15.95833302  112.26499939    3.82999992    2.59999990
   15.95944405  109.87300110    3.82999992    2.59999990
   15.96277714  106.33300018    3.82999992    2.59999990
   15.96583271  100.30799866    3.84999990    2.59999990
   15.96916580  110.08999634    3.76999998    2.59999990
   15.97222137  104.30100250    3.78999996    2.59999990
   15.97555542  105.14700317    3.76999998    2.57999992
   15.97888851  111.58899689    3.76999998    2.59999990
   15.98194408  103.30599976    3.75000000    2.59999990
   15.98527813  118.71900177    3.75000000    2.59999990
   15.98861122  114.57199860    3.80999994    2.59999990
   15.99166679  109.22100067    3.73000002    2.59999990
   15.99222279  108.59799957    3.76999998    2.59999990
   15.99555588  109.04399872    3.82999992    2.59999990
   15.99861145  109.86799622    3.82999992    2.59999990
   16.00194359  104.85299683    3.93000007    2.59999990
   16.00499916  108.06300354    3.99000001    2.59999990
   16.00833321  112.38800049    4.05999994    2.57999992
   16.01166725  119.19100189    4.17999983    2.59999990
   16.01472282  108.64499664    4.09999990    2.59999990
   16.01805496  108.97000122    4.17999983    2.59999990
   16.02138901  107.58100128    4.26999998    2.59999990
   16.02444458  102.19699860    4.17999983    2.59999990
   16.02499962  108.05000305    4.17999983    2.59999990
   16.02805519   99.71859741    4.23999977    2.59999990
   16.03138924   96.79000092    4.15999985    2.59999990
   16.03444481  102.90899658    4.13999987    2.59999990
   16.03777695  109.26899719    4.13999987    2.59999990
   16.04111099  110.30000305    4.15999985    2.59999990
   16.04416656  108.56500244    4.11999989    2.59999990
   16.04749870  107.28199768    4.11999989    2.59999990
   16.05055428  119.16200256    4.07999992    2.61999989
   16.05388832  108.04199982    4.05999994    2.59999990
   16.05722237  101.05599976    4.00000000    2.59999990
   16.05833244  103.10299683    4.05999994    2.59999990
   16.06083298  106.39099884    4.07999992    2.59999990
   16.06416512  105.99500275    4.07999992    2.59999990
   16.06722260  108.89700317    4.07999992    2.59999990
   16.07055664  101.09500122    4.17999983    2.59999990
   16.07389069  105.58599854    4.03999996    2.61999989
   16.07694626  110.99299622    4.13999987    2.59999990
   16.08027840  104.86199951    4.03999996    2.59999990
   16.08333397  105.76100159    4.13999987    2.59999990
   16.08666801  103.58100128    4.13999987    2.59999990
   16.09000015  110.37500000    4.15999985    2.59999990
   16.09166718  108.49099731    4.15999985    2.59999990
   16.09361267  108.89700317    4.23999977    2.59999990
   16.09694481  113.44400024    4.26000023    2.59999990
   16.10000038  107.98200226    4.32999992    2.59999990
   16.10333443  106.07700348    4.32999992    2.61999989
   16.10666656  110.54100037    4.34999990    2.59999990
   16.10972214  113.81300354    4.44999981    2.59999990
   16.11305618  104.36100006    4.46999979    2.59999990
   16.11611176  112.27200317    4.51000023    2.59999990
   16.11944389  104.40000153    4.46999979    2.59999990
   16.12277794  107.61900330    4.48999977    2.59999990
   16.12500000  107.41899872    4.51000023    2.59999990
   16.12638855  103.18199921    4.53000021    2.59999990
   16.12972260  115.31500244    4.53000021    2.59999990
   16.13277817  106.90000153    4.48999977    2.59999990
   16.13611031  110.13200378    4.57999992    2.59999990
   16.13944435  110.98799896    4.48999977    2.59999990
   16.14249992  107.66799927    4.53999996    2.59999990
   16.14583397  104.23300171    4.53000021    2.59999990
   16.14888954  104.16400146    4.44999981    2.59999990
   16.15222168  110.72899628    4.42999983    2.59999990
   16.15555573  108.03299713    4.30999994    2.59999990
   16.15833282  106.17900085    4.28999996    2.59999990
   16.15916634  103.03900146    4.26999998    2.59999990
   16.16250038  102.26399994    4.21999979    2.59999990
   16.16555595  111.94699860    4.21999979    2.59999990
   16.16888809  109.58999634    4.26000023    2.59999990
   16.17222214  105.58100128    4.26000023    2.61999989
   16.17527771  110.19100189    4.36999989    2.59999990
   16.17860985  108.15799713    4.34999990    2.59999990
   16.18166542  109.91000366    4.34999990    2.61999989
   16.18499947  107.99099731    4.48999977    2.59999990
   16.18833160   98.48079681    4.57999992    2.61999989
   16.19138718  112.46800232    4.53999996    2.59999990
   16.19194412  106.25099945    4.59999990    2.59999990
   16.19527626  101.65000153    4.71999979    2.61999989
   16.19861031  104.97100067    4.80000019    2.61999989
   16.20166779  108.85800171    4.84999990    2.59999990
   16.20499992  116.94699860    4.84999990    2.61999989
   16.20805550  104.76300049    4.82999992    2.61999989
   16.21138954  110.02899933    4.73999977    2.59999990
   16.21472359  108.80699921    4.80999994    2.59999990
   16.21777916  100.66699982    4.84999990    2.59999990
   16.22111130  101.63700104    4.80000019    2.59999990
   16.22444534  101.88800049    4.80000019    2.61999989
   16.22527885  103.91200256    4.82999992    2.59999990
   16.22805595  111.67400360    4.80999994    2.59999990
   16.23139000  109.43499756    4.76000023    2.59999990
   16.23444557  103.75199890    4.69999981    2.59999990
   16.23777771  100.55799866    4.65999985    2.59999990
   16.24083328  100.27400208    4.61999989    2.61999989
   16.24416733  112.23400116    4.55999994    2.59999990
   16.24749947  100.78600311    4.57999992    2.61999989
   16.25083351  102.48699951    4.55999994    2.61999989
   16.25388908  107.77400208    4.53000021    2.61999989
   16.25722313  107.41999817    4.57999992    2.59999990
   16.25861168  106.90100098    4.61999989    2.59999990
   16.26083374  113.16999817    4.61999989    2.61999989
   16.26416588  109.02700043    4.63999987    2.59999990
   16.26722145  109.05799866    4.73999977    2.59999990
   16.27055550  112.48799896    4.82999992    2.61999989
   16.27361107  106.10800171    4.90999985    2.59999990
   16.27694511  109.82800293    4.90999985    2.61999989
   16.28027725  115.11499786    4.90999985    2.61999989
   16.28333282  113.74199677    4.90999985    2.59999990
   16.28666687  116.80999756    4.90999985    2.59999990
   16.28999901  113.60700226    4.90999985    2.61999989
   16.29194450  115.55100250    4.90999985    2.61999989
   16.29361153  115.73799896    4.90999985    2.59999990
   16.29694366  116.97799683    4.90999985    2.61999989
   16.29999924  113.89800262    4.90999985    2.59999990
   16.30333328  103.87100220    4.90999985    2.61999989
   16.30638885  114.41799927    4.90999985    2.61999989
   16.30972099  108.16100311    4.90999985    2.61999989
   16.31305504  108.51999664    4.90999985    2.59999990
   16.31611061  111.22899628    4.90999985    2.59999990
   16.31944466  106.30899811    4.90999985    2.59999990
   16.32277870  104.97899628    4.90999985    2.59999990
   16.32527924  115.25900269    4.90999985    2.59999990
   16.32638931  113.25700378    4.90999985    2.59999990
   16.32972336  115.16899872    4.90999985    2.61999989
   16.33277893  112.30599976    4.90999985    2.59999990
   16.33611107  115.78099823    4.90999985    2.59999990
   16.33916664  110.22200012    4.90999985    2.59999990
   16.34250069  113.96900177    4.90999985    2.61999989
   16.34583473  109.26300049    4.90999985    2.59999990
   16.34889030  107.73100281    4.90999985    2.61999989
   16.35222244  117.78800201    4.90999985    2.59999990
   16.35555649  115.90200043    4.90999985    2.59999990
   16.35861206  113.75299835    4.90999985    2.59999990
   16.35916710  112.39800262    4.90999985    2.59999990
   16.36250114  111.73699951    4.90999985    2.59999990
   16.36555672  110.13800049    4.90999985    2.61999989
   16.36888885  104.40100098    4.90999985    2.61999989
   16.37194443  108.59100342    4.90999985    2.61999989
   16.37527847  110.01799774    4.90999985    2.59999990
   16.37861061  110.91100311    4.90999985    2.59999990
   16.38166618   99.04129791    4.90999985    2.61999989
   16.38500023  104.92900085    4.90999985    2.61999989
   16.38833237  104.60099792    4.90999985    2.61999989
   16.39138794  107.19400024    4.90999985    2.59999990
   16.39194489  108.29599762    4.90999985    2.61999989
   16.39500046  106.04299927    4.90999985    2.61999989
   16.39833260  105.29100037    4.90999985    2.61999989
   16.40138817  104.55899811    4.90999985    2.61999989
   16.40472221  103.76399994    4.90999985    2.59999990
   16.40777779  100.22399902    4.90999985    2.61999989
   16.41110992  105.75199890    4.90999985    2.61999989
   16.41444397  106.11299896    4.90999985    2.59999990
   16.41749954  108.29100037    4.90999985    2.61999989
   16.42083359  101.25399780    4.90999985    2.61999989
   16.42416573  104.60900116    4.90999985    2.59999990
   16.42527771  104.87200165    4.90999985    2.59999990
   16.42777634  100.82299805    4.90999985    2.59999990
   16.43111038  110.00299835    4.90999985    2.61999989
   16.43416595  110.06300354    4.90999985    2.59999990
   16.43750000  100.73400116    4.90999985    2.61999989
   16.44083214  102.76699829    4.90999985    2.61999989
   16.44388771  100.07499695    4.90999985    2.61999989
   16.44722176  108.83799744    4.90999985    2.61999989
   16.45027924  105.95500183    4.90999985    2.61999989
   16.45361137  104.01000214    4.90999985    2.61999989
   16.45694542  105.26399994    4.90999985    2.59999990
   16.45861244  105.73200226    4.90999985    2.61999989
   16.46055603  108.40599823    4.90999985    2.61999989
   16.46389008   99.66850281    4.90999985    2.59999990
   16.46694565  106.73400116    4.90999985    2.61999989
   16.47027779  100.02799988    4.90999985    2.61999989
   16.47361183  104.48200226    4.90999985    2.59999990
   16.47666740   99.46140289    4.90999985    2.61999989
   16.48000145  104.69100189    4.90999985    2.61999989
   16.48305511  103.46099854    4.90999985    2.61999989
   16.48638916  103.81500244    4.90999985    2.59999990
   16.48972321  107.30500031    4.90999985    2.61999989
   16.49194527  108.21600342    4.90999985    2.61999989
   16.49333382  115.74700165    4.90999985    2.61999989
   16.49666786  108.04100037    4.90999985    2.61999989
   16.49972153  114.75700378    4.90999985    2.59999990
   16.50305557  104.27799988    4.90999985    2.61999989
   16.50638962  110.54100037    4.90999985    2.59999990
   16.50944519  111.14299774    4.90999985    2.59999990
   16.51277733  114.04399872    4.90999985    2.61999989
   16.51583290  105.32099915    4.90999985    2.61999989
   16.51916695  111.33499908    4.90999985    2.59999990
   16.52249908  110.91400146    4.90999985    2.61999989
   16.52527809  112.81700134    4.90999985    2.61999989
   16.52611160  119.96499634    4.90999985    2.61999989
   16.52944374  108.38099670    4.90999985    2.61999989
   16.53249931  110.61399841    4.90999985    2.61999989
   16.53583336  113.17299652    4.90999985    2.61999989
   16.53916550  114.50800323    4.90999985    2.61999989
   16.54222107  118.34500122    4.90999985    2.59999990
   16.54555511  111.81999969    4.90999985    2.61999989
   16.54861069  111.75599670    4.90999985    2.61999989
   16.55194283  103.04799652    4.90999985    2.61999989
   16.55527687  111.29799652    4.90999985    2.61999989
   16.55833244  107.12100220    4.90999985    2.59999990
   16.55888748  110.19200134    4.90999985    2.59999990
   16.56222153   97.55570221    4.90999985    2.61999989
   16.56555557  107.09200287    4.90999985    2.59999990
   16.56861115  111.64099884    4.90999985    2.61999989
   16.57194519  111.54499817    4.90999985    2.61999989
   16.57500076  110.66799927    4.90999985    2.61999989
   16.57833481  101.46199799    4.90999985    2.59999990
   16.58166695  109.77700043    4.90999985    2.61999989
   16.58500099  106.58499908    4.90999985    2.61999989
   16.58805656  123.83799744    4.90999985    2.61999989
   16.59138870  123.20099640    4.90999985    2.61999989
   16.59222221  114.58399963    4.90999985    2.61999989
   16.59500122  105.49099731    4.90999985    2.61999989
   16.59833336  103.08899689    4.90999985    2.59999990
   16.60138893  102.14499664    4.90999985    2.59999990
   16.60472298  109.35600281    4.90999985    2.61999989
   16.60777855   99.81400299    4.90999985    2.61999989
   16.61111069  104.60199738    4.90999985    2.61999989
   16.61444473  107.24500275    4.90999985    2.59999990
   16.61750031  109.29000092    4.90999985    2.61999989
   16.62083435  108.23899841    4.90999985    2.59999990
   16.62416649  107.62200165    4.90999985    2.61999989
   16.62555504  108.65399933    4.90999985    2.61999989
   16.62777710  109.05999756    4.90999985    2.59999990
   16.63111115  114.69300079    4.90999985    2.61999989
   16.63416672  104.01599884    4.90999985    2.61999989
   16.63750076  106.61900330    4.90999985    2.61999989
   16.64055634  101.86900330    4.90999985    2.61999989
   16.64388847  112.83399963    4.90999985    2.61999989
   16.64722252  107.60299683    4.90999985    2.59999990
   16.65027809  109.44999695    4.90999985    2.61999989
   16.65361023  111.08399963    4.90999985    2.61999989
   16.65694427  109.70600128    4.90999985    2.61999989
   16.65888786  107.68599701    4.90999985    2.61999989
   16.66055489  110.58100128    4.90999985    2.59999990
   16.66388893  110.29499817    4.90999985    2.61999989
   16.66694450  110.14299774    4.90999985    2.61999989
   16.67027664   99.96890259    4.90999985    2.61999989
   16.67333221  104.25299835    4.90999985    2.61999989
   16.67666626  117.10600281    4.90999985    2.59999990
   16.68000031  103.04900360    4.90999985    2.61999989
   16.68305397  111.99900055    4.90999985    2.61999989
   16.68638802  119.88600159    4.90999985    2.61999989
   16.68972206  111.54599762    4.90999985    2.61999989
   16.69222069  114.41100311    4.90999985    2.61999989
   16.69333267  113.73000336    4.90999985    2.61999989
   16.69666672  100.83399963    4.90999985    2.61999989
   16.69972038  112.12699890    4.90999985    2.59999990
   16.70305634  109.35800171    4.90999985    2.61999989
   16.70611191  106.84400177    4.90999985    2.59999990
   16.70944595  113.26999664    4.90999985    2.59999990
   16.71277809  110.55699921    4.90999985    2.61999989
   16.71583366  111.96499634    4.90999985    2.61999989
   16.71916771  111.67700195    4.90999985    2.61999989
   16.72249985  102.70300293    4.90999985    2.61999989
   16.72555542  116.37300110    4.90999985    2.61999989
   16.72611237  104.99900055    4.90999985    2.61999989
   16.72944450  109.17400360    4.90999985    2.61999989
   16.73250008  107.40200043    4.90999985    2.61999989
   16.73583412  101.08799744    4.90999985    2.61999989
   16.73888969  104.52999878    4.90999985    2.61999989
   16.74222183  103.93800354    4.90999985    2.61999989
   16.74555588  107.71299744    4.90999985    2.61999989
   16.74861145  107.97200012    4.90999985    2.61999989
   16.75194359  111.16799927    4.90999985    2.61999989
   16.75527763  107.54799652    4.90999985    2.61999989
   16.75833321   96.46659851    4.90999985    2.61999989
   16.75888824  112.11100006    4.90999985    2.61999989
   16.76194382  104.79900360    4.90999985    2.59999990
   16.76527786  108.19899750    4.90999985    2.61999989
   16.76833344  111.68699646    4.90999985    2.61999989
   16.77166557  105.93599701    4.90999985    2.61999989
   16.77472115   97.47760010    4.90999985    2.61999989
   16.77805519  109.53399658    4.90999985    2.59999990
   16.78138924   98.46420288    4.90999985    2.61999989
   16.78444481  104.07199860    4.90999985    2.61999989
   16.78777695   99.62249756    4.90999985    2.61999989
   16.79111099   97.68440247    4.90999985    2.61999989
   16.79222107  106.65599823    4.90999985    2.61999989
   16.79472160   97.89559937    4.90999985    2.61999989
   16.79805565  107.94699860    4.90999985    2.61999989
   16.80111122  102.50099945    4.90999985    2.61999989
   16.80444336  109.84600067    4.90999985    2.61999989
   16.80777740  107.31999969    4.90999985    2.61999989
   16.81083298  104.85500336    4.90999985    2.61999989
   16.81416512  106.24600220    4.90999985    2.61999989
   16.81722260  108.73999786    4.90999985    2.61999989
   16.82055664  103.51200104    4.90999985    2.61999989
   16.82389069  110.08799744    4.90999985    2.61999989
   16.84194565  105.30000305    4.90999985    2.61999989
   16.84361267  105.74199677    4.90999985    2.61999989
   16.84694481  100.29399872    4.90999985    2.61999989
   16.85027885  110.97000122    4.90999985    2.59999990
   16.85333443   96.73609924    4.90999985    2.61999989
   16.85666656  113.90000153    4.90999985    2.64000010
   16.85972214   88.11260223    4.90999985    2.64000010
   16.86305618   93.43389893    4.90999985    2.61999989
   16.86638832  105.62300110    4.90999985    2.61999989
   16.86944389  105.76499939    4.90999985    2.61999989
   16.87277794  105.08000183    4.90999985    2.61999989
   16.87500000   99.06250000    4.90999985    2.61999989
   16.87638855  105.59999847    4.90999985    2.61999989
   16.87972260  103.49900055    4.90999985    2.61999989
   16.88277817  101.58899689    4.90999985    2.61999989
   16.88611031  100.03399658    4.90999985    2.61999989
   16.88916588  102.07299805    4.90999985    2.61999989
   16.89249992  104.36399841    4.90999985    2.61999989
   16.89583397  102.00099945    4.90999985    2.61999989
   16.89888954   99.46600342    4.90999985    2.64000010
   16.90222168  110.71900177    4.90999985    2.61999989
   16.90555573  102.61699677    4.90999985    2.61999989
   16.90833282   99.83609772    4.90999985    2.61999989
   16.90916634  108.63800049    4.90999985    2.61999989
   16.91250038   91.39369965    4.90999985    2.61999989
   16.91555595  105.04199982    4.90999985    2.61999989
   16.91888809  105.49800110    4.90999985    2.61999989
   16.92194366  103.86399841    4.90999985    2.61999989
   16.92527771  104.14199829    4.90999985    2.61999989
   16.92860985  103.74400330    4.90999985    2.61999989
   16.93166542  106.61900330    4.90999985    2.61999989
   16.93499947  106.89399719    4.90999985    2.61999989
   16.93833160  104.94899750    4.90999985    2.61999989
   16.94138718  100.39499664    4.90999985    2.64000010
   16.94194412  103.45800018    4.90999985    2.61999989
   16.94527626   95.38369751    4.90999985    2.61999989
   16.94833183  103.80400085    4.90999985    2.61999989
   16.95166779  104.94599915    4.90999985    2.61999989
   16.95499992  109.07199860    4.90999985    2.61999989
   16.95805550  102.35600281    4.90999985    2.61999989
   16.96138954   99.41649628    4.90999985    2.61999989
   16.96472359  103.00000000    4.90999985    2.61999989
   16.96777916  101.40599823    4.90999985    2.64000010
   16.97111130  105.56199646    4.90999985    2.61999989
   16.97416687  104.77999878    4.90999985    2.61999989
   16.97527885  100.57800293    4.90999985    2.59999990
   16.97805595  103.95700073    4.90999985    2.61999989
   16.98111153  103.88099670    4.90999985    2.61999989
   16.98444557  101.06300354    4.90999985    2.61999989
   16.98777771  103.58799744    4.90999985    2.61999989
   16.99083328  102.78700256    4.90999985    2.61999989
   16.99416733  107.59700012    4.90999985    2.59999990
   16.99749947  102.82399750    4.90999985    2.61999989
   17.00055504  102.89900208    4.90999985    2.61999989
   17.00388908   97.75279999    4.90999985    2.61999989
   17.00694466   97.52079773    4.90999985    2.59999990
   17.00861168   97.39369965    4.90999985    2.61999989
   17.01083374  101.41600037    4.90999985    2.59999990
   17.01416588   95.55039978    4.90999985    2.59999990
   17.01722145   95.12830353    4.90999985    2.59999990
   17.02055550   99.43109894    4.90999985    2.61999989
   17.02388954   98.99120331    4.90999985    2.59999990
   17.02694511  103.75199890    4.90999985    2.61999989
   17.03027725  104.40499878    4.90999985    2.61999989
   17.03333282   99.96279907    4.90999985    2.61999989
   17.03666687   95.51210022    4.90999985    2.61999989
   17.03999901   97.83439636    4.90999985    2.61999989
   17.04194450   96.59750366    4.90999985    2.59999990
   17.04361153   99.73870087    4.90999985    2.59999990
   17.04666710   99.38349915    4.90999985    2.61999989
   17.04999924  102.58699799    4.90999985    2.59999990
   17.05333328   97.99739838    4.90999985    2.59999990
   17.05638885   97.00080109    4.90999985    2.59999990
   17.05972099   97.09420013    4.90999985    2.61999989
   17.06305504   95.14029694    4.90999985    2.61999989
   17.06611061   95.97859955    4.90999985    2.61999989
   17.06944466  100.65499878    4.90999985    2.61999989
   17.07250023   97.37470245    4.90999985    2.61999989
   17.07527924   90.66089630    4.90999985    2.61999989
   17.07638931   92.86820221    4.90999985    2.61999989
   17.07972336  100.82499695    4.90999985    2.61999989
   17.08277893   93.83789825    4.90999985    2.61999989
   17.08611107   98.91470337    4.90999985    2.59999990
   17.08916664   95.97370148    4.90999985    2.59999990
   17.09250069   99.09609985    4.90999985    2.59999990
   17.09583473  108.60600281    4.90999985    2.61999989
   17.09916687   98.96839905    4.90999985    2.61999989
   17.10222244  103.89299774    4.90999985    2.61999989
   17.10555649   97.04720306    4.90999985    2.61999989
   17.10861206   97.02519989    4.90999985    2.61999989
   17.10916710   95.46849823    4.90999985    2.61999989
   17.11250114   99.92549896    4.90999985    2.59999990
   17.11555672   96.80829620    4.90999985    2.61999989
   17.11888885   98.97260284    4.90999985    2.61999989
   17.12194443   94.24189758    4.90999985    2.59999990
   17.12527847   94.29250336    4.90999985    2.61999989
   17.12861061   94.50340271    4.90999985    2.61999989
   17.13166618   97.81529999    4.90999985    2.59999990
   17.13500023   96.22640228    4.90999985    2.61999989
   17.13833237   97.54139709    4.90999985    2.61999989
   17.14138794   97.24479675    4.90999985    2.61999989
   17.14194489   97.39900208    4.90999985    2.59999990
   17.14500046   95.85890198    4.90999985    2.61999989
   17.14833260   95.58879852    4.90999985    2.59999990
   17.15138817   94.74349976    4.90999985    2.61999989
   17.15472221   97.18170166    4.90999985    2.61999989
   17.15777779   97.99299622    4.90999985    2.59999990
   17.16110992   91.77200317    4.90999985    2.59999990
   17.16444397   97.25099945    4.90999985    2.59999990
   17.16749954   97.08100128    4.90999985    2.59999990
   17.17083359   95.81880188    4.90999985    2.61999989
   17.17416573   98.54830170    4.90999985    2.59999990
   17.17527771   97.24289703    4.90999985    2.61999989
   17.17777634   99.45480347    4.90999985    2.61999989
   17.18111038   95.64700317    4.90999985    2.59999990
   17.18416595   92.87419891    4.90999985    2.61999989
   17.18750000  101.66699982    4.90999985    2.61999989
   17.19083214   93.65440369    4.90999985    2.59999990
   17.19388771   93.90969849    4.90999985    2.59999990
   17.19722176   95.40750122    4.90999985    2.59999990
   17.20027924   95.41880035    4.90999985    2.59999990
   17.20361137   91.39939880    4.90999985    2.59999990
   17.20694542   93.00610352    4.90999985    2.59999990
   17.20861244   97.56469727    4.90999985    2.61999989
   17.21055603   94.87650299    4.90999985    2.61999989
   17.21389008   91.86039734    4.90999985    2.59999990
   17.21694565   92.56479645    4.90999985    2.59999990
   17.22027779   93.54979706    4.90999985    2.59999990
   17.22361183   93.35669708    4.90999985    2.61999989
   17.22666740   96.17639923    4.90999985    2.59999990
   17.23000145   96.16560364    4.90999985    2.61999989
   17.23305511   91.77749634    4.90999985    2.61999989
   17.23638916   97.76149750    4.90999985    2.61999989
   17.23972321   95.36969757    4.90999985    2.59999990
   17.24194527  100.41100311    4.90999985    2.59999990
   17.24333382   93.41729736    4.90999985    2.59999990
   17.24666786   93.27529907    4.90999985    2.59999990
   17.24972153  100.49400330    4.90999985    2.59999990
   17.25305557  102.18399811    4.90999985    2.61999989
   17.25638962   97.67479706    4.90999985    2.59999990
   17.25944519   99.91760254    4.90999985    2.59999990
   17.26277733   94.88580322    4.90999985    2.59999990
   17.26611137  100.43699646    4.90999985    2.61999989
   17.26916695   90.37879944    4.90999985    2.59999990
   17.27249908   93.51059723    4.90999985    2.59999990
   17.27527809   91.95339966    4.90999985    2.59999990
   17.27611160   95.27390289    4.90999985    2.59999990
   17.27944374   93.30329895    4.90999985    2.59999990
   17.28249931   91.74520111    4.90999985    2.59999990
   17.28583336   93.44090271    4.90999985    2.61999989
   17.28916550   99.37090302    4.90999985    2.61999989
   17.29222107   93.53649902    4.90999985    2.59999990
   17.29555511   91.11889648    4.90999985    2.61999989
   17.29861069   95.34989929    4.90999985    2.61999989
   17.30194283   94.53730011    4.90999985    2.59999990
   17.30527687   96.10630035    4.90999985    2.59999990
   17.30833244   95.73439789    4.90999985    2.59999990
   17.30888748   93.16549683    4.90999985    2.59999990
   17.31222153   96.66899872    4.90999985    2.57999992
   17.31555557   99.51750183    4.90999985    2.59999990
   17.31861115   94.28510284    4.90999985    2.59999990
   17.32194519   91.06120300    4.90999985    2.59999990
   17.32500076   95.38899994    4.90999985    2.61999989
   17.32833481   96.34259796    4.90999985    2.59999990
   17.33166695  100.61499786    4.90999985    2.59999990
   17.33472252  102.92900085    4.90999985    2.59999990
   17.33805656   97.04969788    4.90999985    2.59999990
   17.34138870   92.85530090    4.90999985    2.59999990
   17.34222221   93.35810089    4.90999985    2.59999990
   17.34500122   94.58699799    4.90999985    2.59999990
   17.34833336   94.75969696    4.90999985    2.59999990
   17.35138893   98.23899841    4.90999985    2.59999990
   17.35472298   96.46360016    4.90999985    2.59999990
   17.35777855  101.76499939    4.90999985    2.59999990
   17.36138916   98.91369629    4.90999985    2.59999990
   17.36472321  105.06800079    4.90999985    2.59999990
   17.36777878   94.84989929    4.90999985    2.59999990
   17.37111092   98.20010376    4.90999985    2.61999989
   17.37444496  100.23699951    4.90999985    2.59999990
   17.37555504   98.29879761    4.90999985    2.59999990
   17.37805557   99.84660339    4.90999985    2.59999990
   17.38138962  104.51100159    4.90999985    2.61999989
   17.38444519  107.59100342    4.90999985    2.59999990
   17.38777733  101.09600067    4.90999985    2.59999990
   17.39083290  103.31800079    4.90999985    2.61999989
   17.39416695  103.74800110    4.90999985    2.59999990
   17.39749908   96.35130310    4.90999985    2.59999990
   17.40055466   97.09269714    4.90999985    2.59999990
   17.40388870   98.28880310    4.90999985    2.61999989
   17.40722275  105.09100342    4.90999985    2.61999989
   17.40888786  103.81600189    4.90999985    2.61999989
   17.41083336  100.53399658    4.90999985    2.61999989
   17.41416550  101.51300049    4.90999985    2.61999989
   17.41722107  102.49600220    4.90999985    2.59999990
   17.42055511   98.39949799    4.90999985    2.59999990
   17.42361069  105.32599640    4.90999985    2.59999990
   17.42694473   98.32910156    4.90999985    2.59999990
   17.43027687   95.45149994    4.90999985    2.57999992
   17.43333244  101.83599854    4.90999985    2.59999990
   17.43666649  103.07199860    4.90999985    2.61999989
   17.43999863   91.39589691    4.90999985    2.59999990
   17.44222069   91.88749695    4.90999985    2.55999994
   17.44361115  100.15299988    4.90999985    2.55999994
   17.44694328   94.44129944    4.90999985    2.59999990
   17.45000076   99.88659668    4.90999985    2.61999989
   17.45333481   99.07800293    4.90999985    2.61999989
   17.45639038   97.90380096    4.90999985    2.61999989
   17.45972252   92.49009705    4.90999985    2.59999990
   17.46305656   98.41899872    4.90999985    2.61999989
   17.46611214   97.05400085    4.90999985    2.59999990
   17.46944427   98.86679840    4.90999985    2.57999992
   17.47277832  103.63999939    4.90999985    2.55999994
   17.47555542  103.48699951    4.90999985    2.57999992
   17.47638893   95.16010284    4.90999985    2.57999992
   17.47972298   99.69580078    4.90999985    2.61999989
   17.48277855  100.62599945    4.90999985    2.61999989
   17.48611069  103.07599640    4.90999985    2.59999990
   17.48916626  107.94499969    4.90999985    2.59999990
   17.49250031  107.60800171    4.90999985    2.59999990
   17.49583435  103.26499939    4.90999985    2.59999990
   17.49888992  106.09300232    4.90999985    2.59999990
   17.50222206  101.67700195    4.90999985    2.59999990
   17.50555611  108.99299622    4.90999985    2.59999990
   17.50861168  106.31600189    4.90999985    2.59999990
   17.50916672  101.34799957    4.90999985    2.59999990
   17.51250076  101.28500366    4.90999985    2.59999990
   17.51583290  104.00000000    4.90999985    2.59999990
   17.51888847  104.01200104    4.90999985    2.59999990
   17.52222252  104.91500092    4.90999985    2.59999990
   17.52527809  103.34300232    4.90999985    2.59999990
   17.52861023  107.27999878    4.90999985    2.59999990
   17.53194427  110.72699738    4.90999985    2.59999990
   17.53499985  112.41300201    4.90999985    2.59999990
   17.53833199   98.02359772    4.90999985    2.59999990
   17.54166603  107.47899628    4.90999985    2.59999990
   17.54249954  105.68800354    4.90999985    2.59999990
   17.54527664  105.29900360    4.90999985    2.59999990
   17.54833221  106.47399902    4.90999985    2.59999990
   17.55166626  102.19499969    4.90999985    2.59999990
   17.55499840  105.00499725    4.90999985    2.59999990
   17.55805397  100.25900269    4.90999985    2.61999989
   17.56138802  106.45300293    4.90999985    2.59999990
   17.56472206  108.75499725    4.90999985    2.59999990
   17.56777954  102.76499939    4.90999985    2.59999990
   17.57111168  105.87999725    4.90999985    2.57999992
   17.57416725  102.64700317    4.90999985    2.59999990
   17.57583427   96.55539703    4.90999985    2.59999990
   17.57805634  103.56600189    4.90999985    2.59999990
   17.58111191  101.76899719    4.90999985    2.59999990
   17.58444595  100.01799774    4.90999985    2.59999990
   17.58777809  102.71199799    4.90999985    2.59999990
   17.59083366   93.43119812    4.90999985    2.59999990
   17.59416771   96.99160004    4.90999985    2.59999990
   17.59749985  101.18499756    4.90999985    2.59999990
   17.60055542  101.79799652    4.90999985    2.59999990
   17.60388947   97.18589783    4.90999985    2.59999990
   17.60722351   97.92019653    4.90999985    2.59999990
   17.60916710  101.95400238    4.90999985    2.57999992
   17.61083412  100.10600281    4.90999985    2.59999990
   17.61388969  106.43499756    4.90999985    2.59999990
   17.61722183  109.14399719    4.90999985    2.59999990
   17.62055588  102.50000000    4.90999985    2.59999990
   17.62361145  104.84300232    4.90999985    2.59999990
   17.62694550   99.35620117    4.90999985    2.57999992
   17.63027763  101.88400269    4.90999985    2.61999989
   17.63333321  103.10700226    4.90999985    2.57999992
   17.63666725  106.06300354    4.90999985    2.59999990
   17.63972282  102.63600159    4.90999985    2.59999990
   17.64249992  104.28600311    4.90999985    2.59999990
   17.64361191  104.96900177    4.90999985    2.59999990
   17.64666748  108.97200012    4.90999985    2.59999990
   17.64999962  107.64199829    4.90999985    2.59999990
   17.65333366  102.77899933    4.90999985    2.57999992
   17.65638924  106.20999908    4.90999985    2.59999990
   17.65972137  105.81400299    4.90999985    2.59999990
   17.66305542   97.00229645    4.90999985    2.59999990
   17.66611099  106.51599884    4.90999985    2.59999990
   17.66944313   92.51519775    4.90999985    2.59999990
   17.67249870  108.58999634    4.90999985    2.59999990
   17.67583275  115.03500366    4.90999985    2.59999990
   17.67638779  102.95999908    4.90999985    2.57999992
   17.67944336  100.71700287    4.90999985    2.59999990
   17.68277740  105.29499817    4.90999985    2.57999992
   17.68610954  111.79900360    4.90999985    2.59999990
   17.68916512  105.75099945    4.90999985    2.59999990
   17.69249916   98.93750000    4.90999985    2.57999992
   17.69583321  102.09500122    4.90999985    2.59999990
   17.69888878  101.51999664    4.90999985    2.59999990
   17.70222282   90.42150116    4.90999985    2.59999990
   17.70527840   98.10880280    4.90999985    2.59999990
   17.70861244  103.12999725    4.90999985    2.59999990
   17.70916748  106.93900299    4.90999985    2.59999990
   17.71222305  103.86799622    4.90999985    2.59999990
   17.71527863  103.27400208    4.90999985    2.57999992
   17.71861076  100.72100067    4.90999985    2.59999990
   17.72194481  100.16999817    4.90999985    2.59999990
   17.72500038  103.15699768    4.90999985    2.59999990
   17.72833443  106.77100372    4.90999985    2.57999992
   17.73166656   98.36389923    4.90999985    2.59999990
   17.73472214  102.73100281    4.90999985    2.59999990
   17.73805618  101.52400208    4.90999985    2.59999990
   17.74111176  102.00199890    4.90999985    2.59999990
   17.74250031  101.94899750    4.90999985    2.59999990
   17.74500084  102.58799744    4.90999985    2.59999990
   17.74833298  100.78299713    4.90999985    2.57999992
   17.75138855  104.16899872    4.90999985    2.57999992
   17.75472260  103.37200165    4.90999985    2.57999992
   17.75777817  103.61000061    4.90999985    2.59999990
   17.76111031  102.17299652    4.90999985    2.59999990
   17.76444435  102.53900146    4.90999985    2.57999992
   17.76749992  105.83499908    4.90999985    2.59999990
   17.77083397  102.58499908    4.90999985    2.59999990
   17.77416611   96.16020203    4.90999985    2.59999990
   17.77583313   95.26170349    4.90999985    2.59999990
   17.77777672  100.29699707    4.90999985    2.59999990
   17.78111076   95.22219849    4.90999985    2.59999990
   17.78416634  103.77700043    4.90999985    2.59999990
   17.78750038  104.11000061    4.90999985    2.59999990
   17.79055595  102.02799988    4.90999985    2.59999990
   17.79388809  100.84500122    4.90999985    2.59999990
   17.79722214  106.23100281    4.90999985    2.59999990
   17.80027771  104.90899658    4.90999985    2.57999992
   17.80360985  108.45200348    4.90999985    2.57999992
   17.80694389  104.40200043    4.90999985    2.59999990
   17.80916595  102.59400177    4.90999985    2.57999992
   17.81055450  106.14600372    4.90999985    2.59999990
   17.81388855  104.02700043    4.90999985    2.57999992
   17.81694603  109.00199890    4.90999985    2.59999990
   17.82027817  101.37100220    4.90999985    2.57999992
   17.82333374  101.73300171    4.90999985    2.59999990
   17.82666779  107.59700012    4.90999985    2.59999990
   17.83000183  103.05000305    4.90999985    2.59999990
   17.83305550  101.83399963    4.90999985    2.59999990
   17.83638954  103.10900116    4.90999985    2.57999992
   17.83972359  100.61699677    4.90999985    2.57999992
   17.85833359  106.19899750    4.90999985    2.57999992
   17.85944557  107.53500366    4.90999985    2.59999990
   17.86277771  116.63600159    4.90999985    2.59999990
   17.86583328  101.12899780    4.90999985    2.59999990
   17.86916733  104.57800293    4.90999985    2.57999992
   17.87222290  102.37500000    4.90999985    2.57999992
   17.87555504  100.83999634    4.90999985    2.59999990
   17.87888908   96.46720123    4.90999985    2.59999990
   17.88194466  104.30599976    4.90999985    2.59999990
   17.88527679   95.65010071    4.90999985    2.57999992
   17.88861084  100.38099670    4.90999985    2.59999990
   17.89166641  100.74199677    4.90999985    2.59999990
   17.89222145   95.72409821    4.90999985    2.59999990
   17.89527702   99.04599762    4.90999985    2.59999990
   17.89861107   95.04689789    4.90999985    2.59999990
   17.90166664   94.95809937    4.90999985    2.57999992
   17.90499878  102.79499817    4.90999985    2.59999990
   17.90833282   97.81970215    4.90999985    2.59999990
   17.91138840  103.38500214    4.90999985    2.57999992
   17.91472244   98.15879822    4.90999985    2.57999992
   17.91777802  101.07299805    4.90999985    2.59999990
   17.92111015   99.56819916    4.90999985    2.59999990
   17.92444420  102.10299683    4.90999985    2.59999990
   17.92499924   91.84739685    4.90999985    2.59999990
   17.92805481   96.98930359    4.90999985    2.59999990
   17.93111038  102.28299713    4.90999985    2.66000009
   17.93444443   95.40190125    4.90999985    2.67000008
   17.93750000  101.02799988    4.90999985    2.67000008
   17.94083214  101.48000336    4.90999985    2.67000008
   17.94416618  102.84799957    4.90999985    2.64000010
   17.94722176   98.96669769    4.90999985    2.64000010
   17.95055580  105.11599731    4.90999985    2.67000008
   17.95388985   91.77230072    4.90999985    2.59999990
   17.95694542   85.65740204    4.90999985    2.67000008
   17.95833397   98.03759766    4.90999985    2.64000010
   17.96083450   92.76309967    4.90999985    2.61999989
   17.96389008  102.75099945    4.90999985    2.64000010
   17.96722221  103.58799744    4.90999985    2.64000010
   17.97027779  102.18699646    4.90999985    2.64000010
   17.97361183   91.49600220    4.90999985    2.66000009
   17.97694588   93.72200012    4.90999985    2.64000010
   17.98000145   93.40480042    4.90999985    2.66000009
   17.98333359   93.98970032    4.90999985    2.67000008
   17.98666763   93.80970001    4.90999985    2.67000008
   17.98972321   93.76309967    4.90999985    2.67000008
   17.99166679   92.62509918    4.90999985    2.67000008
   17.99361229   89.28510284    4.90999985    2.66000009
   17.99666786   93.58920288    4.90999985    2.67000008
   18.00000000   95.32720184    4.90999985    2.67000008
   18.00305557   93.09359741    4.90999985    2.67000008
   18.00638962   92.61470032    4.90999985    2.67000008
   18.00972176   90.56590271    4.90999985    2.66000009
   18.01277733   89.92669678    4.90999985    2.66000009
   18.01611137   95.01339722    4.90999985    2.67000008
   18.01944351   93.62249756    4.90999985    2.67000008
   18.02249908   92.10299683    4.90999985    2.66000009
   18.02499962   93.08989716    4.90999985    2.67000008
   18.02638817   93.41310120    4.90999985    2.67000008
   18.02944374   94.43990326    4.90999985    2.66000009
   18.03277779   94.82620239    4.90999985    2.67000008
   18.03583336   95.36519623    4.90999985    2.67000008
   18.03916550   97.33959961    4.90999985    2.67000008
   18.04249954   91.90229797    4.90999985    2.66000009
   18.04555511   98.23159790    4.90999985    2.66000009
   18.04888916   92.22339630    4.90999985    2.67000008
   18.05222130   96.45690155    4.90999985    2.66000009
   18.05527687   96.72799683    4.90999985    2.66000009
   18.05833244   97.25569916    4.90999985    2.67000008
   18.05916595   95.16739655    4.90999985    2.67000008
   18.06222153   96.09559631    4.90999985    2.67000008
   18.06555557   93.28469849    4.90999985    2.66000009
   18.06861115  100.04199982    4.90999985    2.66000009
   18.07194519  102.68599701    4.90999985    2.66000009
   18.07527924   98.93710327    4.90999985    2.66000009
   18.07833481  100.63500214    4.90999985    2.66000009
   18.08166695  101.24400330    4.90999985    2.67000008
   18.08500099  101.18399811    4.90999985    2.66000009
   18.08805656   98.01740265    4.90999985    2.66000009
   18.09138870  100.42600250    4.90999985    2.66000009
   18.09194565   98.12090302    4.90999985    2.66000009
   18.09500122  101.33499908    4.90999985    2.67000008
   18.09833336   95.22579956    4.90999985    2.66000009
   18.10166740   96.68620300    4.90999985    2.66000009
   18.10472298   90.67980194    4.90999985    2.67000008
   18.10805511   95.07810211    4.90999985    2.67000008
   18.11138916  102.12599945    4.90999985    2.66000009
   18.11444473   94.35549927    4.90999985    2.67000008
   18.11777878   99.17120361    4.90999985    2.67000008
   18.12111092   92.28620148    4.90999985    2.67000008
   18.12416649   88.44789886    4.90999985    2.66000009
   18.12527847   94.41390228    4.90999985    2.66000009
   18.12777710   94.42430115    4.90999985    2.66000009
   18.13111115   91.41590118    4.90999985    2.66000009
   18.13444519   93.75370026    4.90999985    2.66000009
   18.13750076   95.41049957    4.90999985    2.66000009
   18.14083290   97.88320160    4.90999985    2.66000009
   18.14416695   98.72760010    4.90999985    2.66000009
   18.14722252  102.14800262    4.90999985    2.66000009
   18.15055466  100.88800049    4.90999985    2.67000008
   18.15361023  100.55999756    4.90999985    2.64000010
   18.15694427  102.86900330    4.90999985    2.59999990
   18.15861130  101.55400085    4.90999985    2.61999989
   18.16055489   97.10630035    4.90999985    2.64000010
   18.16388893  106.54399872    4.90999985    2.66000009
   18.16722107  101.23699951    4.90999985    2.66000009
   18.17027664  102.79199982    4.90999985    2.66000009
   18.17361069   98.19869995    4.90999985    2.66000009
   18.17694473   98.03019714    4.90999985    2.64000010
   18.18000031  108.68399811    4.90999985    2.64000010
   18.18333244   97.51840210    4.90999985    2.64000010
   18.18638802   96.86669922    4.90999985    2.64000010
   18.18972206   93.81410217    4.90999985    2.66000009
   18.19194412   98.09500122    4.90999985    2.67000008
   18.19333267   94.87169647    4.90999985    2.66000009
   18.19666672   98.71510315    4.90999985    2.66000009
   18.20000076  101.21800232    4.90999985    2.67000008
   18.20305634   99.14839935    4.90999985    2.66000009
   18.20639038  101.60399628    4.90999985    2.66000009
   18.20972252   97.98619843    4.90999985    2.66000009
   18.21277809  100.16000366    4.90999985    2.64000010
   18.21611214   98.75540161    4.90999985    2.66000009
   18.21916771   95.45050049    4.90999985    2.64000010
   18.22249985   97.82140350    4.90999985    2.64000010
   18.22527885   99.91200256    4.90999985    2.66000009
   18.22611237  101.50800323    4.90999985    2.66000009
   18.22944450   99.75420380    4.90999985    2.66000009
   18.23277855   97.35980225    4.90999985    2.66000009
   18.23583412   96.72000122    4.90999985    2.66000009
   18.23916626  101.68699646    4.90999985    2.64000010
   18.24250031  105.76799774    4.90999985    2.61999989
   18.24555588   97.61139679    4.90999985    2.61999989
   18.24888992   96.43000031    4.90999985    2.66000009
   18.25194359   96.44409943    4.90999985    2.66000009
   18.25527763   99.86180115    4.90999985    2.64000010
   18.25861168   95.46170044    4.90999985    2.59999990
   18.25888824   98.83959961    4.90999985    2.59999990
   18.26222229  112.76399994    4.90999985    2.64000010
   18.26555634  101.81199646    4.90999985    2.67000008
   18.26861000  105.80400085    4.90999985    2.66000009
   18.27194405  100.55699921    4.90999985    2.64000010
   18.27527809   97.67379761    4.90999985    2.66000009
   18.27833366  107.74900055    4.90999985    2.66000009
   18.28166580  101.22299957    4.90999985    2.66000009
   18.28499985  106.11499786    4.90999985    2.66000009
   18.28805542   97.14849854    4.90999985    2.66000009
   18.29138756  106.75099945    4.90999985    2.66000009
   18.29194450   94.71230316    4.90999985    2.66000009
   18.29500008  102.13899994    4.90999985    2.64000010
   18.29805565  108.33599854    4.90999985    2.64000010
   18.30138779   99.21779633    4.90999985    2.66000009
   18.30444336   96.77989960    4.90999985    2.66000009
   18.30777740   99.23310089    4.90999985    2.64000010
   18.31110954  108.55500031    4.90999985    2.66000009
   18.31416512  101.27999878    4.90999985    2.64000010
   18.31750107  101.46900177    4.90999985    2.64000010
   18.32083511  101.86100006    4.90999985    2.66000009
   18.32389069   87.57420349    4.90999985    2.64000010
   18.32527924  100.02100372    4.90999985    2.66000009
   18.32777786   99.38459778    4.90999985    2.66000009
   18.33083344  101.75000000    4.90999985    2.66000009
   18.33416748  104.14099884    4.90999985    2.64000010
   18.33722305  103.41000366    4.90999985    2.66000009
   18.34055710  102.55500031    4.90999985    2.66000009
   18.34388924   96.54869843    4.90999985    2.64000010
   18.34694481   96.86470032    4.90999985    2.64000010
   18.35027885  100.94499969    4.90999985    2.66000009
   18.35361099  100.50800323    4.90999985    2.64000010
   18.35666656   93.97609711    4.90999985    2.64000010
   18.35861206   97.81169891    4.90999985    2.66000009
   18.36055565   96.78189850    4.90999985    2.66000009
   18.36361122   99.80039978    4.90999985    2.66000009
   18.36694527  105.02600098    4.90999985    2.64000010
   18.37027740   94.77860260    4.90999985    2.66000009
   18.37333298  100.32399750    4.90999985    2.64000010
   18.37666702   97.84020233    4.90999985    2.64000010
   18.37972260   98.04900360    4.90999985    2.64000010
   18.38305473  101.20200348    4.90999985    2.64000010
   18.38638878   99.97709656    4.90999985    2.66000009
   18.38944435   96.85399628    4.90999985    2.64000010
   18.39194489   94.03399658    4.90999985    2.66000009
   18.39333344   98.09529877    4.90999985    2.66000009
   18.39638901   97.03299713    4.90999985    2.64000010
   18.39972115   97.97940063    4.90999985    2.64000010
   18.40277672  101.62100220    4.90999985    2.64000010
   18.40611076   97.94840240    4.90999985    2.66000009
   18.40944481   97.28260040    4.90999985    2.64000010
   18.41250038   96.87799835    4.90999985    2.64000010
   18.41583252   98.82180023    4.90999985    2.64000010
   18.41916656  100.27999878    4.90999985    2.64000010
   18.42222214   98.50309753    4.90999985    2.64000010
   18.42527771   99.02629852    4.90999985    2.64000010
   18.42638779  100.44799805    4.90999985    2.64000010
   18.42944336   97.56950378    4.90999985    2.64000010
   18.43277740   92.63210297    4.90999985    2.64000010
   18.43610954   95.81900024    4.90999985    2.64000010
   18.43916512   97.71749878    4.90999985    2.64000010
   18.44249916  103.88999939    4.90999985    2.66000009
   18.44583321  100.39499664    4.90999985    2.64000010
   18.44888878   97.49220276    4.90999985    2.64000010
   18.45222282   90.54199982    4.90999985    2.64000010
   18.45527840   98.08589935    4.90999985    2.64000010
   18.45861244   92.94889832    4.90999985    2.64000010
   18.45916748   90.56400299    4.90999985    2.64000010
   18.46222305   90.06140137    4.90999985    2.64000010
   18.46555710   98.97049713    4.90999985    2.64000010
   18.46861076   93.12930298    4.90999985    2.64000010
   18.47194481  105.29199982    4.90999985    2.64000010
   18.47527885   93.49140167    4.90999985    2.66000009
   18.47833443  100.16999817    4.90999985    2.64000010
   18.48166656   94.61299896    4.90999985    2.61999989
   18.48500061  100.11699677    4.90999985    2.64000010
   18.48805618   98.64980316    4.90999985    2.64000010
   18.49138832  101.73500061    4.90999985    2.64000010
   18.49194527   97.49210358    4.90999985    2.64000010
   18.49500084  100.48000336    4.90999985    2.64000010
   18.49805641   95.37049866    4.90999985    2.64000010
   18.50138855  102.99500275    4.90999985    2.64000010
   18.50472260  100.51499939    4.90999985    2.64000010
   18.50777817  102.05799866    4.90999985    2.64000010
   18.51111031  105.49500275    4.90999985    2.64000010
   18.51416588   99.47769928    4.90999985    2.64000010
   18.51749992  101.81600189    4.90999985    2.61999989
   18.52083397   99.18209839    4.90999985    2.64000010
   18.52388954   98.61470032    4.90999985    2.64000010
   18.52527809  105.51200104    4.90999985    2.61999989
   18.52777672  101.40000153    4.90999985    2.64000010
   18.53083229   97.31649780    4.90999985    2.64000010
   18.53416634  101.72100067    4.90999985    2.64000010
   18.53750038  101.96900177    4.90999985    2.61999989
   18.54055595   94.63150024    4.90999985    2.64000010
   18.54388809   93.76920319    4.90999985    2.64000010
   18.54722214  103.55500031    4.90999985    2.64000010
   18.55027771  100.24400330    4.90999985    2.64000010
   18.55360985   97.47019958    4.90999985    2.64000010
   18.55666542   99.80419922    4.90999985    2.64000010
   18.55861092  106.56400299    4.90999985    2.61999989
   18.56055450  100.68399811    4.90999985    2.61999989
   18.56361008  101.71399689    4.90999985    2.64000010
   18.56694603  109.34400177    4.90999985    2.64000010
   18.57027817   98.54080200    4.90999985    2.64000010
   18.57333374   94.22049713    4.90999985    2.64000010
   18.57666779   99.84739685    4.90999985    2.61999989
   18.57972336  100.03800201    4.90999985    2.64000010
   18.58305550  101.34899902    4.90999985    2.64000010
   18.58638954   97.70429993    4.90999985    2.64000010
   18.58944511  106.20300293    4.90999985    2.61999989
   18.59194565  114.19599915    4.90999985    2.64000010
   18.59333420   99.68830109    4.90999985    2.64000010
   18.59638977  100.62599945    4.90999985    2.61999989
   18.59972191   96.05729675    4.90999985    2.61999989
   18.60305595  102.22899628    4.90999985    2.64000010
   18.60611153  101.46700287    4.90999985    2.64000010
   18.60944557  106.33300018    4.90999985    2.64000010
   18.61277771   94.77729797    4.90999985    2.61999989
   18.61583328  100.81700134    4.90999985    2.64000010
   18.61916733  103.18000031    4.90999985    2.61999989
   18.62249947  103.31900024    4.90999985    2.61999989
   18.62527847  106.03900146    4.90999985    2.61999989
   18.62611198   97.84760284    4.90999985    2.61999989
   18.62916756  104.33599854    4.90999985    2.61999989
   18.63249969  101.90000153    4.90999985    2.61999989
   18.63583374  100.52799988    4.90999985    2.61999989
   18.63888931   99.26219940    4.90999985    2.61999989
   18.64222145  100.65000153    4.90999985    2.64000010
   18.64527702  102.67500305    4.90999985    2.64000010
   18.64861107   98.84480286    4.90999985    2.61999989
   18.65194321   98.22429657    4.90999985    2.61999989
   18.65499878   95.52980042    4.90999985    2.61999989
   18.65833282  110.48999786    4.90999985    2.61999989
   18.65888786  106.69499969    4.90999985    2.61999989
   18.66222191   99.69460297    4.90999985    2.61999989
   18.66527748   97.17949677    4.90999985    2.61999989
   18.66860962  102.79100037    4.90999985    2.61999989
   18.67166519  105.59700012    4.90999985    2.64000010
   18.67499924  100.85299683    4.90999985    2.61999989
   18.67833328  104.45099640    4.90999985    2.61999989
   18.68138885  104.31099701    4.90999985    2.61999989
   18.68472099   97.36569977    4.90999985    2.61999989
   18.68805504   99.73590088    4.90999985    2.61999989
   18.69111061   92.19059753    4.90999985    2.61999989
   18.69222069   95.96839905    4.90999985    2.59999990
   18.69499969   95.98090363    4.90999985    2.61999989
   18.69805527   95.14640045    4.90999985    2.61999989
   18.70138931  105.40799713    4.90999985    2.61999989
   18.70444489  100.24600220    4.90999985    2.61999989
   18.70777893   97.03739929    4.90999985    2.61999989
   18.71111107   99.96649933    4.90999985    2.61999989
   18.71416664   99.02600098    4.90999985    2.61999989
   18.71750069   99.51779938    4.90999985    2.61999989
   18.72083473  101.23200226    4.90999985    2.61999989
   18.72389030   97.43910217    4.90999985    2.61999989
   18.72555542   97.79499817    4.90999985    2.59999990
   18.72777748   96.91799927    4.90999985    2.61999989
   18.73083305   97.14350128    4.90999985    2.61999989
   18.73416710  103.21700287    4.90999985    2.59999990
   18.73722267  102.07199860    4.90999985    2.59999990
   18.74055672   99.15380096    4.90999985    2.59999990
   18.74388885   96.82849884    4.90999985    2.61999989
   18.74694443   98.92810059    4.90999985    2.59999990
   18.75027847   99.85639954    4.90999985    2.61999989
   18.75361061   92.48169708    4.90999985    2.61999989
   18.75666618  103.98999786    4.90999985    2.61999989
   18.75888824   98.77510071    4.90999985    2.61999989
   18.76055527  101.69799805    4.90999985    2.61999989
   18.76361084  103.77799988    4.90999985    2.59999990
   18.76694489   98.97740173    4.90999985    2.59999990
   18.77000046   97.77770233    4.90999985    2.59999990
   18.77333260  103.67500305    4.90999985    2.59999990
   18.77666664  106.93599701    4.90999985    2.61999989
   18.78000069   98.59480286    4.90999985    2.61999989
   18.78305435   94.96369934    4.90999985    2.61999989
   18.78638840  101.06999969    4.90999985    2.61999989
   18.78944397   98.66259766    4.90999985    2.59999990
   18.79222107   93.62909698    4.90999985    2.59999990
   18.79333305   97.14469910    4.90999985    2.61999989
   18.79638863  100.39700317    4.90999985    2.59999990
   18.79972076   96.82679749    4.90999985    2.61999989
   18.80277634  103.18399811    4.90999985    2.61999989
   18.80611038   98.47959900    4.90999985    2.59999990
   18.80944443   98.09609985    4.90999985    2.59999990
   18.81250000  100.75099945    4.90999985    2.59999990
   18.81583214  101.73699951    4.90999985    2.61999989
   18.81916809  104.48799896    4.90999985    2.59999990
   18.82222366   99.81099701    4.90999985    2.59999990
   18.82555580   99.24800110    4.90999985    2.61999989
   18.82611275  105.69999695    4.90999985    2.61999989
   18.82916832  100.63899994    4.90999985    2.61999989
   18.83250046  101.50599670    4.90999985    2.59999990
   18.83555603   99.10990143    4.90999985    2.59999990
   18.83889008   99.76229858    4.90999985    2.61999989
   18.84222221  102.94499969    4.90999985    2.61999989
   18.84527779  104.42099762    4.90999985    2.59999990
   18.84861183  100.69100189    4.90999985    2.59999990
   18.85194397   96.96669769    4.90999985    2.61999989
   18.85499954  103.19799805    4.90999985    2.61999989
   18.85833359   96.30359650    4.90999985    2.59999990
   18.87527847  100.04100037    4.90999985    2.61999989
   18.87833405   97.29219818    4.90999985    2.59999990
   18.88166618  101.45999908    4.90999985    2.59999990
   18.88472176  103.60600281    4.90999985    2.59999990
   18.88805580  100.86599731    4.90999985    2.61999989
   18.89138794  100.66899872    4.90999985    2.59999990
   18.89444351  101.45600128    4.90999985    2.59999990
   18.89777756  104.39299774    4.90999985    2.59999990
   18.90083313  102.37500000    4.90999985    2.57999992
   18.90416718  103.96399689    4.90999985    2.61999989
   18.90749931  104.94799805    4.90999985    2.59999990
   18.90861130  105.51799774    4.90999985    2.59999990
   18.91110992  102.10399628    4.90999985    2.59999990
   18.91416550  102.78099823    4.90999985    2.59999990
   18.91749954  103.60900116    4.90999985    2.59999990
   18.92083359  105.45200348    4.90999985    2.59999990
   18.92388916   98.71769714    4.90999985    2.59999990
   18.92722130  102.79399872    4.90999985    2.59999990
   18.93027687   98.00399780    4.90999985    2.59999990
   18.93361092  100.91899872    4.90999985    2.59999990
   18.93694305  104.81600189    4.90999985    2.57999992
   18.93999863  105.69599915    4.90999985    2.59999990
   18.94194412  103.33899689    4.90999985    2.59999990
   18.94388771  107.21099854    4.90999985    2.59999990
   18.94694328   99.47769928    4.90999985    2.59999990
   18.95027924  100.51200104    4.90999985    2.59999990
   18.95361137   99.60620117    4.90999985    2.59999990
   18.95666695  107.13300323    4.90999985    2.59999990
   18.96000099   98.02100372    4.90999985    2.59999990
   18.96333504   96.26329803    4.90999985    2.59999990
   18.96638870  103.64600372    4.90999985    2.59999990
   18.96972275  102.31500244    4.90999985    2.57999992
   18.97277832   98.93460083    4.90999985    2.59999990
   18.97527885  101.81099701    4.90999985    2.57999992
   18.97666740   98.56210327    4.90999985    2.57999992
   18.97972298   96.24520111    4.90999985    2.59999990
   18.98305511   94.22149658    4.90999985    2.59999990
   18.98638916  100.08300018    4.90999985    2.57999992
   18.98944473  100.36399841    4.90999985    2.57999992
   18.99277878   99.32029724    4.90999985    2.57999992
   18.99583435  101.07299805    4.90999985    2.57999992
   18.99916649   98.62290192    4.90999985    2.59999990
   19.00250053  100.40200043    4.90999985    2.57999992
   19.00555611  104.00900269    4.90999985    2.57999992
   19.00861168  100.85700226    4.90999985    2.59999990
   19.00944519  100.14499664    4.90999985    2.57999992
   19.01250076  107.36699677    4.90999985    2.59999990
   19.01583290  102.96399689    4.90999985    2.57999992
   19.01916695  105.90899658    4.90999985    2.57999992
   19.02222252  106.05500031    4.90999985    2.57999992
   19.02555466  101.12799835    4.90999985    2.59999990
   19.02861023   99.72920227    4.90999985    2.57999992
   19.03194427   98.59549713    4.90999985    2.57999992
   19.03527641  104.10800171    4.90999985    2.57999992
   19.03833199   99.40560150    4.90999985    2.57999992
   19.04166603   95.99839783    4.90999985    2.57999992
   19.04222107  100.20700073    4.90999985    2.57999992
   19.04555511   95.44940186    4.90999985    2.57999992
   19.04861069   97.22840118    4.90999985    2.57999992
   19.05194283  102.12300110    4.90999985    2.57999992
   19.05527687   94.53450012    4.90999985    2.55999994
   19.05833244   96.06490326    4.90999985    2.57999992
   19.06166649  104.19000244    4.90999985    2.57999992
   19.06472206  101.33100128    4.90999985    2.57999992
   19.06805611   95.33999634    4.90999985    2.55999994
   19.07139015   92.99230194    4.90999985    2.57999992
   19.07444572  101.51799774    4.90999985    2.55999994
   19.07555580   99.50360107    4.90999985    2.57999992
   19.07833481  101.25199890    4.90999985    2.57999992
   19.08139038   94.34729767    4.90999985    2.55999994
   19.08472252   97.25959778    4.90999985    2.57999992
   19.08777809   97.00920105    4.90999985    2.57999992
   19.09111214   93.96890259    4.90999985    2.55999994
   19.09444427   95.38680267    4.90999985    2.55999994
   19.09749985   97.07920074    4.90999985    2.57999992
   19.10083389   94.56310272    4.90999985    2.57999992
   19.10416794   95.04250336    4.90999985    2.55999994
   19.10722351   93.59989929    4.90999985    2.51999998
   19.10888863   90.07810211    4.90999985    2.51999998
   19.11111069   92.55310059    4.90999985    2.55999994
   19.11416626   94.24400330    4.90999985    2.55999994
   19.11750031   89.79550171    4.90999985    2.55999994
   19.12055588  101.52799988    4.90999985    2.55999994
   19.12388992   96.04360199    4.90999985    2.57999992
   19.12722206  100.35700226    4.90999985    2.55999994
   19.13055611   95.17400360    4.90999985    2.55999994
   19.13361168   97.80039978    4.90999985    2.53999996
   19.13694382  102.56400299    4.90999985    2.53999996
   19.13999939   97.71959686    4.90999985    2.50000000
   19.14222145   96.89759827    4.90999985    2.53999996
   19.14388847  100.95700073    4.90999985    2.55999994
   19.14694405   97.16100311    4.90999985    2.55999994
   19.15027809  100.75900269    4.90999985    2.55999994
   19.15333366   96.17310333    4.90999985    2.55999994
   19.15666580   95.04000092    4.90999985    2.55999994
   19.15999985   96.60929871    4.90999985    2.55999994
   19.16305542   95.49250031    4.90999985    2.55999994
   19.16638756   98.64459991    4.90999985    2.53999996
   19.16972160   97.80909729    4.90999985    2.55999994
   19.17277718   99.17859650    4.90999985    2.55999994
   19.17555428  101.32599640    4.90999985    2.55999994
   19.17666626   94.71260071    4.90999985    2.55999994
   19.17972183   95.53399658    4.90999985    2.55999994
   19.18305397   95.00890350    4.90999985    2.55999994
   19.18610954   96.43859863    4.90999985    2.53999996
   19.18944359   91.03450012    4.90999985    2.55999994
   19.19277763   95.85569763    4.90999985    2.55999994
   19.19583321   97.87270355    4.90999985    2.55999994
   19.19916534   94.30249786    4.90999985    2.55999994
   19.20250130  101.90399933    4.90999985    2.55999994
   19.20555687   97.58930206    4.90999985    2.55999994
   19.20888901  101.49299622    4.90999985    2.53999996
   19.20944595   93.82199860    4.90999985    2.53999996
   19.21250153   99.13050079    4.90999985    2.55999994
   19.21583366  100.61000061    4.90999985    2.55999994
   19.21888924   99.51640320    4.90999985    2.53999996
   19.22222328  100.72599792    4.90999985    2.55999994
   19.22555542   98.74980164    4.90999985    2.53999996
   19.22861099   99.75559998    4.90999985    2.53999996
   19.23194504  104.44799805    4.90999985    2.55999994
   19.23527718  102.88800049    4.90999985    2.53999996
   19.23833275  102.88899994    4.90999985    2.53999996
   19.24166679  101.31500244    4.90999985    2.53999996
   19.24222183  102.74900055    4.90999985    2.53999996
   19.24527740  108.12300110    4.90999985    2.53999996
   19.24833298  109.33599854    4.90999985    2.50000000
   19.25166702  103.92099762    4.90999985    2.53999996
   19.25472260  103.64399719    4.90999985    2.51999998
   19.25805473  107.08100128    4.90999985    2.53999996
   19.26138878  101.51300049    4.90999985    2.53999996
   19.26444435  106.01100159    4.90999985    2.53999996
   19.26777840  106.82299805    4.90999985    2.53999996
   19.27111053  102.58000183    4.90999985    2.53999996
   19.27416611  105.01300049    4.90999985    2.53999996
   19.27555466  104.97799683    4.90999985    2.53999996
   19.27805519  102.94599915    4.90999985    2.53999996
   19.28111076  104.20800018    4.90999985    2.53999996
   19.28444481  103.42400360    4.90999985    2.53999996
   19.28777695  102.76300049    4.90999985    2.53999996
   19.29083252  102.14199829    4.90999985    2.53999996
   19.29416656  101.84700012    4.90999985    2.53999996
   19.29722214  101.09899902    4.90999985    2.53999996
   19.30055428  100.74900055    4.90999985    2.53999996
   19.30388832  108.84999847    4.90999985    2.53999996
   19.30694389  100.55899811    4.90999985    2.53999996
   19.30888748   99.82019806    4.90999985    2.53999996
   19.31083298  106.07299805    4.90999985    2.53999996
   19.31388855  104.76799774    4.90999985    2.53999996
   19.31722260  100.76899719    4.90999985    2.53999996
   19.32055664  104.46600342    4.90999985    2.53999996
   19.32361221  105.71099854    4.90999985    2.53999996
   19.32694626  104.89499664    4.90999985    2.53999996
   19.33000183  104.37899780    4.90999985    2.51999998
   19.33333397  103.98899841    4.90999985    2.53999996
   19.33666801  100.78299713    4.90999985    2.53999996
   19.33972359  109.18900299    4.90999985    2.53999996
   19.34222221  101.27500153    4.90999985    2.51999998
   19.34361267  110.58200073    4.90999985    2.53999996
   19.34666824   98.97609711    4.90999985    2.51999998
   19.35000038   98.53730011    4.90999985    2.53999996
   19.35333443  101.97000122    4.90999985    2.53999996
   19.35639000  105.07099915    4.90999985    2.51999998
   19.35972214  103.26300049    4.90999985    2.53999996
   19.36277771   99.71269989    4.90999985    2.51999998
   19.36611176  101.29299927    4.90999985    2.53999996
   19.36944389  108.40399933    4.90999985    2.53999996
   19.37249947   96.47989655    4.90999985    2.53999996
   19.37555504  107.70500183    4.90999985    2.51999998
   19.37638855  103.42900085    4.90999985    2.51999998
   19.37944412  103.31999969    4.90999985    2.53999996
   19.38277817  104.03600311    4.90999985    2.51999998
   19.38611031  107.93099976    4.90999985    2.51999998
   19.38916588  101.51599884    4.90999985    2.51999998
   19.39249992  100.91500092    4.90999985    2.51999998
   19.39555550  102.75099945    4.90999985    2.51999998
   19.39888954  103.71499634    4.90999985    2.51999998
   19.40222168  104.34400177    4.90999985    2.51999998
   19.40527725  106.14199829    4.90999985    2.51999998
   19.40861130  101.98699951    4.90999985    2.51999998
   19.40916634  107.00900269    4.90999985    2.51999998
   19.41250038  107.68000031    4.90999985    2.50000000
   19.41555595  110.81199646    4.90999985    2.51999998
   19.41888809  110.88600159    4.90999985    2.51999998
   19.42194366  106.78299713    4.90999985    2.51999998
   19.42527771  107.15200043    4.90999985    2.51999998
   19.42860985  108.84700012    4.90999985    2.51999998
   19.43166542  106.42099762    4.90999985    2.50000000
   19.43499947  104.34899902    4.90999985    2.51999998
   19.43833160  101.50700378    4.90999985    2.51999998
   19.44138718  102.44400024    4.90999985    2.50000000
   19.44249916  106.96499634    4.90999985    2.50000000
   19.44527626  102.54699707    4.90999985    2.50000000
   19.44833183  103.93499756    4.90999985    2.50000000
   19.45166779  105.30899811    4.90999985    2.51999998
   19.45472336  105.82700348    4.90999985    2.51999998
   19.45805550  107.45700073    4.90999985    2.51999998
   19.46138954  109.60800171    4.90999985    2.50000000
   19.46472359  100.88999939    4.90999985    2.50000000
   19.46777916  105.53900146    4.90999985    2.50000000
   19.47111130  113.74099731    4.90999985    2.50000000
   19.47416687  112.40000153    4.90999985    2.50000000
   19.47583389  108.50099945    4.90999985    2.50000000
   19.47805595  114.56500244    4.90999985    2.50000000
   19.48111153  114.06900024    4.90999985    2.50000000
   19.48444557  116.56900024    4.90999985    2.50000000
   19.48750114  108.89800262    4.90999985    2.50000000
   19.49083328  118.18699646    4.90999985    2.50000000
   19.49416733  104.43000031    4.90999985    2.50000000
   19.49722290  110.52500153    4.90999985    2.50000000
   19.50055504  105.27100372    4.90999985    2.50000000
   19.50388908  115.87799835    4.90999985    2.50000000
   19.50694466  107.04299927    4.90999985    2.50000000
   19.50916672  101.75399780    4.90999985    2.50000000
   19.51083374  115.57199860    4.90999985    2.50000000
   19.51388931  114.47699738    4.90999985    2.50000000
   19.51722145  105.85500336    4.90999985    2.50000000
   19.52027702  113.63999939    4.90999985    2.50000000
   19.52361107  110.12500000    4.90999985    2.50000000
   19.52694511  115.82700348    4.90999985    2.50000000
   19.53000069  112.20800018    4.90999985    2.50000000
   19.53333282  114.77400208    4.90999985    2.48000002
   19.53666687  105.07399750    4.90999985    2.48000002
   19.53972244  114.34100342    4.90999985    2.48000002
   19.54249954  105.77700043    4.90999985    2.48000002
   19.54361153  106.08999634    4.90999985    2.50000000
   19.54666710  109.29199982    4.90999985    2.50000000
   19.54999924  109.15599823    4.90999985    2.48000002
   19.55305481  107.59999847    4.90999985    2.50000000
   19.55638885  115.39900208    4.90999985    2.48000002
   19.55972099  109.19000244    4.90999985    2.48000002
   19.56277657  102.87400055    4.90999985    2.48000002
   19.56611061  111.24600220    4.90999985    2.48000002
   19.56944466  121.64499664    4.90999985    2.48000002
   19.57250023  107.63300323    4.90999985    2.48000002
   19.57583427  109.08799744    4.90999985    2.48000002
   19.57638931  108.48999786    4.90999985    2.48000002
   19.57944489  111.09100342    4.90999985    2.48000002
   19.58277893  109.47599792    4.90999985    2.48000002
   19.58583450  102.49400330    4.90999985    2.46000004
   19.58916664  108.18000031    4.90999985    2.48000002
   19.59250069  113.67700195    4.90999985    2.48000002
   19.59555626  117.14499664    4.90999985    2.48000002
   19.59889030  112.59600067    4.90999985    2.48000002
   19.60222244  108.82199860    4.90999985    2.48000002
   19.60527802  105.96099854    4.90999985    2.48000002
   19.60861206  111.91500092    4.90999985    2.48000002
   19.60916710  110.47200012    4.90999985    2.48000002
   19.61222267  102.33200073    4.90999985    2.46000004
   19.61527824  117.75900269    4.90999985    2.46000004
   19.61861038  107.25599670    4.90999985    2.48000002
   19.62194443  111.89800262    4.90999985    2.46000004
   19.62500000  106.51599884    4.90999985    2.48000002
   19.62833405  108.38999939    4.90999985    2.48000002
   19.63138962  104.99099731    4.90999985    2.48000002
   19.63472176  116.09899902    4.90999985    2.46000004
   19.63805580  111.59500122    4.90999985    2.48000002
   19.64111137  109.40200043    4.90999985    2.48000002
   19.64249992  108.70800018    4.90999985    2.46000004
   19.64500046  118.35199738    4.90999985    2.46000004
   19.64805603  112.18599701    4.90999985    2.46000004
   19.65138817  110.98999786    4.90999985    2.46000004
   19.65472221  104.65599823    4.90999985    2.46000004
   19.65777779   94.68489838    4.90999985    2.46000004
   19.66110992   96.34729767    4.90999985    2.46000004
   19.66416550  101.61499786    4.90999985    2.46000004
   19.66749954  107.74600220    4.90999985    2.46000004
   19.67083359  105.48100281    4.90999985    2.48000002
   19.67388916  113.15899658    4.90999985    2.46000004
   19.67583275  115.64700317    4.90999985    2.46000004
   19.67777634  132.24400330    4.90999985    2.46000004
   19.68083191  172.32099915    4.90999985    2.46000004
   19.68416595  202.19099426    4.90999985    2.46000004
   19.68722153   -1.00000000    4.90999985    2.46000004
   19.69055557   -1.00000000    4.90999985    2.46000004
   19.69388771   -1.00000000    4.90999985    2.46000004
   19.69694328   -1.00000000    4.90999985    2.46000004
   19.70027924   -1.00000000    4.90999985    2.46000004
   19.70361137   -1.00000000    4.90999985    2.46000004
   19.70666695   -1.00000000    4.90999985    2.46000004
   19.71027946   -1.00000000    4.90999985    2.46000004
   19.71361160   -1.00000000    4.90999985    2.46000004
   19.71666718   -1.00000000    4.90999985    2.46000004
   19.72000122   -1.00000000    4.90999985    2.46000004
   19.72333336   -1.00000000    4.90999985    2.46000004
   19.72638893   -1.00000000    4.90999985    2.46000004
   19.72972298   -1.00000000    4.90999985    2.46000004
   19.73305511   -1.00000000    4.90999985    2.46000004
   19.73611069   -1.00000000    4.90999985    2.46000004
   19.73944473   -1.00000000    4.90999985    2.46000004
   19.74277878   -1.00000000    4.90999985    2.46000004
   19.74611092   -1.00000000    4.90999985    2.46000004
   19.74916649   -1.00000000    4.90999985    2.44000006
   19.75250053   -1.00000000    4.90999985    2.46000004
   19.75583267   -1.00000000    4.90999985    2.44000006
   19.75888824   -1.00000000    4.90999985    2.44000006
   19.76222229   -1.00000000    4.90999985    2.44000006
   19.76555634   -1.00000000    4.90999985    2.44000006
   19.76861000   -1.00000000    4.90999985    2.44000006
   19.77194405   -1.00000000    4.90999985    2.42000008
   19.77499962   -1.00000000    4.90999985    2.42000008
   19.77861023   -1.00000000    4.90999985    2.42000008
   19.78194427   -1.00000000    4.90999985    2.44000006
   19.78527641   -1.00000000    4.90999985    2.44000006
   19.78833199   -1.00000000    4.90999985    2.42000008
   19.79166603   -1.00000000    4.90999985    2.42000008
   19.79472160   -1.00000000    4.90999985    2.40000010
   19.79805565   -1.00000000    4.90999985    2.42000008
   19.80138779   -1.00000000    4.90999985    2.40000010
   19.80444336   -1.00000000    4.90999985    2.42000008
   19.80777740   -1.00000000    4.90999985    2.42000008
   19.81110954   -1.00000000    4.90999985    2.42000008
   19.81444359   -1.00000000    4.90999985    2.42000008
   19.81750107   -1.00000000    4.90999985    2.42000008
   19.82083511   -1.00000000    4.90999985    2.42000008
   19.82416725   -1.00000000    4.90999985    2.42000008
   19.82722282   -1.00000000    4.90999985    2.42000008
   19.83055687   -1.00000000    4.90999985    2.42000008
   19.83388901   -1.00000000    4.90999985    2.42000008
   19.83694458   -1.00000000    4.90999985    2.42000008
   19.84027863   -1.00000000    4.90999985    2.42000008
   19.84361267   -1.00000000    4.90999985    2.42000008
   19.84694481   -1.00000000    4.90999985    2.42000008
   19.85000038   -1.00000000    4.90999985    2.42000008
   19.85333443   -1.00000000    4.90999985    2.42000008
   19.85666656   -1.00000000    4.90999985    2.42000008
   19.85972214   -1.00000000    4.90999985    2.42000008
   19.86305618   -1.00000000    4.90999985    2.42000008
   19.86638832   -1.00000000    4.90999985    2.40000010
   19.86944389   -1.00000000    4.90999985    2.40000010
   19.87277794   -1.00000000    4.90999985    2.40000010
   19.89249992   -1.00000000    4.90999985    2.40000010
   19.89583397   -1.00000000    4.90999985    2.40000010
   19.89888954   -1.00000000    4.90999985    2.40000010
   19.90222168   -1.00000000    4.90999985    2.40000010
   19.90555573   -1.00000000    4.90999985    2.40000010
   19.90861130   -1.00000000    4.90999985    2.40000010
   19.91194344   -1.00000000    4.90999985    2.40000010
   19.91499901   -1.00000000    4.90999985    2.40000010
   19.91833305   -1.00000000    4.90999985    2.40000010
   19.92166519   -1.00000000    4.90999985    2.40000010
   19.92472076   -1.00000000    4.90999985    2.40000010
   19.92860985   -1.00000000    4.90999985    2.40000010
   19.93166542   -1.00000000    4.90999985    2.40000010
   19.93499947   -1.00000000    4.90999985    2.40000010
   19.93805504   -1.00000000    4.90999985    2.40000010
   19.94138718   -1.00000000    4.90999985    2.39000010
   19.94472122   -1.00000000    4.90999985    2.39000010
   19.94777679   -1.00000000    4.90999985    2.39000010
   19.95111275   -1.00000000    4.90999985    2.36999989
   19.95444489   -1.00000000    4.90999985    2.39000010
   19.95750046   -1.00000000    4.90999985    2.39000010
   19.96111107   -1.00000000    4.90999985    2.36999989
   19.96416664   -1.00000000    4.90999985    2.30999994
   19.96750069   -1.00000000    4.90999985    2.32999992
   19.97055626   -1.00000000    4.90999985    2.28999996
   19.97389030   -1.00000000    4.90999985    2.36999989
   19.97722244   -1.00000000    4.90999985    2.39000010
   19.98027802   -1.00000000    4.90999985    2.39000010
   19.98361206   -1.00000000    4.90999985    2.39000010
   19.98694420   -1.00000000    4.90999985    2.39000010
   19.98999977   -1.00000000    4.90999985    2.39000010
   19.99361229   -1.00000000    4.90999985    2.39000010
   19.99666786   -1.00000000    4.90999985    2.39000010
   20.00000000   -1.00000000    4.90999985    2.39000010
   20.00305557   -1.00000000    4.90999985    2.39000010
   20.00638962   -1.00000000    4.90999985    2.39000010
   20.00972176   -1.00000000    4.90999985    2.39000010
   20.01277733   -1.00000000    4.90999985    2.39000010
   20.01611137   -1.00000000    4.90999985    2.39000010
   20.01944351   -1.00000000    4.90999985    2.36999989
   20.02249908   -1.00000000    4.90999985    2.39000010
   20.02611160   -1.00000000    4.90999985    2.36999989
   20.02916718   -1.00000000    4.90999985    2.39000010
   20.03249931   -1.00000000    4.90999985    2.39000010
   20.03555489   -1.00000000    4.90999985    2.36999989
   20.03888893   -1.00000000    4.90999985    2.39000010
   20.04222107   -1.00000000    4.90999985    2.39000010
   20.04527664   -1.00000000    4.90999985    2.39000010
   20.04861069   -1.00000000    4.90999985    2.36999989
   20.05194283   -1.00000000    4.90999985    2.36999989
   20.05499840   -1.00000000    4.90999985    2.36999989
   20.05833244   -1.00000000    4.90999985    2.36999989
   20.06166649   -1.00000000    4.90999985    2.36999989
   20.06499863   -1.00000000    4.90999985    2.36999989
   20.06805611   -1.00000000    4.90999985    2.36999989
   20.07139015   -1.00000000    4.90999985    2.36999989
   20.07472229   -1.00000000    4.90999985    2.36999989
   20.07777786   -1.00000000    4.90999985    2.36999989
   20.08111191   -1.00000000    4.90999985    2.36999989
   20.08416748   -1.00000000    4.90999985    2.36999989
   20.08750153   -1.00000000    4.90999985    2.34999990
   20.09083366   -1.00000000    4.90999985    2.34999990
   20.09416771   -1.00000000    4.90999985    2.34999990
   20.09749985   -1.00000000    4.90999985    2.34999990
   20.10055542   -1.00000000    4.90999985    2.34999990
   20.10388947   -1.00000000    4.90999985    2.34999990
   20.10722351   -1.00000000    4.90999985    2.34999990
   20.11027908   -1.00000000    4.90999985    2.34999990
   20.11361122   -1.00000000    4.90999985    2.34999990
   20.11666679   -1.00000000    4.90999985    2.36999989
   20.12000084   -1.00000000    4.90999985    2.34999990
   20.12333298   -1.00000000    4.90999985    2.34999990
   20.12666702   -1.00000000    4.90999985    2.34999990
   20.13000107   -1.00000000    4.90999985    2.34999990
   20.13305473   -1.00000000    4.90999985    2.34999990
   20.13638878   -1.00000000    4.90999985    2.34999990
   20.13972282   -1.00000000    4.90999985    2.32999992
   20.14277840   -1.00000000    4.90999985    2.32999992
   20.14611053   -1.00000000    4.90999985    2.32999992
   20.14916611   -1.00000000    4.90999985    2.32999992
   20.15250015   -1.00000000    4.90999985    2.32999992
   20.15583229   -1.00000000    4.90999985    2.32999992
   20.15916634   -1.00000000    4.90999985    2.32999992
   20.16250038   -1.00000000    4.90999985    2.32999992
   20.16555595   -1.00000000    4.90999985    2.32999992
   20.16888809   -1.00000000    4.90999985    2.30999994
   20.17222214   -1.00000000    4.90999985    2.32999992
   20.17527771   -1.00000000    4.90999985    2.32999992
   20.17860985   -1.00000000    4.90999985    2.32999992
   20.18166542   -1.00000000    4.90999985    2.30999994
   20.18499947   -1.00000000    4.90999985    2.32999992
   20.18833160   -1.00000000    4.90999985    2.30999994
   20.19138718   -1.00000000    4.90999985    2.32999992
   20.19499969   -1.00000000    4.90999985    2.30999994
   20.19833183   -1.00000000    4.90999985    2.30999994
   20.20138931   -1.00000000    4.90999985    2.30999994
   20.20472336   -1.00000000    4.90999985    2.30999994
   20.20805550   -1.00000000    4.90999985    2.30999994
   20.21111107   -1.00000000    4.90999985    2.30999994
   20.21444511   -1.00000000    4.90999985    2.30999994
   20.21750069   -1.00000000    4.90999985    2.30999994
   20.22083473   -1.00000000    4.90999985    2.30999994
   20.22416687   -1.00000000    4.90999985    2.30999994
   20.22750092   -1.00000000    4.90999985    2.30999994
   20.23083305   -1.00000000    4.90999985    2.30999994
   20.23388863   -1.00000000    4.90999985    2.28999996
   20.23722267   -1.00000000    4.90999985    2.28999996
   20.24055672   -1.00000000    4.90999985    2.28999996
   20.24361229   -1.00000000    4.90999985    2.30999994
   20.24694443   -1.00000000    4.90999985    2.28999996
   20.25027847   -1.00000000    4.90999985    2.28999996
   20.25333405   -1.00000000    4.90999985    2.28999996
   20.25666618   -1.00000000    4.90999985    2.28999996
   20.26000023   -1.00000000    4.90999985    2.28999996
   20.26333427   -1.00000000    4.90999985    2.28999996
   20.26638794   -1.00000000    4.90999985    2.28999996
   20.26972198   -1.00000000    4.90999985    2.28999996
   20.27305603   -1.00000000    4.90999985    2.28999996
   20.27611160   -1.00000000    4.90999985    2.26999998
   20.27944374   -1.00000000    4.90999985    2.26999998
   20.28249931   -1.00000000    4.90999985    2.26999998
   20.28583336   -1.00000000    4.90999985    2.26999998
   20.28916550   -1.00000000    4.90999985    2.26999998
   20.29249954   -1.00000000    4.90999985    2.28999996
   20.29583359   -1.00000000    4.90999985    2.28999996
   20.29888916   -1.00000000    4.90999985    2.26999998
   20.30222130   -1.00000000    4.90999985    2.26999998
   20.30555534   -1.00000000    4.90999985    2.26999998
   20.30861092   -1.00000000    4.90999985    2.26999998
   20.31194305   -1.00000000    4.90999985    2.26999998
   20.31499863   -1.00000000    4.90999985    2.26999998
   20.31833458   -1.00000000    4.90999985    2.26999998
   20.32166672   -1.00000000    4.90999985    2.26999998
   20.32472229   -1.00000000    4.90999985    2.25000000
   20.32833481   -1.00000000    4.90999985    2.25000000
   20.33166695   -1.00000000    4.90999985    2.25000000
   20.33472252   -1.00000000    4.90999985    2.25000000
   20.33805656   -1.00000000    4.90999985    2.25000000
   20.34138870   -1.00000000    4.90999985    2.25000000
   20.34444427   -1.00000000    4.90999985    2.25000000
