    HOUR (UT)   FLARE FACTOR    SKY TESTER    SUN TESTER
   11.24611092   -1.00000000   -1.00000000   -1.00000000
   11.28361130  130.67999268    3.91000009    1.64999998
   11.28555584  155.75000000    3.91000009    1.66999996
   11.28888893  157.78100586    3.86999989    1.66999996
   11.29194450  119.70400238    3.84999990    1.69000006
   11.29527855  136.17700195    3.80999994    1.71000004
   11.29861164  126.93299866    3.78999996    1.69000006
   11.30166721  125.66600037    3.76999998    1.71000004
   11.30583382  125.66600037    3.75000000    1.69000006
   11.31000042  131.31900024    3.72000003    1.69000006
   11.31333351  107.96900177    3.70000005    1.71000004
   11.31638908  118.58599854    3.66000009    1.71000004
   11.31888866  123.72699738    3.61999989    1.73000002
   11.32027817  113.13400269    3.61999989    1.73000002
   11.32333374  137.81100464    3.59999990    1.73000002
   11.32666683  120.17099762    3.55999994    1.75000000
   11.32999992  111.54499817    3.53999996    1.75000000
   11.33305550  120.91100311    3.51999998    1.75000000
   11.33638859  121.11499786    3.48000002    1.76999998
   11.33972168  131.41000366    3.46000004    1.76999998
   11.34277725  125.05500031    3.45000005    1.76999998
   11.34888840  125.05500031    3.41000009    1.76999998
   11.35277843  116.58499908    3.36999989    1.78999996
   11.35611153  118.08699799    3.34999990    1.78999996
   11.35944462  116.43099976    3.34999990    1.78999996
   11.36250019  136.58599854    3.32999992    1.78999996
   11.36583328  141.34500122    3.30999994    1.80999994
   11.36916637  146.47599792    3.28999996    1.80999994
   11.37222195  142.88200378    3.26999998    1.83000004
   11.37555599  137.59199524    3.25000000    1.83000004
   11.37861156  125.04799652    3.23000002    1.83000004
   11.38194466  131.52699280    3.21000004    1.83000004
   11.38527775  119.57299805    3.21000004    1.83000004
   11.38583279  125.29199982    3.20000005    1.83000004
   11.39166641  125.29199982    3.18000007    1.85000002
   11.39583302  122.65799713    3.16000009    1.83000004
   11.39888859  111.34200287    3.16000009    1.83000004
   11.40222168  130.50900269    3.16000009    1.85000002
   11.40555477  134.07000732    3.14000010    1.85000002
   11.40861034  134.27499390    3.14000010    1.85000002
   11.41194439  130.12100220    3.11999989    1.86000001
   11.41499996  120.83100128    3.09999990    1.86000001
   11.41833401  121.97699738    3.07999992    1.85000002
   11.41916656  113.44899750    3.07999992    1.86000001
   11.42194462  119.46099854    3.07999992    1.86000001
   11.42527771  123.82299805    3.05999994    1.86000001
   11.42861176  134.32499695    3.05999994    1.86000001
   11.43444443  134.32499695    3.03999996    1.86000001
   11.43861103  135.63200378    3.01999998    1.88000000
   11.44194412  118.65399933    3.01999998    1.88000000
   11.44499969  123.65399933    3.01999998    1.88000000
   11.44833374  114.14299774    3.00000000    1.88000000
   11.45138836  133.79800415    2.98000002    1.89999998
   11.45249939  135.22200012    2.98000002    1.89999998
   11.45499992  128.03300476    2.96000004    1.89999998
   11.45833302  117.87599945    2.94000006    1.89999998
   11.46166611  118.98300171    2.93000007    1.89999998
   11.46472168  125.01499939    2.89000010    1.91999996
   11.46805477  120.23899841    2.86999989    1.91999996
   11.47111034  127.53099823    2.84999990    1.91999996
   11.47722149  127.53099823    2.82999992    1.94000006
   11.48138809  122.80500031    2.78999996    1.94000006
   11.48472214  101.83699799    2.76999998    1.94000006
   11.48583317  104.70800018    2.75000000    1.94000006
   11.48833370  111.69300079    2.75000000    1.94000006
   11.49166679  103.97699738    2.73000002    1.94000006
   11.49499989  104.15799713    2.71000004    1.94000006
   11.49805546  112.97399902    2.71000004    1.96000004
   11.50138855  136.76899719    2.69000006    1.96000004
   11.50444412  127.25599670    2.67000008    1.96000004
   11.50777817  120.80699921    2.66000009    1.98000002
   11.51111126  107.01499939    2.66000009    1.98000002
   11.51416683  119.76300049    2.64000010    1.98000002
   11.51999950  119.76300049    2.61999989    1.96000004
   11.52416611  121.52100372    2.59999990    1.98000002
   11.52750015  113.83000183    2.59999990    1.98000002
   11.53055573  115.96499634    2.57999992    1.98000002
   11.53388977  104.83100128    2.57999992    2.00000000
   11.53722286  114.80000305    2.57999992    1.98000002
   11.54027843  122.51100159    2.55999994    2.00000000
   11.54361153  105.06800079    2.55999994    2.00000000
   11.54694462  110.47599792    2.53999996    2.00000000
   11.55000019   97.34719849    2.53999996    2.00000000
   11.55249977  114.53299713    2.53999996    2.01999998
   11.55361176  100.82199860    2.51999998    2.01999998
   11.55694485  106.91999817    2.50000000    2.01999998
   11.56305599  106.91999817    2.50000000    2.01999998
   11.56694412  100.75800323    2.48000002    2.01999998
   11.57027817  100.63800049    2.48000002    2.01999998
   11.57361126  108.49500275    2.48000002    2.01999998
   11.57666683  105.55799866    2.46000004    2.01999998
   11.57999992  104.24299622    2.46000004    2.03999996
   11.58333302  129.18499756    2.44000006    2.05999994
   11.58583260  112.67400360    2.44000006    2.05999994
   11.58666611  111.61799622    2.44000006    2.05999994
   11.59000015  116.30400085    2.42000008    2.05999994
   11.59305477  114.00000000    2.40000010    2.05999994
   11.59638882  116.30000305    2.40000010    2.05999994
   11.59972191  108.17400360    2.40000010    2.05999994
   11.60583401  108.17400360    2.40000010    2.05999994
   11.61000061  112.47699738    2.39000010    2.05999994
   11.61305618   93.41760254    2.39000010    2.05999994
   11.61638927  114.69699860    2.36999989    2.05999994
   11.61916637  117.10800171    2.36999989    2.07999992
   11.61999989  118.35500336    2.36999989    2.07999992
   11.62333393  116.54199982    2.34999990    2.07999992
   11.62666702  118.03700256    2.32999992    2.07999992
   11.62972260  102.91400146    2.32999992    2.07999992
   11.63305569  112.08799744    2.32999992    2.07999992
   11.63611126  109.93800354    2.30999994    2.07999992
   11.63944435  118.92600250    2.30999994    2.09999990
   11.64277744  117.39499664    2.28999996    2.09999990
   11.64861107  117.39499664    2.28999996    2.09999990
   11.65277767  122.89299774    2.28999996    2.09999990
   11.65611076  111.37500000    2.28999996    2.09999990
   11.65916634  117.77200317    2.28999996    2.09999990
   11.66249943  119.80300140    2.26999998    2.09999990
   11.66583252  119.47000122    2.26999998    2.09999990
   11.66888905  116.88800049    2.26999998    2.09999990
   11.67222214  114.08599854    2.28999996    2.11999989
   11.67527771  116.26100159    2.26999998    2.11999989
   11.67861176  101.30999756    2.25000000    2.11999989
   11.68194485  110.55899811    2.23000002    2.11999989
   11.68500042  122.16799927    2.21000004    2.13000011
   11.68583298  126.67299652    2.21000004    2.11999989
   11.69138908  126.67299652    2.21000004    2.13000011
   11.69555569  120.09200287    2.19000006    2.13000011
   11.69888878  104.26000214    2.17000008    2.13000011
   11.70222187  127.23000336    2.17000008    2.13000011
   11.70527744  123.64600372    2.15000010    2.13000011
   11.70861053  119.33499908    2.11999989    2.13000011
   11.71166611  109.77700043    2.11999989    2.13000011
   11.71500015  123.93099976    2.09999990    2.13000011
   11.71833324  118.42800140    2.07999992    2.13000011
   11.71916580  105.21199799    2.07999992    2.13000011
   11.72166634  101.55400085    2.05999994    2.15000010
   11.72499943  131.59100342    2.05999994    2.15000010
   11.72833252  114.10399628    2.03999996    2.15000010
   11.73444462  114.10399628    2.01999998    2.15000010
   11.73833370  121.65799713    2.00000000    2.15000010
   11.74166679  118.51799774    1.98000002    2.15000010
   11.74499989  129.66099548    2.00000000    2.15000010
   11.74805546  109.66500092    2.00000000    2.17000008
   11.75138855  126.87599945    2.01999998    2.17000008
   11.75249958  125.05899811    2.01999998    2.17000008
   11.75500011  114.58499908    2.01999998    2.17000008
   11.75833321  106.82199860    2.01999998    2.17000008
   11.76166630  120.28500366    2.01999998    2.17000008
   11.76472187  102.19799805    2.00000000    2.17000008
   11.76805496  109.69100189    2.00000000    2.17000008
   11.77111053  109.42900085    2.00000000    2.19000006
   11.77722168  109.42900085    1.98000002    2.19000006
   11.78138828  115.88800049    1.98000002    2.19000006
   11.78444481  118.33899689    1.98000002    2.19000006
   11.78583336  111.55200195    2.00000000    2.19000006
   11.78805637  115.72799683    2.00000000    2.19000006
   11.79138947  105.40299988    1.98000002    2.19000006
   11.79472256  106.44599915    2.00000000    2.19000006
   11.79777813   98.32199860    1.98000002    2.19000006
   11.80111122  100.81999969    1.98000002    2.21000004
   11.80444431  114.74199677    1.96000004    2.19000006
   11.80749989  109.77700043    1.96000004    2.21000004
   11.81083393   99.52580261    1.96000004    2.21000004
   11.81388950  106.97499847    1.96000004    2.21000004
   11.81999969  106.97499847    1.96000004    2.21000004
   11.82416630  106.22899628    1.94000006    2.21000004
   11.82750034  113.37200165    1.91999996    2.21000004
   11.83055592  106.48999786    1.91999996    2.23000002
   11.83388901   96.48130035    1.89999998    2.21000004
   11.83694458  101.21099854    1.88000000    2.23000002
   11.84027767  105.99800110    1.88000000    2.21000004
   11.84361076  112.83899689    1.88000000    2.23000002
   11.84666634   95.37629700    1.88000000    2.23000002
   11.85000038  107.19499969    1.88000000    2.23000002
   11.85249996  100.21499634    1.86000001    2.23000002
   11.85361195  101.19999695    1.86000001    2.23000002
   11.85694504  105.26300049    1.86000001    2.23000002
   11.86277771  105.26300049    1.85000002    2.25000000
   11.86694431   94.86990356    1.83000004    2.23000002
   11.87027836  110.51100159    1.83000004    2.25000000
   11.87333393   99.04889679    1.85000002    2.25000000
   11.87666702   99.31240082    1.85000002    2.25000000
   11.88000011  112.98600006    1.85000002    2.25000000
   11.88305569   98.90750122    1.85000002    2.25000000
   11.88583279  100.65000153    1.85000002    2.25000000
   11.88666630  101.02200317    1.85000002    2.25000000
   11.89000034  105.91799927    1.83000004    2.25000000
   11.89333344  112.22599792    1.83000004    2.25000000
   11.89638901  100.82299805    1.83000004    2.25000000
   11.89972210   99.30909729    1.83000004    2.25000000
   11.90583324   99.30909729    1.83000004    2.26999998
   11.90972137  118.64800262    1.80999994    2.25000000
   11.91305542  114.52100372    1.78999996    2.26999998
   11.91638851  118.07399750    1.76999998    2.26999998
   11.91916656  102.10299683    1.76999998    2.26999998
   11.91972256  114.36499786    1.75000000    2.26999998
   11.92305565  114.29100037    1.75000000    2.26999998
   11.92638874  110.71499634    1.75000000    2.26999998
   11.92944431  117.55200195    1.73000002    2.26999998
   11.93277836  116.31800079    1.73000002    2.26999998
   11.93611145  110.80400085    1.73000002    2.28999996
   11.93916702  109.03099823    1.69000006    2.28999996
   11.94250011  115.07700348    1.69000006    2.28999996
   11.94861126  115.07700348    1.69000006    2.28999996
   11.95277786  104.68599701    1.66999996    2.28999996
   11.95583344  108.68099976    1.66999996    2.30999994
   11.95916653  119.72299957    1.66999996    2.28999996
   11.96249962  110.06999969    1.64999998    2.28999996
   11.96555519   99.31269836    1.64999998    2.28999996
   11.96888828  119.47599792    1.63000000    2.30999994
   11.97194386  103.46099854    1.63000000    2.30999994
   11.97527695  106.53700256    1.63000000    2.30999994
   11.97861099  111.79900360    1.63000000    2.30999994
   11.98166656  102.98100281    1.61000001    2.30999994
   11.98500061   93.06629944    1.63000000    2.30999994
   11.98583317  104.43299866    1.63000000    2.30999994
   11.99138927  104.43299866    1.60000002    2.30999994
   11.99555588   93.75090027    1.61000001    2.30999994
   11.99888897  105.27200317    1.61000001    2.30999994
   12.00194454   99.32189941    1.60000002    2.30999994
   12.00527763   99.06349945    1.60000002    2.30999994
   12.00833321   97.47669983    1.60000002    2.30999994
   12.01166630  109.91200256    1.58000004    2.32999992
   12.01500034  109.29299927    1.60000002    2.30999994
   12.01833344  104.63800049    1.60000002    2.32999992
   12.01916599  104.94899750    1.60000002    2.32999992
   12.02222157   99.51740265    1.61000001    2.32999992
   12.02527714  102.47399902    1.61000001    2.32999992
   12.02861118  102.20999908    1.61000001    2.32999992
   12.03416729  102.20999908    1.63000000    2.32999992
   12.03833389  118.93399811    1.63000000    2.32999992
   12.04166698  105.58399963    1.63000000    2.32999992
   12.04472256  115.32499695    1.64999998    2.32999992
   12.04805565  102.01899719    1.64999998    2.32999992
   12.05138874  101.17900085    1.66999996    2.32999992
   12.05249977  111.29900360    1.66999996    2.32999992
   12.05527782  111.54100037    1.66999996    2.32999992
   12.05833340  107.50599670    1.64999998    2.32999992
   12.06166649  107.73300171    1.64999998    2.32999992
   12.06472206  100.51899719    1.64999998    2.32999992
   12.06805515  113.63600159    1.64999998    2.34999990
   12.07138920  110.53900146    1.64999998    2.34999990
   12.07722187  110.53900146    1.64999998    2.34999990
   12.08111095   97.81580353    1.64999998    2.34999990
   12.08444405  110.31900024    1.66999996    2.32999992
   12.08583260  103.41699982    1.66999996    2.34999990
   12.08833313  109.22100067    1.64999998    2.34999990
   12.09138870  104.31400299    1.64999998    2.34999990
   12.09472179  107.57199860    1.64999998    2.34999990
   12.09805489   94.76439667    1.61000001    2.36999989
   12.10111141  118.83000183    1.60000002    2.36999989
   12.10444450  107.91899872    1.58000004    2.36999989
   12.10750008  108.52999878    1.58000004    2.36999989
   12.11111164  107.48200226    1.55999994    2.36999989
   12.11416721  103.93000031    1.55999994    2.36999989
   12.11999989  103.93000031    1.55999994    2.36999989
   12.12416649  107.07900238    1.53999996    2.36999989
   12.12722206  114.55100250    1.51999998    2.36999989
   12.13055611  112.83699799    1.48000002    2.36999989
   12.13388920  110.44899750    1.46000004    2.39000010
   12.13722229  108.59999847    1.44000006    2.39000010
   12.14027786   93.93710327    1.44000006    2.39000010
   12.14361095  104.91799927    1.38000000    2.39000010
   12.14694405  100.88999939    1.36000001    2.39000010
   12.14999962  105.45099640    1.36000001    2.39000010
   12.15249920  111.16300201    1.36000001    2.39000010
   12.15388870  108.19899750    1.36000001    2.39000010
   12.15694427  100.34700012    1.33000004    2.40000010
   12.16277695  100.34700012    1.33000004    2.40000010
   12.16694450   99.90670013    1.33000004    2.40000010
   12.17027855  107.86799622    1.33000004    2.40000010
   12.17333412  114.34799957    1.33000004    2.40000010
   12.17666721  110.78700256    1.33000004    2.40000010
   12.18000031  106.36599731    1.36000001    2.40000010
   12.18305588  104.17500305    1.36000001    2.39000010
   12.18583298  108.09200287    1.36000001    2.40000010
   12.18694496  104.07099915    1.36000001    2.40000010
   12.19000053  111.91699982    1.36000001    2.40000010
   12.19333363  106.87200165    1.36000001    2.40000010
   12.19666672  108.70800018    1.38000000    2.40000010
   12.19972229  112.54900360    1.38000000    2.40000010
   12.20555496  112.54900360    1.39999998    2.40000010
   12.20972157  108.88200378    1.39999998    2.40000010
   12.21305561  104.42299652    1.39999998    2.40000010
   12.21638870  109.50800323    1.41999996    2.40000010
   12.21916580  108.99500275    1.38000000    2.40000010
   12.21999931  114.24099731    1.36000001    2.42000008
   12.22305489   99.76899719    1.36000001    2.40000010
   12.22638798   97.20400238    1.36000001    2.40000010
   12.22972202  101.18299866    1.36000001    2.40000010
   12.23277760  109.55799866    1.33000004    2.42000008
   12.23611164  118.27799988    1.34000003    2.42000008
   12.23944473  113.16000366    1.33000004    2.42000008
   12.24250031  115.05100250    1.33000004    2.42000008
   12.24861145  115.05100250    1.34000003    2.42000008
   12.25277805  112.95099640    1.34000003    2.42000008
   12.25583363  117.26999664    1.34000003    2.42000008
   12.25916672  105.36599731    1.34000003    2.42000008
   12.26222229   98.65160370    1.34000003    2.42000008
   12.26555538  102.81500244    1.33000004    2.42000008
   12.26888847   98.46140289    1.33000004    2.42000008
   12.27194405  102.21399689    1.33000004    2.44000006
   12.27527714  110.01599884    1.33000004    2.44000006
   12.27861118  102.64199829    1.33000004    2.44000006
   12.28166676  104.99099731    1.33000004    2.44000006
   12.28500080  100.44100189    1.33000004    2.44000006
   12.28583336   96.35769653    1.33000004    2.44000006
   12.30666733   96.35769653    1.33000004    2.44000006
   12.31083393  100.27600098    1.33000004    2.44000006
   12.31388950   94.63559723    1.33000004    2.44000006
   12.31722260  109.48600006    1.33000004    2.44000006
   12.31916618  112.31500244    1.34000003    2.44000006
   12.32083321  112.07900238    1.34000003    2.44000006
   12.32388878  103.48999786    1.34000003    2.46000004
   12.32722187  111.66500092    1.34000003    2.44000006
   12.33055592  108.98400116    1.34000003    2.46000004
   12.33361053  101.08000183    1.36000001    2.44000006
   12.33694458  105.08000183    1.38000000    2.44000006
   12.34027767  121.12100220    1.38000000    2.46000004
   12.34333324  107.43800354    1.38000000    2.46000004
   12.34916592  107.43800354    1.38000000    2.46000004
   12.35333347  108.96800232    1.36000001    2.46000004
   12.35666752  107.13200378    1.38000000    2.46000004
   12.36000061   95.43890381    1.36000001    2.46000004
   12.36305618  104.52200317    1.34000003    2.46000004
   12.36638927  103.42199707    1.34000003    2.46000004
   12.36972237  109.11399841    1.34000003    2.46000004
   12.37277794  117.34200287    1.33000004    2.46000004
   12.37611103   96.99710083    1.33000004    2.46000004
   12.37916660  110.75000000    1.33000004    2.46000004
   12.38249969  101.61900330    1.33000004    2.48000002
   12.38583279   99.71089935    1.33000004    2.46000004
   12.38638878  109.03600311    1.33000004    2.46000004
   12.39222240  109.03600311    1.33000004    2.46000004
   12.39638901  112.01200104    1.33000004    2.48000002
   12.39944458  106.28800201    1.33000004    2.48000002
   12.40277767  111.44000244    1.33000004    2.48000002
   12.40611076  118.86299896    1.33000004    2.46000004
   12.40916634  103.53900146    1.33000004    2.48000002
   12.41249943  115.30000305    1.33000004    2.46000004
   12.41555500  105.59999847    1.33000004    2.46000004
   12.41888905  100.63300323    1.33000004    2.46000004
   12.41972256  115.12699890    1.33000004    2.46000004
   12.42250061  102.26899719    1.33000004    2.46000004
   12.42583370  114.45999908    1.34000003    2.48000002
   12.42916679  109.25800323    1.33000004    2.48000002
   12.43500042  109.25800323    1.34000003    2.48000002
   12.43916702   88.86910248    1.33000004    2.48000002
   12.44250011  100.40899658    1.34000003    2.48000002
   12.44555569  108.61499786    1.33000004    2.48000002
   12.44888878   93.57039642    1.33000004    2.48000002
   12.45194435   97.09619904    1.33000004    2.48000002
   12.45305538  103.15599823    1.33000004    2.48000002
   12.45555496   90.94670105    1.30999994    2.48000002
   12.45888901   92.24690247    1.28999996    2.48000002
   12.46222210  101.95899963    1.30999994    2.48000002
   12.46527767   86.80930328    1.30999994    2.48000002
   12.46861076   90.37599945    1.28999996    2.48000002
   12.47166634   93.08709717    1.26999998    2.48000002
   12.47777748   93.08709717    1.26999998    2.50000000
   12.48194408  105.51499939    1.25000000    2.50000000
   12.48527813   92.09429932    1.23000002    2.50000000
   12.48638916   95.46920013    1.23000002    2.50000000
   12.48888874   96.73400116    1.23000002    2.50000000
   12.49222279   98.80709839    1.21000004    2.50000000
   12.49555588  109.96299744    1.23000002    2.50000000
   12.49861145  101.50199890    1.21000004    2.50000000
   12.50194454   92.61740112    1.21000004    2.51999998
   12.50500011  100.55500031    1.19000006    2.51999998
   12.50833321  112.03099823    1.21000004    2.51999998
   12.51166630  109.57599640    1.21000004    2.51999998
   12.51472187   92.07969666    1.19000006    2.51999998
   12.52083302   92.07969666    1.19000006    2.51999998
   12.52472210   96.08029938    1.19000006    2.50000000
   12.52805519   94.75199890    1.19000006    2.50000000
   12.53138828   98.73220062    1.19000006    2.50000000
   12.53444481  106.46499634    1.19000006    2.51999998
   12.53777790  103.30599976    1.19000006    2.50000000
   12.54944515  107.75900269    0.00000000    0.00000000
   12.55277824  107.14499664    1.23000002    2.50000000
   12.55333328  115.58699799    1.25000000    2.51999998
   12.55666733  108.43599701    1.23000002    2.50000000
   12.55972195  100.76499939    1.23000002    2.51999998
   12.56388950  100.76499939    1.23000002    2.51999998
   12.56805515  104.58100128    1.23000002    2.51999998
   12.57138920  103.86399841    1.21000004    2.51999998
   12.57444477  101.89700317    1.19000006    2.51999998
   12.57805538  111.63300323    1.19000006    2.51999998
   12.58138847   95.88929749    1.16999996    2.51999998
   12.58472157  103.00399780    1.19000006    2.51999998
   12.58666611   97.22779846    1.19000006    2.51999998
   12.58805561   98.63059998    1.19000006    2.51999998
   12.59138870  102.05400085    1.19000006    2.51999998
   12.59472179  105.21199799    1.19000006    2.53999996
   12.59777737  102.79100037    1.16999996    2.53999996
   12.60111141  103.76999664    1.16999996    2.51999998
   12.60694504  103.76999664    1.16999996    2.53999996
   12.61111164  109.79900360    1.14999998    2.51999998
   12.61416721   87.42520142    1.14999998    2.53999996
   12.61750031   90.00409698    1.13000000    2.53999996
   12.61999989   90.49770355    1.13000000    2.53999996
   12.62111092   90.45349884    1.13000000    2.53999996
   12.62444496   85.65170288    1.11000001    2.53999996
   12.62777805   97.15209961    1.11000001    2.53999996
   12.63083363  103.22899628    1.11000001    2.53999996
   12.63416672  101.93499756    1.09000003    2.53999996
   12.63749981   84.45099640    1.07000005    2.53999996
   12.64055538   92.55580139    1.07000005    2.53999996
   12.64388847   96.80930328    1.05999994    2.55999994
   12.64972210   96.80930328    1.03999996    2.53999996
   12.65388870   99.66110229    1.03999996    2.55999994
   12.65694427  100.25800323    1.03999996    2.53999996
   12.66027737   97.30190277    1.03999996    2.53999996
   12.66361046   92.94809723    1.03999996    2.53999996
   12.66666698   90.99389648    1.07000005    2.53999996
   12.67000008  100.09100342    1.07000005    2.53999996
   12.67305565   86.04309845    1.07000005    2.53999996
   12.67638874   95.49639893    1.07000005    2.53999996
   12.67972279  100.13800049    1.09000003    2.55999994
   12.68277836   97.93229675    1.11000001    2.55999994
   12.68611145  102.79000092    1.11000001    2.55999994
   12.68666649   98.81710052    1.11000001    2.55999994
   12.69250011   98.81710052    1.11000001    2.53999996
   12.69666672   96.99349976    1.14999998    2.53999996
   12.69999981  111.00099945    1.16999996    2.55999994
   12.70305538   99.95200348    1.16999996    2.55999994
   12.70638847   97.72039795    1.16999996    2.53999996
   12.70972157  101.59799957    1.19000006    2.53999996
   12.71277714   97.56269836    1.21000004    2.53999996
   12.71611118   95.63719940    1.23000002    2.55999994
   12.71916580   95.85559845    1.23000002    2.55999994
   12.71999931   97.05090332    1.23000002    2.55999994
   12.72305489   98.44599915    1.25000000    2.55999994
   12.72638798   94.31020355    1.26999998    2.53999996
   12.72972202   99.27700043    1.25000000    2.53999996
   12.73527813   99.27700043    1.25000000    2.55999994
   12.73944473   98.54370117    1.25000000    2.55999994
   12.74277782  104.78299713    1.23000002    2.53999996
   12.74583340   97.38690186    1.23000002    2.53999996
   12.74916649   93.55180359    1.23000002    2.53999996
   12.75249958   91.76020050    1.23000002    2.55999994
   12.75333309   92.22489929    1.23000002    2.55999994
   12.75611115   95.20220184    1.23000002    2.55999994
   12.75916672   97.15619659    1.23000002    2.55999994
   12.76249981   88.33959961    1.21000004    2.55999994
   12.76555538   90.49530029    1.19000006    2.55999994
   12.76888847   95.40499878    1.16999996    2.55999994
   12.77222157   86.15429688    1.16999996    2.55999994
   12.77805519   86.15429688    1.14999998    2.55999994
   12.78222179   99.37719727    1.14999998    2.57999992
   12.78555584  100.69799805    1.16999996    2.55999994
   12.78666687   87.35479736    1.16999996    2.55999994
   12.78916740   98.83439636    1.16999996    2.55999994
   12.79250050  100.86100006    1.14999998    2.57999992
   12.79583359   96.08719635    1.14999998    2.55999994
   12.79888916   85.41950226    1.14999998    2.55999994
   12.80222225   88.15910339    1.14999998    2.57999992
   12.80555534   89.26460266    1.16999996    2.57999992
   12.80861092   91.68350220    1.16999996    2.57999992
   12.81222248   89.52919769    1.16999996    2.55999994
   12.81555557  103.82800293    1.16999996    2.57999992
   12.82111073  103.82800293    1.16999996    2.57999992
   12.82527733   92.89649963    1.19000006    2.57999992
   12.82833290   85.45159912    1.19000006    2.55999994
   12.83166695   93.77420044    1.19000006    2.55999994
   12.83472157   89.65560150    1.21000004    2.57999992
   12.83805561   96.57530212    1.16999996    2.57999992
   12.84249973   84.91629791    1.16999996    2.57999992
   12.84583282   89.66929626    1.16999996    2.57999992
   12.84888840   95.77590179    1.14999998    2.57999992
   12.85222244   90.04309845    1.14999998    2.57999992
   12.85333347   96.77780151    1.14999998    2.57999992
   12.85611153  104.06900024    1.14999998    2.57999992
   12.85916710   94.76779938    1.13000000    2.57999992
   12.86388969   94.76779938    1.13000000    2.57999992
   12.86805534   89.59600067    1.11000001    2.57999992
   12.87111092  100.05500031    1.11000001    2.57999992
   12.87444496   85.11329651    1.11000001    2.59999990
   12.87777805   96.23850250    1.09000003    2.57999992
   12.88083363   99.05310059    1.09000003    2.59999990
   12.88416672  100.26399994    1.09000003    2.59999990
   12.88666630   98.85350037    1.09000003    2.59999990
   12.88805580   99.48960114    1.09000003    2.59999990
   12.89138889   99.46360016    1.09000003    2.57999992
   12.89444447  102.26200104    1.09000003    2.59999990
   12.89777756   97.62370300    1.09000003    2.59999990
   12.90111065   82.70600128    1.09000003    2.57999992
   12.90777779   82.70600128    1.11000001    2.59999990
   12.91194439   92.95439911    1.11000001    2.59999990
   12.91527748   96.96360016    1.11000001    2.59999990
   12.91833401   82.39499664    1.13000000    2.59999990
   12.92000008   97.14389801    1.13000000    2.59999990
   12.92222214   91.96250153    1.13000000    2.59999990
   12.92527771   83.46140289    1.13000000    2.59999990
   12.92861176   85.48120117    1.13000000    2.59999990
   12.93166733   90.27510071    1.13000000    2.59999990
   12.93500042   94.19470215    1.11000001    2.59999990
   12.93833351   90.41960144    1.09000003    2.57999992
   12.94138908  100.94000244    1.09000003    2.57999992
   12.94472218   88.35620117    1.09000003    2.59999990
   12.94944477   88.35620117    1.09000003    2.59999990
   12.95361137   97.38400269    1.07000005    2.59999990
   12.95694447   94.51509857    1.07000005    2.61999989
   12.96027756   93.49379730    1.09000003    2.59999990
   12.96333313   91.64279938    1.09000003    2.59999990
   12.96666622   96.28260040    1.11000001    2.61999989
   12.96972179   94.88159943    1.11000001    2.59999990
   12.97305489   92.66049957    1.11000001    2.59999990
   12.97638798   83.99669647    1.11000001    2.59999990
   12.97972202   84.87879944    1.09000003    2.61999989
   12.98361111   94.44419861    1.07000005    2.59999990
   12.98666668   83.51239777    1.07000005    2.61999989
   12.98750019   89.49099731    1.07000005    2.61999989
   12.99333382   89.49099731    1.07000005    2.59999990
   12.99750042  101.00000000    1.07000005    2.61999989
   13.00055599   94.61139679    1.07000005    2.61999989
   13.00388908   92.81060028    1.07000005    2.61999989
   13.00694466  100.60399628    1.05999994    2.61999989
   13.01027775   98.43710327    1.05999994    2.61999989
   13.01361084  100.13300323    1.05999994    2.61999989
   13.01722240   96.43520355    1.05999994    2.61999989
   13.01999950   90.12090302    1.07000005    2.61999989
   13.02111053   97.42990112    1.09000003    2.59999990
   13.02416611  107.80000305    1.09000003    2.59999990
   13.02750015   99.29049683    1.09000003    2.59999990
   13.03083324  108.04599762    1.09000003    2.61999989
   13.03583336  108.04599762    1.09000003    2.61999989
   13.04000092  105.74800110    1.09000003    2.61999989
   13.04333401  101.22599792    1.09000003    2.61999989
   13.04638958  105.60700226    1.07000005    2.61999989
   13.04972267   90.86519623    1.07000005    2.61999989
   13.05277824  122.27300262    1.07000005    2.61999989
   13.05333328   98.75279999    1.07000005    2.61999989
   13.05638885  101.10399628    1.07000005    2.61999989
   13.06000042  107.14900208    1.09000003    2.61999989
   13.06333351   97.03479767    1.09000003    2.61999989
   13.06638908  115.67299652    1.09000003    2.61999989
   13.06972218  106.49800110    1.09000003    2.61999989
   13.07305527  114.12500000    1.09000003    2.61999989
   13.07861137  114.12500000    1.11000001    2.61999989
   13.08277798  121.41799927    1.09000003    2.61999989
   13.08611107  118.66200256    1.05999994    2.64000010
   13.08694458  115.56199646    1.05999994    2.64000010
   13.08972168  112.48400116    1.05999994    2.64000010
   13.09305477  105.55400085    1.01999998    2.64000010
   13.09611034  115.77300262    1.00000000    2.64000010
   13.09944439  141.05400085    1.03999996    2.61999989
   13.10277843  122.39299774    1.01999998    2.64000010
   13.10611153  134.51800537    1.03999996    2.64000010
   13.10916710  160.56300354    1.03999996    2.61999989
   13.11250019  173.33200073    1.03999996    2.64000010
   13.11555576  148.21499634    1.05999994    2.64000010
   13.12166691  148.21499634    1.05999994    2.64000010
   13.12555599  182.82400513    1.07000005    2.64000010
   13.12916660  164.78399658    1.07000005    2.64000010
   13.13222218  180.13699341    1.07000005    2.61999989
   13.13555527  178.55499268    1.09000003    2.64000010
   13.13888836  186.87600708    1.09000003    2.66000009
   13.14194393  215.07800293    1.09000003    2.64000010
   13.14527798  271.76098633    1.09000003    2.61999989
   13.14861107  292.64599609    1.09000003    2.64000010
   13.15222168  231.71299744    1.09000003    2.61999989
   13.15333271  316.45098877    1.09000003    2.61999989
   13.15583324  325.01098633    1.09000003    2.64000010
   13.15916634  396.55398560    1.09000003    2.64000010
   13.16444397  396.55398560    1.07000005    2.64000010
   13.16861153  179.88299561    1.05999994    2.64000010
   13.17166710  138.58599854    1.07000005    2.64000010
   13.17500019   51.39810181    1.07000005    2.64000010
   13.17833328   39.11640167    1.05999994    2.64000010
   13.18138885   23.57019997    1.05999994    2.64000010
   13.18472195   -1.00000000    1.05999994    2.64000010
   13.18833351   -1.00000000    1.07000005    2.64000010
   13.19138908   -1.00000000    1.07000005    2.66000009
   13.19472218   -1.00000000    1.05999994    2.64000010
   13.19805527   -1.00000000    1.05999994    2.66000009
   13.20111084   -1.00000000    1.03999996    2.64000010
   13.20722198   -1.00000000    1.01999998    2.66000009
   13.21138859   -1.00000000    1.01999998    2.64000010
   13.21472168   -1.00000000    1.01999998    2.64000010
   13.22222137   -1.00000000    1.03999996    2.64000010
   13.22583294   -1.00000000    1.03999996    2.66000009
   13.22888851   -1.00000000    1.03999996    2.66000009
   13.23222160   -1.00000000    1.03999996    2.66000009
   13.23555565   -1.00000000    1.03999996    2.66000009
   13.23861122   -1.00000000    1.07000005    2.66000009
   13.24194431   -1.00000000    1.07000005    2.66000009
   13.24499989   -1.00000000    1.07000005    2.66000009
   13.25416660   -1.00000000    1.07000005    2.67000008
   13.25777817   -1.00000000    1.07000005    2.66000009
   13.26083374   -1.00000000    1.09000003    2.66000009
   13.26416683   -1.00000000    1.09000003    2.64000010
   13.26749992   -1.00000000    1.09000003    2.66000009
   13.27055550   -1.00000000    1.11000001    2.64000010
   13.27444458   -1.00000000    1.11000001    2.64000010
   13.27777767   -1.00000000    1.11000001    2.66000009
   13.28111076   -1.00000000    1.14999998    2.64000010
   13.28416729   -1.00000000    1.14999998    2.64000010
   13.28750038   -1.00000000    1.14999998    2.64000010
   13.29694462   97.32559967    1.16999996    2.66000009
   13.30027771   94.97920227    1.16999996    2.64000010
   13.31999969   99.71820068    1.05999994    2.66000009
   13.32333374   99.03939819    1.01999998    2.67000008
   13.32416630   90.06230164    1.01999998    2.67000008
   13.32666683   83.14550018    1.00000000    2.67000008
   13.33944416   85.84470367    0.00000000    0.00000000
   13.34361076   85.84470367    0.95999998    2.67000008
   13.34777737   98.27539825    1.00000000    2.67000008
   13.35083389   98.08409882    1.00000000    2.66000009
   13.35416698  101.41799927    1.00000000    2.66000009
   13.35750008   90.10939789    1.00000000    2.67000008
   13.35777855   88.58350372    1.00000000    2.67000008
   13.36111164   88.25859833    1.03999996    2.66000009
   13.36416721   95.37640381    1.05999994    2.67000008
   13.36750031   89.63909912    1.05999994    2.66000009
   13.37083340   92.57109833    1.05999994    2.67000008
   13.37388897  100.19799805    1.05999994    2.67000008
   13.37722206   92.64420319    1.05999994    2.67000008
   13.38055611   90.16130066    1.07000005    2.67000008
   13.38638878   90.16130066    1.11000001    2.66000009
   13.39055538   84.14620209    1.11000001    2.66000009
   13.39111137   85.82409668    1.11000001    2.66000009
   13.39416695   91.73709869    1.13000000    2.67000008
   13.39750004   90.74859619    1.13000000    2.66000009
   13.40083313   94.96990204    1.13000000    2.66000009
   13.40388870   98.49469757    1.14999998    2.66000009
   13.40722179   96.31469727    1.14999998    2.67000008
   13.41055489   98.40609741    1.14999998    2.67000008
   13.41361046   97.81559753    1.14999998    2.67000008
   13.41694450   97.86949921    1.13000000    2.67000008
   13.42027855   90.47750092    1.14999998    2.66000009
   13.42333412   91.23149872    1.14999998    2.67000008
   13.42444515   97.29370117    1.14999998    2.67000008
   13.42916679   97.29370117    1.16999996    2.67000008
   13.43333340   95.80259705    1.14999998    2.67000008
   13.43666649   97.99759674    1.14999998    2.67000008
   13.43972206   89.93710327    1.14999998    2.67000008
   13.44305515  103.46199799    1.13000000    2.67000008
   13.44638920   84.93280029    1.13000000    2.67000008
   13.44944477  101.04199982    1.13000000    2.67000008
   13.45277786  103.35700226    1.11000001    2.67000008
   13.45583344   87.12180328    1.11000001    2.67000008
   13.45777798   88.86029816    1.11000001    2.67000008
   13.45944405   90.87889862    1.07000005    2.67000008
   13.46277714   93.98739624    1.05999994    2.67000008
   13.46611118   89.69329834    1.05999994    2.67000008
   13.47194386   89.69329834    1.01999998    2.67000008
   13.47611046   94.17659760    1.01999998    2.67000008
   13.47944355   96.13710022    1.03999996    2.69000006
   13.48277760   89.57350159    1.03999996    2.67000008
   13.48583317   94.44889832    1.03999996    2.67000008
   13.48916721  101.40200043    1.05999994    2.69000006
   13.49111176   93.97499847    1.05999994    2.69000006
   13.49277782  103.89700317    1.03999996    2.67000008
   13.49611092  104.86599731    1.03999996    2.67000008
   13.49944496  101.03099823    1.03999996    2.67000008
   13.50249958   98.30770111    1.03999996    2.69000006
   13.50583363  105.94400024    1.03999996    2.67000008
   13.50916672   98.29660034    1.00000000    2.69000006
   13.51500034   98.29660034    0.98000002    2.69000006
   13.51916599   93.72940063    0.95999998    2.69000006
   13.52222157   94.44680023    0.95999998    2.69000006
   13.52444458  100.90200043    0.95999998    2.69000006
   13.52611065  102.31500244    0.95999998    2.69000006
   13.52944374   87.99600220    0.95999998    2.69000006
   13.53249931   91.87419891    0.95999998    2.69000006
   13.53583336   95.66950226    0.95999998    2.69000006
   13.53916740   99.51069641    0.94000000    2.69000006
   13.54222298   98.61009979    0.94000000    2.69000006
   13.54555607  103.03600311    0.94000000    2.69000006
   13.54861164   93.17579651    0.94000000    2.69000006
   13.55194473   89.74259949    0.92000002    2.69000006
   13.55777836   89.74259949    0.94000000    2.69000006
   13.56750011   86.82409668    0.00000000    0.00000000
   13.57083321   89.75379944    0.98000002    2.69000006
   13.57416630   89.22260284    0.98000002    2.69000006
   13.57722187   90.62940216    1.01999998    2.69000006
   13.58055592   85.63710022    1.01999998    2.69000006
   13.58388901  104.73699951    1.01999998    2.71000004
   13.58694458   89.83049774    1.01999998    2.69000006
   13.59027767   90.52179718    1.01999998    2.69000006
   13.59111118   90.70020294    1.01999998    2.69000006
   13.59388828   90.07369995    1.00000000    2.71000004
   13.60055637   90.07369995    1.00000000    2.69000006
   13.60472298   96.26399994    1.00000000    2.69000006
   13.60805607   86.40589905    0.98000002    2.69000006
   13.61111164   99.98770142    0.98000002    2.69000006
   13.61444473  101.88099670    0.98000002    2.69000006
   13.61777782   86.59470367    1.00000000    2.69000006
   13.62083340   92.84220123    0.98000002    2.71000004
   13.62416649  100.27899933    0.95999998    2.71000004
   13.62472248   92.49880219    0.95999998    2.71000004
   13.62805557   95.89150238    0.95999998    2.71000004
   13.63111115   95.70480347    0.98000002    2.69000006
   13.63444424   95.63009644    0.98000002    2.71000004
   13.63777733   96.07749939    1.01999998    2.69000006
   13.64333344   96.07749939    1.01999998    2.69000006
   13.64750004   99.00370026    1.01999998    2.71000004
   13.65083313   91.19010162    1.01999998    2.71000004
   13.65416622   90.59970093    1.01999998    2.69000006
   13.65722179   93.12110138    1.01999998    2.71000004
   13.65805531  101.97899628    1.01999998    2.71000004
   13.66111088   97.82659912    1.01999998    2.71000004
   13.66416645   86.11340332    1.01999998    2.69000006
   13.66750050   91.97720337    1.00000000    2.71000004
   13.67083359  103.18099976    0.92000002    2.71000004
   13.67388916  102.25599670    0.92000002    2.71000004
   13.67722225   95.71430206    0.89999998    2.69000006
   13.68055630   99.88849640    0.89999998    2.69000006
   13.68638897   99.88849640    0.92000002    2.71000004
   13.69055557  103.43000031    0.92000002    2.71000004
   13.69138908   95.90930176    0.92000002    2.71000004
   13.69444466   96.97810364    0.92000002    2.69000006
   13.69750023   95.79270172    0.94000000    2.71000004
   13.70083332   90.56860352    0.94000000    2.71000004
   13.70416641  110.64099884    0.94000000    2.71000004
   13.70722198   94.51709747    0.95999998    2.71000004
   13.71055508   99.86309814    0.94000000    2.71000004
   13.71361065  102.25700378    0.94000000    2.71000004
   13.71694374   99.14990234    0.92000002    2.71000004
   13.72027779   99.86389923    0.92000002    2.71000004
   13.72333336   91.79029846    0.92000002    2.71000004
   13.72472191   97.51249695    0.92000002    2.71000004
   13.72916603   97.51249695    0.92000002    2.71000004
   13.73333359   94.65090179    0.92000002    2.73000002
   13.73638916   97.62229919    0.92000002    2.73000002
   13.73972225   90.10399628    0.94000000    2.71000004
   13.74305534  101.26499939    0.94000000    2.71000004
   13.74611092   93.43689728    0.92000002    2.71000004
   13.74944496   91.66329956    0.89999998    2.71000004
   13.76166630   98.49069977    0.00000000    0.00000000
   13.76222229   91.94599915    0.83999997    2.71000004
   13.76527786  103.13500214    0.83999997    2.73000002
   13.77194405  103.13500214    0.83999997    2.71000004
   13.77611065  101.16799927    0.83999997    2.73000002
   13.77944374  100.23899841    0.83999997    2.73000002
   13.78277779   89.75509644    0.83999997    2.71000004
   13.78666687   89.64070129    0.81999999    2.73000002
   13.79000092   97.68229675    0.83999997    2.73000002
   13.79333401   92.22270203    0.81999999    2.71000004
   13.79555607   91.32890320    0.80000001    2.73000002
   13.79694462   91.88369751    0.81999999    2.73000002
   13.80000019   80.43019867    0.80000001    2.73000002
   13.80333328  104.02899933    0.80000001    2.73000002
   13.80666733   95.67060089    0.80000001    2.73000002
   13.80972195  100.82499695    0.81999999    2.71000004
   13.81472206  100.82499695    0.81999999    2.73000002
   13.81888866   88.49269867    0.81999999    2.73000002
   13.82222176   91.18180084    0.81999999    2.71000004
   13.82555580   96.00389862    0.81999999    2.73000002
   13.82861137   92.05280304    0.81999999    2.71000004
   13.82916641   84.93109894    0.81999999    2.71000004
   13.83249950   82.97779846    0.81999999    2.73000002
   13.83583260   87.51889801    0.86000001    2.73000002
   13.83888817   93.89250183    0.86000001    2.71000004
   13.84222221   89.62429810    0.88000000    2.73000002
   13.84555531   83.49649811    0.88000000    2.73000002
   13.84888840   87.23500061    0.88000000    2.73000002
   13.85194492   94.38220215    0.88000000    2.71000004
   13.85777855   94.38220215    0.86000001    2.73000002
   13.86194515   82.63009644    0.86000001    2.71000004
   13.86250019   94.61370087    0.86000001    2.73000002
   13.86555576   83.74120331    0.86000001    2.71000004
   13.86888885   89.86389923    0.86000001    2.71000004
   13.87194443   80.76950073    0.86000001    2.73000002
   13.87527752   85.62940216    0.86000001    2.73000002
   13.87861156   86.68979645    0.83999997    2.73000002
   13.88166714   86.29840088    0.81999999    2.73000002
   13.88500023   82.40570068    0.81999999    2.73000002
   13.88833332   82.22119904    0.81999999    2.73000002
   13.89138889   80.24510193    0.81999999    2.73000002
   13.89472198   83.72389984    0.81999999    2.73000002
   13.89583302   87.46779633    0.81999999    2.73000002
   13.90055561   87.46779633    0.86000001    2.73000002
   13.90472221   86.71569824    0.86000001    2.73000002
   13.91722298   79.10449982    0.00000000    0.00000000
   13.92055607   86.42009735    0.92000002    2.73000002
   13.92388916   82.56400299    0.94000000    2.73000002
   13.92694473   90.73850250    0.95999998    2.73000002
   13.93027782   87.03109741    0.95999998    2.71000004
   13.93277836   88.94180298    0.95999998    2.71000004
   13.93388939   91.75039673    0.94000000    2.73000002
   13.93722248   86.93810272    0.94000000    2.73000002
   13.94027805   90.53610229    0.98000002    2.73000002
   13.94555569   90.53610229    0.98000002    2.73000002
   13.94972229   87.04699707    0.98000002    2.71000004
   13.95305538   87.53569794    0.98000002    2.71000004
   13.95611095   91.48020172    0.98000002    2.73000002
   13.95944405   84.84100342    1.00000000    2.73000002
   13.96249962   91.26779938    1.00000000    2.73000002
   13.96666622   88.10489655    1.00000000    2.71000004
   13.96722221   92.59780121    1.00000000    2.71000004
   13.97055531   92.08110046    0.98000002    2.73000002
   13.97388840   87.92209625    0.98000002    2.73000002
   13.97694397   93.86209869    0.98000002    2.73000002
   13.98027706   81.44950104    0.98000002    2.73000002
   13.98333359   81.62580109    0.98000002    2.73000002
   13.98777771   81.62580109    0.89999998    2.73000002
   13.99194431   81.11799622    0.92000002    2.75000000
   13.99499989   84.18920135    0.92000002    2.73000002
   13.99833393   87.03009796    0.92000002    2.73000002
   14.00055599   81.95159912    0.98000002    2.73000002
   14.00194454   81.23169708    0.98000002    2.73000002
   14.00527763   80.62500000    0.95999998    2.71000004
   14.00833321   85.98729706    0.95999998    2.75000000
   14.01166630   83.72049713    0.94000000    2.75000000
   14.01472187   89.46589661    0.94000000    2.75000000
   14.01805496   91.52749634    0.94000000    2.71000004
   14.02138901   90.86440277    0.94000000    2.71000004
   14.02444458   79.88220215    0.94000000    2.73000002
   14.03055573   79.88220215    0.94000000    2.73000002
   14.03472233   85.38610077    0.92000002    2.73000002
   14.03777790   90.32460022    0.92000002    2.73000002
   14.04111195   85.52249908    0.94000000    2.73000002
   14.04444504   90.73780060    0.94000000    2.73000002
   14.04750061   88.85810089    0.95999998    2.73000002
   14.05083370   90.02439880    0.94000000    2.75000000
   14.05416679   85.16539764    0.92000002    2.73000002
   14.05722237   86.09369659    0.92000002    2.73000002
   14.06055546   79.74729919    0.92000002    2.73000002
   14.06388950   90.70709991    0.92000002    2.73000002
   14.06694412   85.73799896    0.92000002    2.75000000
   14.06750011   86.29689789    0.92000002    2.75000000
   14.07333374   86.29689789    0.92000002    2.73000002
   14.07750034   88.44259644    0.92000002    2.73000002
   14.08083344  102.78900146    0.92000002    2.75000000
   14.08388901   93.18309784    0.89999998    2.75000000
   14.08722210   89.56770325    0.88000000    2.75000000
   14.09055519   87.25379944    0.86000001    2.73000002
   14.09361076  103.73400116    0.86000001    2.73000002
   14.09694386   97.54940033    0.86000001    2.75000000
   14.10027790  102.98400116    0.86000001    2.75000000
   14.10083389   91.43060303    0.86000001    2.75000000
   14.10388947   84.44200134    0.88000000    2.73000002
   14.10694504   82.42209625    0.89999998    2.73000002
   14.11027813   96.05809784    0.92000002    2.75000000
   14.11611176   96.05809784    0.92000002    2.75000000
   14.12027836   92.27559662    0.89999998    2.75000000
   14.12361145   83.31909943    0.88000000    2.73000002
   14.12666702   86.24009705    0.88000000    2.75000000
   14.13000011   79.66809845    0.88000000    2.75000000
   14.13333321   84.76219940    0.88000000    2.75000000
   14.13416672   93.98580170    0.88000000    2.75000000
   14.13694477   89.29550171    0.86000001    2.75000000
   14.14027786   78.70649719    0.81999999    2.75000000
   14.14333344   79.95559692    0.83999997    2.75000000
   14.14666653   94.64679718    0.86000001    2.75000000
   14.14972210   89.72530365    0.86000001    2.75000000
   14.15305519   97.42179871    0.86000001    2.75000000
   14.15916634   97.42179871    0.86000001    2.75000000
   14.16333294   89.61090088    0.86000001    2.75000000
   14.16638851   89.32730103    0.89999998    2.73000002
   14.16750050   86.27819824    0.89999998    2.73000002
   14.17000008   96.32910156    0.89999998    2.75000000
   14.17305565   82.26619720    0.89999998    2.73000002
   14.17638874   85.58959961    0.89999998    2.73000002
   14.17972279   94.52819824    0.89999998    2.75000000
   14.18277836   92.23780060    0.89999998    2.75000000
   14.18611145   79.89630127    0.89999998    2.75000000
   14.18944454   93.21829987    0.89999998    2.75000000
   14.19277763   91.24520111    0.89999998    2.75000000
   14.19611073   84.81700134    0.88000000    2.75000000
   14.20194435   84.81700134    0.88000000    2.75000000
   14.20611095   99.94290161    0.88000000    2.75000000
   14.20916653   88.22139740    0.88000000    2.75000000
   14.21249962   81.32839966    0.88000000    2.75000000
   14.21583271   95.77369690    0.86000001    2.75000000
   14.21888828   88.04779816    0.86000001    2.75000000
   14.22222137   82.01719666    0.89999998    2.75000000
   14.22555542   99.34590149    0.89999998    2.75000000
   14.22861099   89.72530365    0.89999998    2.75000000
   14.23194408   94.00820160    0.89999998    2.75000000
   14.23416710   97.02529907    0.89999998    2.75000000
   14.23555565   92.45559692    0.92000002    2.75000000
   14.23888874  100.47499847    0.94000000    2.75000000
   14.24472237  100.47499847    0.94000000    2.75000000
   14.25666714   94.32879639    0.00000000    0.00000000
   14.26000023   95.44850159    0.89999998    2.75000000
   14.26305580   94.46219635    0.89999998    2.75000000
   14.26638889   96.01969910    0.89999998    2.75000000
   14.26972198   82.86820221    0.89999998    2.75000000
   14.27222157   87.57550049    0.89999998    2.75000000
   14.27333355   87.84559631    0.89999998    2.75000000
   14.27638817   93.03500366    0.89999998    2.75000000
   14.28055573   88.62259674    0.89999998    2.75000000
   14.28388977   84.37079620    0.92000002    2.76999998
   14.28805637   84.37079620    0.92000002    2.76999998
   14.29222298   86.43530273    0.92000002    2.75000000
   14.29527855   87.09420013    0.94000000    2.75000000
   14.29861164   81.33570099    0.92000002    2.75000000
   14.30194473   90.35720062    0.92000002    2.75000000
   14.30500031   89.37419891    0.92000002    2.75000000
   14.30555534   88.52919769    0.92000002    2.75000000
   14.30861092   88.86569977    0.92000002    2.75000000
   14.31194496   95.89800262    0.94000000    2.73000002
   14.31500053   88.08219910    0.92000002    2.73000002
   14.31833363  102.34500122    0.92000002    2.75000000
   14.32166672   95.05989838    0.92000002    2.75000000
   14.32472229  106.23899841    0.92000002    2.75000000
   14.34527779   73.85870361    0.86000001    2.76999998
   14.34583282   69.61060333    0.86000001    2.76999998
   14.34888840  102.04100037    0.81999999    2.75000000
   14.35222244   88.04229736    0.81999999    2.76999998
   14.35555553   93.20099640    0.80000001    2.75000000
   14.35861111   93.95739746    0.79000002    2.75000000
   14.36194515   87.85209656    0.79000002    2.76999998
   14.36527824   95.14379883    0.79000002    2.76999998
   14.36833382   99.18759918    0.79000002    2.76999998
   14.37388897   99.18759918    0.79000002    2.75000000
   14.37777805   96.15730286    0.79000002    2.76999998
   14.37861156   89.80010223    0.79000002    2.76999998
   14.38138866   96.07409668    0.80000001    2.75000000
   14.38472176   98.14849854    0.81999999    2.76999998
   14.38805580   86.86209869    0.83999997    2.76999998
   14.39111137  104.37799835    0.83999997    2.75000000
   14.39444447   97.35119629    0.83999997    2.75000000
   14.39750004   84.65360260    0.86000001    2.75000000
   14.40083313   89.16179657    0.86000001    2.75000000
   14.40416622   89.99980164    0.86000001    2.75000000
   14.40722179   88.15010071    0.88000000    2.75000000
   14.41055489   90.94000244    0.86000001    2.75000000
   14.41194439   91.32360077    0.88000000    2.76999998
   14.41666698   91.32360077    0.88000000    2.76999998
   14.42083359   96.20149994    0.88000000    2.76999998
   14.42388916   92.57939911    0.88000000    2.76999998
   14.42722225   94.56719971    0.88000000    2.76999998
   14.43055630   84.47299957    0.86000001    2.75000000
   14.43361092  100.08999634    0.83999997    2.76999998
   14.43694496   99.78769684    0.81999999    2.76999998
   14.44027805   92.68820190    0.80000001    2.76999998
   14.44333363   93.70590210    0.80000001    2.76999998
   14.44527817   88.67549896    0.80000001    2.76999998
   14.44694424   96.33390045    0.81999999    2.76999998
   14.45027733   88.43520355    0.81999999    2.76999998
   14.45361137   93.90789795    0.79000002    2.76999998
   14.45944405   93.90789795    0.76999998    2.76999998
   14.46361065   86.04949951    0.76999998    2.76999998
   14.46694374   86.47270203    0.75000000    2.76999998
   14.46999931   94.00350189    0.76999998    2.76999998
   14.47333336   80.91349792    0.76999998    2.78999996
   14.47638798   96.71649933    0.79000002    2.76999998
   14.47861099   90.34870148    0.79000002    2.76999998
   14.47999954   89.85610199    0.76999998    2.78999996
   14.48333359   84.53250122    0.76999998    2.78999996
   14.48666668   91.71269989    0.76999998    2.76999998
   14.48972225   96.53209686    0.76999998    2.78999996
   14.49305534   93.02510071    0.80000001    2.76999998
   14.49638939   75.11289978    0.80000001    2.76999998
   14.50222206   75.11289978    0.80000001    2.76999998
   14.50638866   93.58609772    0.79000002    2.78999996
   14.50972176   89.46019745    0.79000002    2.76999998
   14.51194477  104.20700073    0.79000002    2.76999998
   14.51305580   93.10839844    0.79000002    2.76999998
   14.51638889   83.88629913    0.79000002    2.76999998
   14.51972198   91.90830231    0.79000002    2.78999996
   14.52277756   90.27010345    0.79000002    2.76999998
   14.52611065  100.02300262    0.79000002    2.76999998
   14.52916622   91.84709930    0.79000002    2.76999998
   14.53249931   95.01309967    0.79000002    2.76999998
   14.53583336   88.87989807    0.81999999    2.76999998
   14.53888893   95.75930023    0.83999997    2.76999998
   14.54527855   95.75930023    0.86000001    2.75000000
   14.54916668   89.41010284    0.86000001    2.75000000
   14.55249977  101.98899841    0.88000000    2.75000000
   14.55583382   94.40730286    0.88000000    2.75000000
   14.55888939   98.56400299    0.89999998    2.76999998
   14.56222248  102.09300232    0.92000002    2.76999998
   14.56555557   91.72989655    0.92000002    2.75000000
   14.56861115   91.22160339    0.92000002    2.75000000
   14.57194424   97.70320129    0.92000002    2.75000000
   14.57527733   89.50440216    0.92000002    2.76999998
   14.57833290   90.64530182    0.88000000    2.76999998
   14.58027744   90.78679657    0.88000000    2.76999998
   14.58194447   90.61329651    0.88000000    2.76999998
   14.58805561   90.61329651    0.88000000    2.78999996
   14.59222221   95.80529785    0.76999998    2.78999996
   14.59527779   92.72389984    0.75000000    2.76999998
   14.59861088   89.12490082    0.75000000    2.78999996
   14.60194492   89.88169861    0.75000000    2.78999996
   14.60500050   99.81130219    0.75000000    2.76999998
   14.60833359   91.21900177    0.75000000    2.76999998
   14.61166668   98.60150146    0.75000000    2.78999996
   14.61361122   93.19770050    0.75000000    2.78999996
   14.61527824   91.32939911    0.76999998    2.76999998
   14.61833382   87.93379974    0.76999998    2.76999998
   14.62166691   88.25969696    0.76999998    2.78999996
   14.62500000   85.82730103    0.76999998    2.78999996
   14.63083363   85.82730103    0.76999998    2.78999996
   14.63500023   85.42479706    0.79000002    2.78999996
   14.63833332   85.88659668    0.79000002    2.76999998
   14.64138889   84.90709686    0.79000002    2.76999998
   14.64472198   95.09049988    0.80000001    2.76999998
   14.64722252   97.51229858    0.81999999    2.76999998
   14.64833355   91.99949646    0.81999999    2.76999998
   14.65166664   90.57279968    0.80000001    2.78999996
   14.65499973   89.64320374    0.80000001    2.76999998
   14.65805531  105.64600372    0.80000001    2.76999998
   14.66138840  101.91699982    0.80000001    2.78999996
   14.66444397   96.39830017    0.80000001    2.76999998
   14.66777802   84.68329620    0.81999999    2.76999998
   14.67361164   84.68329620    0.83999997    2.78999996
   14.67777824  103.91600037    0.81999999    2.76999998
   14.68055630   94.07299805    0.81999999    2.76999998
   14.68138885   83.55139923    0.81999999    2.78999996
   14.68472195   87.41159821    0.81999999    2.78999996
   14.68805599   89.48860168    0.80000001    2.78999996
   14.69111156   85.62380219    0.80000001    2.78999996
   14.69444466   87.46050262    0.80000001    2.78999996
   14.69750023   95.55989838    0.80000001    2.78999996
   14.70083332   92.91439819    0.83999997    2.78999996
   14.70416641   86.40599823    0.83999997    2.76999998
   14.70722198   86.63950348    0.83999997    2.78999996
   14.71055508   89.34899902    0.83999997    2.78999996
   14.71666622   89.34899902    0.83999997    2.76999998
   14.72055531   91.11969757    0.83999997    2.76999998
   14.72388840   95.92729950    0.83999997    2.78999996
   14.72722149   92.17070007    0.81999999    2.78999996
   14.73027706   90.18479919    0.81999999    2.78999996
   14.73361111   91.30229950    0.81999999    2.76999998
   14.73694515   90.23670197    0.81999999    2.78999996
   14.74000072   82.83660126    0.81999999    2.78999996
   14.74333382   92.83830261    0.81999999    2.75000000
   14.74666691   87.22750092    0.81999999    2.78999996
   14.74750042   85.51550293    0.81999999    2.78999996
   14.75000000   98.42140198    0.81999999    2.78999996
   14.75333309   97.20680237    0.81999999    2.76999998
   14.75944424   97.20680237    0.81999999    2.78999996
   14.76361084   84.23880005    0.80000001    2.78999996
   14.76666641   87.69660187    0.80000001    2.76999998
   14.76999950   87.88870239    0.79000002    2.78999996
   14.77333355   89.98339844    0.79000002    2.78999996
   14.77638817   85.47599792    0.79000002    2.78999996
   14.77972221   94.83339691    0.75000000    2.80999994
   14.78083324   93.28790283    0.75000000    2.78999996
   14.78333378   92.72969818    0.75000000    2.78999996
   14.78666687   95.47979736    0.73000002    2.78999996
   14.79000092   91.84449768    0.75000000    2.78999996
   14.79305553   89.60260010    0.75000000    2.78999996
   14.79638958   92.11270142    0.73000002    2.78999996
   14.80222225   92.11270142    0.75000000    2.78999996
   14.80638885   86.54319763    0.73000002    2.78999996
   14.80944443   95.82299805    0.73000002    2.78999996
   14.81277752   86.89839935    0.73000002    2.78999996
   14.81416702   94.48259735    0.75000000    2.78999996
   14.81638908   87.93299866    0.76999998    2.78999996
   14.81972218   87.21499634    0.75000000    2.78999996
   14.82277775   88.17769623    0.75000000    2.78999996
   14.82611084   98.25689697    0.75000000    2.78999996
   14.82944393   91.89450073    0.75000000    2.78999996
   14.83249950   94.06629944    0.75000000    2.78999996
   14.83583260  103.24099731    0.75000000    2.78999996
   14.83916664  100.11000061    0.75000000    2.78999996
   14.84499931  100.11000061    0.75000000    2.78999996
   14.84916592   87.73999786    0.75000000    2.78999996
   14.85249996   89.77040100    0.75000000    2.78999996
   14.85555553   93.61000061    0.75000000    2.78999996
   14.85888958   92.70339966    0.75000000    2.78999996
   14.86222267   97.02980042    0.75000000    2.78999996
   14.86527824   96.91120148    0.76999998    2.78999996
   14.86861134   98.45739746    0.79000002    2.78999996
   14.87194443   90.64070129    0.76999998    2.78999996
   14.87500000   87.05310059    0.76999998    2.78999996
   14.87833309   93.33370209    0.79000002    2.78999996
   14.88111115   99.57820129    0.76999998    2.78999996
   14.88194466   99.07939911    0.76999998    2.78999996
   14.88777733   99.07939911    0.76999998    2.78999996
   14.89194393   88.74780273    0.76999998    2.78999996
   14.89527798   92.04840088    0.76999998    2.78999996
   14.89861107   99.09140015    0.75000000    2.78999996
   14.90166664   98.03929901    0.75000000    2.80999994
   14.90499973   93.31529999    0.73000002    2.78999996
   14.90805531   85.36920166    0.73000002    2.80999994
   14.91138840   90.30429840    0.75000000    2.78999996
   14.91444397   82.80480194    0.73000002    2.78999996
   14.91499996   89.10829926    0.73000002    2.78999996
   14.91833401   81.56099701    0.73000002    2.78999996
   14.92138958   84.62120056    0.73000002    2.78999996
   14.92472267   86.18990326    0.73000002    2.80999994
   14.93083382   86.18990326    0.75000000    2.78999996
   14.93500042   90.51370239    0.75000000    2.78999996
   14.93805599   94.84570313    0.75000000    2.78999996
   14.94138908   87.45899963    0.75000000    2.78999996
   14.94472218   83.30239868    0.75000000    2.78999996
   14.94777775   80.68800354    0.76999998    2.80999994
   14.94805527   86.12729645    0.76999998    2.80999994
   14.95138836   91.67939758    0.76999998    2.78999996
   14.95444393   89.76439667    0.79000002    2.78999996
   14.95777798   93.79260254    0.79000002    2.78999996
   14.96111107   82.87819672    0.79000002    2.78999996
   14.96416664   90.31300354    0.79000002    2.78999996
   14.96749973   91.29010010    0.79000002    2.78999996
   14.97361088   91.29010010    0.75000000    2.80999994
   14.97777748   80.30950165    0.75000000    2.78999996
   14.98111057   83.33789825    0.76999998    2.78999996
   14.98138809   91.40760040    0.76999998    2.78999996
   14.98472214   87.12270355    0.75000000    2.78999996
   14.98777771   87.03399658    0.76999998    2.78999996
   14.99111176   89.60610199    0.75000000    2.78999996
   14.99444485   85.13950348    0.76999998    2.80999994
   14.99750042   87.94730377    0.76999998    2.80999994
   15.00083351   80.25700378    0.75000000    2.78999996
   15.00416660   88.11900330    0.75000000    2.80999994
   15.00749969   91.09889984    0.75000000    2.78999996
   15.01055527   90.82520294    0.75000000    2.78999996
   15.01638889   90.82520294    0.73000002    2.80999994
   15.02055550   90.62090302    0.73000002    2.80999994
   15.02388859   83.33679962    0.73000002    2.78999996
   15.02694416   92.02269745    0.73000002    2.80999994
   15.03027725   88.50559998    0.73000002    2.80999994
   15.03361130   95.11820221    0.70999998    2.78999996
   15.03666687   78.38680267    0.70999998    2.80999994
   15.04000092   84.92720032    0.69000000    2.78999996
   15.04305553   91.91310120    0.67000002    2.80999994
   15.04638958   89.47489929    0.67000002    2.78999996
   15.04777813   76.64150238    0.67000002    2.78999996
   15.05000019   89.28119659    0.67000002    2.80999994
   15.05333328   86.87210083    0.67000002    2.80999994
   15.05916691   86.87210083    0.64999998    2.80999994
   15.06333351   90.96749878    0.67000002    2.80999994
   15.06666660   87.18650055    0.67000002    2.80999994
   15.06999969   93.48780060    0.67000002    2.80999994
   15.07305527   82.50430298    0.64999998    2.82999992
   15.07638836   86.01750183    0.67000002    2.80999994
   15.07944393   82.11090088    0.67000002    2.80999994
   15.08111095   87.85240173    0.67000002    2.80999994
   15.08305550   86.14260101    0.67000002    2.80999994
   15.08638859   82.17590332    0.67000002    2.80999994
   15.08972168   89.00360107    0.69000000    2.78999996
   15.09277725   90.85769653    0.69000000    2.78999996
   15.09611034   94.29930115    0.67000002    2.80999994
   15.10222244   94.29930115    0.69000000    2.80999994
   15.10638905   88.84600067    0.64999998    2.80999994
   15.10944462   90.68650055    0.64999998    2.80999994
   15.11277771   94.23519897    0.64999998    2.80999994
   15.11444473  103.22799683    0.64999998    2.80999994
   15.21222210   -1.00000000   -1.00000000   -1.00000000
   15.41777802   -1.00000000   -1.00000000   -1.00000000
   15.57999992   -1.00000000   -1.00000000   -1.00000000
   15.70027733   67.99990082    0.70999998    2.84999990
   15.70333290   95.07469940    0.70999998    2.82999992
   15.70666695   84.84780121    0.70999998    2.82999992
   15.71000004  101.14900208    0.70999998    2.82999992
   15.71305561  102.77200317    0.70999998    2.82999992
   15.71638870  100.25299835    0.70999998    2.82999992
   15.72083282  100.25299835    0.73000002    2.82999992
   15.72499943   90.48580170    0.73000002    2.82999992
   15.72833252   96.12300110    0.73000002    2.82999992
   15.73138809   86.59729767    0.73000002    2.82999992
   15.73361111   98.79879761    0.73000002    2.82999992
   15.73500061   90.16239929    0.73000002    2.82999992
   15.73833370   85.77259827    0.73000002    2.82999992
   15.74166679   88.97709656    0.73000002    2.82999992
   15.74472237   86.59120178    0.73000002    2.82999992
   15.74805546   86.57340240    0.73000002    2.82999992
   15.75111103   92.28600311    0.73000002    2.82999992
   15.75444412   93.86679840    0.73000002    2.82999992
   15.75777817   83.39610291    0.73000002    2.82999992
   15.76333332   83.39610291    0.73000002    2.82999992
   15.76749992   83.39340210    0.73000002    2.82999992
   15.77083302   91.16410065    0.76999998    2.80999994
   15.77388859   86.12490082    0.75000000    2.82999992
   15.77722168   78.94380188    0.76999998    2.80999994
   15.78027725   80.50550079    0.76999998    2.82999992
   15.78361130   83.56639862    0.75000000    2.82999992
   15.78694534   79.83059692    0.75000000    2.82999992
   15.79000092   85.93800354    0.75000000    2.82999992
   15.79333401   90.48049927    0.76999998    2.82999992
   15.79666710   82.27850342    0.79000002    2.82999992
   15.79972267   87.63520050    0.80000001    2.82999992
   15.80027771   86.30850220    0.80000001    2.82999992
   15.80611134   86.30850220    0.79000002    2.82999992
   15.81027794   89.33599854    0.76999998    2.82999992
   15.81361103   86.89050293    0.75000000    2.82999992
   15.81666660   85.33409882    0.75000000    2.82999992
   15.81999969   92.84989929    0.75000000    2.82999992
   15.82333374   87.90309906    0.76999998    2.82999992
   15.82638836   85.42479706    0.76999998    2.82999992
   15.82972240   84.35340118    0.79000002    2.82999992
   15.83277798   82.08509827    0.79000002    2.82999992
   15.83361053   86.41239929    0.79000002    2.82999992
   15.83666611   85.21309662    0.79000002    2.82999992
   15.83972168   85.32550049    0.79000002    2.82999992
   15.84305477   82.25530243    0.80000001    2.80999994
   15.84888840   82.25530243    0.81999999    2.82999992
   15.85305595   83.58869934    0.81999999    2.82999992
   15.85638905   87.24770355    0.81999999    2.82999992
   15.85972214   86.86889648    0.81999999    2.82999992
   15.86277771   81.32420349    0.80000001    2.82999992
   15.86611176   76.68280029    0.80000001    2.82999992
   15.86694431   81.73619843    0.80000001    2.82999992
   15.86972237   89.61060333    0.81999999    2.82999992
   15.87305546   87.25009918    0.83999997    2.84999990
   15.87611103   77.60569763    0.83999997    2.82999992
   15.87944412   87.55220032    0.83999997    2.82999992
   15.88249969   87.45880127    0.80000001    2.82999992
   15.88583279   87.04239655    0.80000001    2.82999992
   15.89194393   87.04239655    0.75000000    2.82999992
   15.89611053   85.12999725    0.73000002    2.84999990
   15.89916611   81.92960358    0.73000002    2.84999990
   15.90027714   83.98509979    0.73000002    2.84999990
   15.90305519   92.28949738    0.73000002    2.82999992
   15.90611076   83.84259796    0.75000000    2.82999992
   15.90944386   88.50679779    0.76999998    2.82999992
   15.91277695   88.51860046    0.80000001    2.84999990
   15.91583252   96.86489868    0.81999999    2.82999992
   15.91916656   95.65290070    0.81999999    2.82999992
   15.92250061   89.79949951    0.81999999    2.82999992
   15.92555618   87.82460022    0.83999997    2.82999992
   15.92888927   92.66059875    0.81999999    2.82999992
   15.93500042   92.66059875    0.80000001    2.82999992
   15.93916702   81.33719635    0.80000001    2.82999992
   15.94222260   82.13790131    0.81999999    2.84999990
   15.94555569   82.68849945    0.80000001    2.84999990
   15.94888878   84.09629822    0.79000002    2.82999992
   15.95194435   80.46350098    0.79000002    2.82999992
   15.95527744   88.54850006    0.79000002    2.82999992
   15.95861053   81.04779816    0.79000002    2.84999990
   15.96166611   83.53060150    0.79000002    2.82999992
   15.96500015   78.44219971    0.79000002    2.82999992
   15.96694374   81.08350372    0.79000002    2.84999990
   15.96861076   90.09369659    0.79000002    2.84999990
   15.97194386   76.27050018    0.79000002    2.84999990
   15.97749996   76.27050018    0.80000001    2.82999992
   15.98166656   89.58190155    0.81999999    2.82999992
   15.98500061   90.53189850    0.83999997    2.82999992
   15.98805618   83.55519867    0.86000001    2.80999994
   15.99138927   83.78859711    0.86000001    2.82999992
   15.99472237   91.18209839    0.86000001    2.82999992
   15.99777794   82.72010040    0.83999997    2.82999992
   16.00027847   88.50050354    0.81999999    2.82999992
   16.00138855   82.65329742    0.81999999    2.82999992
   16.00472260   84.41059875    0.80000001    2.82999992
   16.00805473   84.69319916    0.81999999    2.84999990
   16.01111031   93.76570129    0.81999999    2.82999992
   16.01444435   79.48729706    0.81999999    2.82999992
   16.02027702   79.48729706    0.80000001    2.82999992
   16.02444458   80.38059998    0.81999999    2.82999992
   16.02777672   90.05580139    0.81999999    2.82999992
   16.03111076   80.61699677    0.80000001    2.82999992
   16.03361130   89.76170349    0.81999999    2.82999992
   16.03472137   81.12079620    0.81999999    2.84999990
   16.03805542   79.97370148    0.81999999    2.82999992
   16.04111099   81.40470123    0.81999999    2.84999990
   16.04444313   83.86260223    0.83999997    2.82999992
   16.04749870   81.93810272    0.81999999    2.84999990
   16.05083275   82.32479858    0.83999997    2.82999992
   16.05416679   79.65350342    0.83999997    2.82999992
   16.05722237   83.88379669    0.83999997    2.82999992
   16.06333351   83.88379669    0.83999997    2.84999990
   16.06750107   86.06500244    0.83999997    2.82999992
   16.07055664   84.25360107    0.86000001    2.82999992
   16.07389069   83.36239624    0.86000001    2.82999992
   16.07694626   81.07540131    0.86000001    2.82999992
   16.08027840   85.67669678    0.83999997    2.82999992
   16.08361244   84.81580353    0.83999997    2.82999992
   16.08666801   89.31680298    0.83999997    2.84999990
   16.09000015   89.77359772    0.83999997    2.82999992
   16.09333420   81.32060242    0.83999997    2.82999992
   16.09638977   92.37220001    0.81999999    2.82999992
   16.09972191   85.59030151    0.83999997    2.82999992
   16.10027885   88.95050049    0.83999997    2.84999990
   16.10611153   88.95050049    0.83999997    2.82999992
   16.11027908   86.49600220    0.81999999    2.82999992
   16.11333466   88.65989685    0.81999999    2.82999992
   16.11666679   97.23480225    0.81999999    2.82999992
   16.12000084   86.54429626    0.81999999    2.82999992
   16.12305641   84.96340179    0.81999999    2.82999992
   16.12638855   87.10320282    0.83999997    2.82999992
   16.12972260   85.83789825    0.83999997    2.82999992
   16.13277817   80.23339844    0.86000001    2.82999992
   16.13361168   80.17030334    0.86000001    2.82999992
   16.13638878   86.22630310    0.86000001    2.84999990
   16.13972282   81.35679626    0.83999997    2.82999992
   16.14277840   81.43409729    0.86000001    2.82999992
   16.14888954   81.43409729    0.83999997    2.82999992
   16.15305519   87.52529907    0.80000001    2.82999992
   16.15638924   92.15509796    0.80000001    2.82999992
   16.15944481   87.81580353    0.80000001    2.82999992
   16.16277695   78.54170227    0.80000001    2.84999990
   16.16611099   91.12609863    0.81999999    2.82999992
   16.16694450   86.23660278    0.83999997    2.84999990
   16.16972160   88.64649963    0.86000001    2.82999992
   16.17305565   91.22579956    0.86000001    2.82999992
   16.17611122   84.78620148    0.86000001    2.82999992
   16.17944336   87.48130035    0.86000001    2.82999992
   16.18249893   94.93720245    0.86000001    2.82999992
   16.18583298   90.65399933    0.86000001    2.82999992
   16.19194412   90.65399933    0.83999997    2.84999990
   16.19610977   92.15889740    0.83999997    2.82999992
   16.19916534   90.82369995    0.86000001    2.82999992
   16.20027924   93.43800354    0.86000001    2.82999992
   16.20305634   85.92019653    0.86000001    2.82999992
   16.20639038   92.76260376    0.86000001    2.84999990
   16.20944595   78.50379944    0.86000001    2.84999990
   16.21277809   95.54689789    0.83999997    2.82999992
   16.21583366   97.13140106    0.83999997    2.82999992
   16.21916771   93.47419739    0.83999997    2.84999990
   16.22249985   93.16040039    0.83999997    2.82999992
   16.22555542   96.70320129    0.86000001    2.84999990
   16.22888947   91.82309723    0.86000001    2.84999990
   16.23472214   91.82309723    0.88000000    2.82999992
   16.23888969   88.77770233    0.88000000    2.84999990
   16.24194527   82.23300171    0.88000000    2.84999990
   16.24527740   82.21170044    0.88000000    2.82999992
   16.24833298   90.95600128    0.89999998    2.84999990
   16.25166702   85.27610016    0.89999998    2.82999992
   16.25499916   87.98220062    0.89999998    2.82999992
   16.25805473   93.06759644    0.88000000    2.82999992
   16.26138878   84.93129730    0.89999998    2.82999992
   16.26472282   88.71530151    0.88000000    2.84999990
   16.26694489   89.74019623    0.88000000    2.84999990
   16.26833344   82.30590057    0.88000000    2.84999990
   16.28861046   86.15809631    0.00000000    0.00000000
   16.29277802   86.15809631    0.88000000    2.84999990
   16.29694366   86.42140198    0.88000000    2.82999992
   16.30972099   85.76509857    0.88000000    2.82999992
   16.31055450   82.75109863    0.88000000    2.82999992
   16.31333351   87.29080200    0.86000001    2.84999990
   16.31666756   84.02749634    0.86000001    2.82999992
   16.31972313   88.84670258    0.86000001    2.82999992
   16.32305717   83.21759796    0.86000001    2.84999990
   16.32638931   86.89129639    0.83999997    2.82999992
   16.32944489   85.38050079    0.83999997    2.82999992
   16.33305550   85.14479828    0.86000001    2.82999992
   16.33750153   85.14479828    0.94000000    2.82999992
   16.34166718   83.81839752    0.94000000    2.82999992
   16.34388924   79.98370361    0.94000000    2.82999992
   16.34527779   80.71420288    0.94000000    2.82999992
   16.34861183   82.52590179    0.94000000    2.82999992
   16.35194397   86.83879852    0.94000000    2.82999992
   16.35499954   89.10310364    0.86000001    2.84999990
   16.35833359   81.78289795    0.86000001    2.82999992
   16.36138916   85.20220184    0.86000001    2.82999992
   16.36472321   94.50949860    0.86000001    2.82999992
   16.36805534   81.20780182    0.83999997    2.82999992
   16.37111092   84.28970337    0.81999999    2.82999992
   16.37444496   88.40309906    0.81999999    2.82999992
   16.38055611   88.40309906    0.83999997    2.84999990
   16.38472176   86.97489929    0.83999997    2.84999990
   16.38777733   85.55210114    0.81999999    2.82999992
   16.39111137   85.52909851    0.81999999    2.82999992
   16.39444351   81.74859619    0.83999997    2.82999992
   16.39749908   84.71880341    0.81999999    2.84999990
   16.40083313   83.88880157    0.81999999    2.82999992
   16.40416718   84.08329773    0.83999997    2.82999992
   16.40722275   82.26200104    0.83999997    2.82999992
   16.41055489   88.65419769    0.81999999    2.84999990
   16.41110992   84.21360016    0.81999999    2.82999992
   16.41416550   85.48940277    0.81999999    2.82999992
   16.41749954   83.70349884    0.81999999    2.82999992
   16.42305565   83.70349884    0.80000001    2.84999990
   16.42722130   87.78330231    0.76999998    2.84999990
   16.43055534   91.75900269    0.79000002    2.84999990
   16.43361092   83.23789978    0.76999998    2.84999990
   16.44249916   83.22850037    0.00000000    0.00000000
   16.44444275   87.68299866    0.79000002    2.84999990
   16.44638824   85.08529663    0.76999998    2.82999992
   16.44972038   85.10389709    0.76999998    2.82999992
   16.45277786   83.22779846    0.76999998    2.84999990
   16.45611191   90.51529694    0.75000000    2.84999990
   16.45916748   85.10929871    0.75000000    2.84999990
   16.46250153   85.85220337    0.75000000    2.84999990
   16.46583366   84.81749725    0.75000000    2.84999990
   16.47027779   84.81749725    0.76999998    2.82999992
   16.47444534   79.88150024    0.75000000    2.84999990
   16.47750092   82.93090057    0.76999998    2.84999990
   16.47805595   83.74909973    0.76999998    2.84999990
   16.48139000   89.40209961    0.76999998    2.82999992
   16.48472214   80.26920319    0.76999998    2.84999990
   16.48805618   84.30449677    0.76999998    2.82999992
   16.49111176   85.39320374    0.75000000    2.84999990
   16.49444389   91.04900360    0.76999998    2.84999990
   16.49749947   81.70590210    0.76999998    2.84999990
   16.50083351   85.23010254    0.79000002    2.84999990
   16.50416756   91.61450195    0.80000001    2.84999990
   16.50722313   83.32649994    0.80000001    2.84999990
   16.51305580   83.32649994    0.81999999    2.84999990
   16.51722145   93.67919922    0.81999999    2.84999990
   16.52055550   87.54470062    0.81999999    2.84999990
   16.52361107   87.12169647    0.81999999    2.84999990
   16.52694511   78.70929718    0.81999999    2.84999990
   16.53027725   91.64350128    0.81999999    2.84999990
   16.53333282   86.10220337    0.80000001    2.84999990
   16.53666687   87.47740173    0.80000001    2.86999989
   16.53972244   91.86609650    0.79000002    2.84999990
   16.54305458   92.53659821    0.79000002    2.84999990
   16.54472160   98.47499847    0.79000002    2.86999989
   16.54666710   88.66999817    0.79000002    2.86999989
   16.54999924   94.22399902    0.79000002    2.84999990
   16.55583191   94.22399902    0.79000002    2.84999990
   16.55999947   95.29489899    0.79000002    2.84999990
   16.56333351   91.54429626    0.79000002    2.84999990
   16.56666756   86.91410065    0.79000002    2.82999992
   16.56972313   91.73539734    0.80000001    2.84999990
   16.57305717   87.79260254    0.83999997    2.84999990
   16.57611275   85.71099854    0.81999999    2.84999990
   16.57805634   85.31109619    0.81999999    2.84999990
   16.57972336   80.81749725    0.83999997    2.84999990
   16.58305550   83.04589844    0.83999997    2.84999990
   16.58611107   92.24279785    0.86000001    2.84999990
   16.58944511   86.65260315    0.86000001    2.84999990
   16.59277916   91.03440094    0.86000001    2.84999990
   16.59889030   91.03440094    0.89999998    2.84999990
   16.60305595   86.45899963    0.92000002    2.82999992
   16.60611153   84.90619659    0.92000002    2.82999992
   16.60944557   77.90299988    0.94000000    2.82999992
   16.61138916   87.60839844    0.94000000    2.82999992
   16.61305618   94.09670258    0.95999998    2.82999992
   16.61638832   98.66269684    0.95999998    2.82999992
   16.61944389   82.60060120    0.95999998    2.82999992
   16.62277794   85.24169922    0.98000002    2.82999992
   16.62611198   84.88619995    0.98000002    2.84999990
   16.62916756   84.10109711    0.98000002    2.82999992
   16.63249969   93.97339630    1.01999998    2.82999992
   16.63583374   95.10079956    1.01999998    2.82999992
   16.64166641   95.10079956    1.00000000    2.82999992
   16.64583397   87.25450134    1.00000000    2.84999990
   16.64888954   93.60800171    1.00000000    2.84999990
   16.65222168   88.34919739    1.01999998    2.84999990
   16.65555573   84.65249634    1.00000000    2.84999990
   16.65861130   80.99770355    1.00000000    2.84999990
   16.66194344   90.43560028    1.00000000    2.82999992
   16.66499901   91.64869690    0.98000002    2.82999992
   16.66833305   84.57140350    0.98000002    2.84999990
   16.67166519   85.45729828    1.01999998    2.84999990
   16.67472076   85.31390381    1.05999994    2.82999992
   16.67805481   86.84049988    1.05999994    2.82999992
   16.67860985   84.22460175    1.05999994    2.82999992
   16.68444443   84.22460175    0.98000002    2.82999992
   16.68861008   82.46790314    0.98000002    2.84999990
   16.69194412   84.51409912    0.95999998    2.84999990
   16.69499969   87.63200378    0.89999998    2.84999990
   16.69833183   97.65090179    0.89999998    2.82999992
   16.70138931   81.67040253    0.88000000    2.84999990
   16.70472336   89.02210236    0.86000001    2.82999992
   16.70805550   88.82929993    0.86000001    2.82999992
   16.71111107  103.98200226    0.83999997    2.84999990
   16.71194458   94.81980133    0.83999997    2.84999990
   16.71500015   92.44149780    0.81999999    2.84999990
   16.73555565   92.44149780    0.86000001    2.82999992
   16.73972321   93.53589630    0.86000001    2.84999990
   16.74305534   89.10820007    0.86000001    2.84999990
   16.74527740   94.57119751    0.86000001    2.84999990
   16.74666786   79.87419891    0.86000001    2.84999990
   16.75000000   82.83999634    0.86000001    2.84999990
   16.75305557   79.57399750    0.81999999    2.84999990
   16.75638962   81.23819733    0.83999997    2.86999989
   16.75972176   84.94750214    0.81999999    2.84999990
   16.76277733   84.10330200    0.80000001    2.84999990
   16.76611137   83.20259857    0.80000001    2.84999990
   16.76944351   84.08149719    0.80000001    2.84999990
   16.77249908   93.74639893    0.80000001    2.84999990
   16.77833366   93.74639893    0.80000001    2.84999990
   16.78249931   79.80329895    0.80000001    2.84999990
   16.78583336   88.49980164    0.80000001    2.84999990
   16.78888893   85.04350281    0.80000001    2.84999990
   16.79222107   88.64129639    0.80000001    2.84999990
   16.79527664   88.44560242    0.80000001    2.84999990
   16.79861069   80.39630127    0.80000001    2.86999989
   16.80194283   90.07749939    0.80000001    2.86999989
   16.80499840   85.47760010    0.80000001    2.84999990
   16.80833244   84.19149780    0.80000001    2.84999990
   16.81166649   83.68509674    0.80000001    2.84999990
   16.81333351   78.17949677    0.80000001    2.84999990
   16.81527710   81.91850281    0.80000001    2.84999990
   16.82111168   81.91850281    0.81999999    2.84999990
   16.82527924   82.75340271    0.81999999    2.86999989
   16.82861137   84.02059937    0.81999999    2.84999990
   16.83166695   92.52410126    0.81999999    2.84999990
   16.83500099   86.51540375    0.81999999    2.84999990
   16.83833313   92.86830139    0.81999999    2.84999990
   16.84138870   82.38670349    0.81999999    2.84999990
   16.84472275   97.96440125    0.83999997    2.84999990
   16.84666824   91.82659912    0.83999997    2.84999990
   16.84833336   92.27970123    0.81999999    2.84999990
   16.85166740   91.50740051    0.81999999    2.84999990
   16.85472298   91.82109833    0.81999999    2.84999990
   16.85805511   89.01860046    0.83999997    2.84999990
   16.86416626   89.01860046    0.83999997    2.86999989
   16.86805534   90.85150146    0.83999997    2.86999989
   16.87138939   86.72299957    0.81999999    2.84999990
   16.87472153   85.17389679    0.83999997    2.84999990
   16.87777710   92.62709808    0.81999999    2.84999990
   16.88027763   93.47370148    0.81999999    2.84999990
   16.88166618   88.40280151    0.81999999    2.84999990
   16.88472176   83.87770081    0.81999999    2.84999990
   16.88805580   81.47619629    0.81999999    2.84999990
   16.89138794   91.58730316    0.81999999    2.84999990
   16.89472198   87.80110168    0.80000001    2.84999990
   16.89805603   84.77339935    0.81999999    2.84999990
   16.90111160   93.37719727    0.81999999    2.84999990
   16.90694427   93.37719727    0.81999999    2.84999990
   16.91110992   83.65650177    0.81999999    2.84999990
   16.91361046   84.95819855    0.83999997    2.84999990
   16.91472244   91.16699982    0.83999997    2.84999990
   16.91777802   89.22290039    0.81999999    2.84999990
   16.92111015   89.76020050    0.83999997    2.84999990
   16.92444420   90.00499725    0.83999997    2.84999990
   16.92749977   94.13110352    0.83999997    2.84999990
   16.93083191   91.18150330    0.86000001    2.84999990
   16.93416595   93.52010345    0.83999997    2.84999990
   16.93722153   90.62429810    0.88000000    2.84999990
   16.94055557   96.23190308    0.88000000    2.86999989
   16.94388771   86.19380188    0.88000000    2.84999990
   16.94972038   86.19380188    0.89999998    2.84999990
   16.95388985   91.39810181    0.89999998    2.82999992
   16.95694542   92.47989655    0.89999998    2.84999990
   16.96027946   87.65750122    0.89999998    2.84999990
   16.96361160   80.42489624    0.89999998    2.84999990
   16.96666718   87.98829651    0.92000002    2.84999990
   16.97000122   87.80110168    0.92000002    2.84999990
   16.97333336   79.26629639    0.94000000    2.82999992
   16.97638893   84.19339752    0.94000000    2.84999990
   16.97972298   90.04599762    0.94000000    2.82999992
   16.98055649   87.16310120    0.94000000    2.82999992
   16.98333359   81.83519745    0.94000000    2.84999990
   16.98666763   88.66159821    0.94000000    2.82999992
   16.99250031   88.66159821    0.95999998    2.84999990
   16.99666786   75.76679993    0.95999998    2.84999990
   17.00000000   90.12229919    0.95999998    2.84999990
   17.00305557   88.87490082    0.95999998    2.84999990
   17.00638962   90.57119751    0.98000002    2.84999990
   17.00972176   87.38189697    0.95999998    2.84999990
   17.01277733   85.17400360    0.95999998    2.84999990
   17.01388931   85.92340088    0.95999998    2.84999990
   17.01638794   85.10659790    0.95999998    2.84999990
   17.01944351   90.55780029    0.98000002    2.84999990
   17.02277756   86.10890198    0.98000002    2.84999990
   17.02611160   96.94029999    0.98000002    2.84999990
   17.02916718   90.13059998    0.98000002    2.84999990
   17.03527641   90.13059998    1.00000000    2.82999992
   17.03944397   90.37779999    1.00000000    2.82999992
   17.04277802   90.84279633    1.00000000    2.82999992
   17.04611015   80.80960083    1.00000000    2.84999990
   17.04749870   80.58319855    1.00000000    2.84999990
   17.04972076   84.90129852    1.00000000    2.84999990
   17.05277634   84.48639679    0.98000002    2.84999990
   17.05611038   87.16000366    0.98000002    2.84999990
   17.05944443   88.01480103    0.98000002    2.84999990
   17.06250000   85.54570007    0.98000002    2.84999990
   17.06583214   90.06659698    0.98000002    2.84999990
   17.06916809   85.14520264    0.98000002    2.84999990
   17.07222366   87.44329834    0.98000002    2.84999990
   17.07833481   87.44329834    0.92000002    2.84999990
   17.08250046   90.58979797    0.92000002    2.84999990
   17.08555603   95.31120300    0.92000002    2.84999990
   17.08889008   97.11820221    0.92000002    2.84999990
   17.09222221   84.57460022    0.92000002    2.84999990
   17.09527779   85.56109619    0.92000002    2.84999990
   17.09861183   87.79859924    0.88000000    2.84999990
   17.10194397   86.66950226    0.89999998    2.84999990
   17.10499954   87.36319733    0.89999998    2.84999990
   17.10833359   86.45899963    0.89999998    2.84999990
   17.11166763   91.32579803    0.89999998    2.84999990
   17.11416626   88.42489624    0.95999998    2.82999992
   17.11527824   85.14179993    0.95999998    2.84999990
   17.12111092   85.14179993    0.95999998    2.84999990
   17.12527847   87.58070374    0.95999998    2.82999992
   17.12833405   88.23660278    0.98000002    2.84999990
   17.13166618   90.86969757    1.00000000    2.84999990
   17.13500023   87.00029755    0.98000002    2.84999990
   17.13805580   95.51360321    0.98000002    2.84999990
   17.14138794   88.81639862    0.98000002    2.84999990
   17.14472198   90.63739777    1.00000000    2.82999992
   17.14749908   80.57820129    1.00000000    2.84999990
   17.14833260   84.60549927    1.00000000    2.84999990
   17.15138817   87.56359863    1.01999998    2.82999992
   17.15472221   93.06700134    1.00000000    2.84999990
   17.15805435   82.24220276    1.00000000    2.84999990
   17.16388893   82.24220276    1.01999998    2.82999992
   17.16805458   85.18840027    1.01999998    2.82999992
   17.17138863  101.87200165    1.01999998    2.82999992
   17.17472076   95.03099823    1.05999994    2.82999992
   17.17777634   95.42729950    1.05999994    2.84999990
   17.18083191   86.74780273    1.11000001    2.82999992
   17.18166542   92.15470123    1.11000001    2.82999992
   17.18472099   84.73030090    1.11000001    2.82999992
   17.18805504   80.95619965    1.11000001    2.82999992
   17.19138718   82.81739807    1.11000001    2.82999992
   17.19444275   91.48950195    1.11000001    2.82999992
   17.19777679   89.90480042    1.14999998    2.82999992
   17.20083427   86.08660126    1.14999998    2.82999992
   17.20666695   86.08660126    1.13000000    2.82999992
   17.21083450   86.72540283    1.11000001    2.82999992
   17.21416664   86.63559723    1.11000001    2.82999992
   17.21472359   82.64659882    1.11000001    2.82999992
   17.21777916   89.80010223    1.09000003    2.82999992
   17.22111130   86.09629822    1.07000005    2.82999992
   17.22444534   85.86299896    1.07000005    2.82999992
   17.22750092   92.21910095    1.07000005    2.82999992
   17.23083305   80.79689789    1.09000003    2.84999990
   17.23416710   80.93499756    1.13000000    2.82999992
   17.23722267   87.79060364    1.13000000    2.82999992
   17.24055672   78.86979675    1.16999996    2.82999992
   17.24361229   86.09529877    1.23000002    2.80999994
   17.24972153   86.09529877    1.28999996    2.82999992
   17.25388908   85.21350098    1.28999996    2.82999992
   17.25694466   90.50129700    1.30999994    2.82999992
   17.26027870   81.88829803    1.28999996    2.82999992
   17.26333427   82.34269714    1.26999998    2.82999992
   17.26666641   86.39630127    1.26999998    2.82999992
   17.27000046   89.48200226    1.28999996    2.82999992
   17.27305603   83.30560303    1.30999994    2.82999992
   17.27638817   78.79489899    1.30999994    2.82999992
   17.27972221   86.62010193    1.33000004    2.82999992
   17.28083229   83.31870270    1.33000004    2.82999992
   17.28333282   94.21070099    1.28999996    2.82999992
   17.28638840   87.28829956    1.28999996    2.82999992
   17.29249954   87.28829956    1.26999998    2.82999992
   17.29666710   84.99659729    1.25000000    2.82999992
   17.29972076   83.19280243    1.21000004    2.82999992
   17.30305481   85.73220062    1.21000004    2.82999992
   17.30638885   84.29199982    1.03999996    2.84999990
   17.30944443   76.36599731    1.01999998    2.82999992
   17.31277657   76.23069763    1.01999998    2.82999992
   17.31416512   85.36550140    1.01999998    2.84999990
   17.31638718   82.95860291    1.01999998    2.84999990
   17.31972313   86.38169861    0.98000002    2.82999992
   17.32277870   90.77559662    0.98000002    2.84999990
   17.32611275   88.12210083    1.00000000    2.82999992
   17.32916832   79.95079803    1.00000000    2.82999992
   17.33527756   79.95079803    0.95999998    2.84999990
   17.33944511   83.16110229    0.94000000    2.82999992
   17.34277916   81.22100067    0.94000000    2.84999990
   17.34583473   83.70310211    0.94000000    2.84999990
   17.34777832   85.29329681    0.95999998    2.86999989
   17.34944534   83.31340027    0.95999998    2.86999989
   17.35277748   84.53040314    0.94000000    2.82999992
   17.35611153   84.45580292    0.94000000    2.82999992
   17.35916710   78.13189697    0.95999998    2.84999990
   17.36250114   80.42199707    0.95999998    2.84999990
   17.36583328   88.85179901    0.98000002    2.84999990
   17.36888885   92.69080353    0.98000002    2.82999992
   17.37222290   80.62750244    1.00000000    2.82999992
   17.37805557   80.62750244    1.01999998    2.82999992
   17.38222313   89.57640076    1.00000000    2.82999992
   17.38555527   79.91539764    1.00000000    2.84999990
   17.38861084   83.77780151    1.00000000    2.84999990
   17.39194489   82.26390076    1.00000000    2.84999990
   17.39527702   84.50170135    1.00000000    2.84999990
   17.39833260   83.18820190    1.01999998    2.84999990
   17.40166664   79.96050262    1.01999998    2.84999990
   17.40499878   87.97699738    1.01999998    2.84999990
   17.40805435   80.06109619    1.01999998    2.84999990
   17.41138840   84.71469879    1.00000000    2.84999990
   17.41444397   86.67649841    1.00000000    2.84999990
   17.41472244   85.99160004    1.00000000    2.84999990
   17.42111015   85.99160004    1.01999998    2.84999990
   17.42499924   89.83599854    1.00000000    2.82999992
   17.42833328   88.40360260    1.00000000    2.84999990
   17.43166542   82.78890228    1.01999998    2.84999990
   17.43472099   84.35269928    1.00000000    2.84999990
   17.43805504   81.49890137    1.00000000    2.84999990
   17.44138718   81.90730286    1.00000000    2.84999990
   17.44444275   82.13839722    1.01999998    2.84999990
   17.44777679   81.33390045    1.01999998    2.84999990
   17.44805527   80.14379883    1.01999998    2.84999990
   17.45138931   81.52290344    1.01999998    2.84999990
   17.45472336   83.92590332    1.01999998    2.84999990
   17.45777893   82.44450378    1.01999998    2.84999990
   17.46389008   82.44450378    1.01999998    2.82999992
   17.46805573   87.22489929    1.01999998    2.82999992
   17.47111130   92.73850250    1.03999996    2.84999990
   17.47444534   87.85679626    1.05999994    2.84999990
   17.47777748   84.58679962    1.03999996    2.84999990
   17.48083305   84.68450165    1.03999996    2.82999992
   17.48139000   83.29060364    1.03999996    2.84999990
   17.48472214   82.52259827    1.03999996    2.82999992
   17.48916626   86.85790253    1.03999996    2.84999990
   17.49222183   88.51830292    1.03999996    2.82999992
   17.49555588   83.83429718    1.03999996    2.82999992
   17.50138855   90.78910065    1.03999996    2.84999990
   17.50666618   90.78910065    1.03999996    2.82999992
   17.51083374   88.03980255    1.03999996    2.84999990
   17.51416588   78.15950012    1.03999996    2.84999990
   17.51722145   86.93910217    1.01999998    2.84999990
   17.51805496   81.03700256    1.01999998    2.84999990
   17.52111053   89.30349731    1.01999998    2.84999990
   17.52444458   83.27700043    1.01999998    2.82999992
   17.52777672   91.15429688    1.03999996    2.82999992
   17.53083229   83.46620178    1.03999996    2.82999992
   17.53416634   87.46040344    1.01999998    2.84999990
   17.53722191   88.56950378    1.01999998    2.82999992
   17.54055595   82.72730255    1.01999998    2.84999990
   17.54388809   83.89289856    1.01999998    2.82999992
   17.54972076   83.89289856    1.01999998    2.84999990
   17.55360985   83.20670319    1.03999996    2.84999990
   17.55694389   87.50340271    1.03999996    2.82999992
   17.56027794   84.16889954    1.03999996    2.82999992
   17.56333351   81.58580017    1.03999996    2.82999992
   17.56666756   84.03359985    1.03999996    2.82999992
   17.57000160   78.84439850    1.03999996    2.84999990
   17.57305717   82.25689697    1.03999996    2.84999990
   17.57638931   90.56340027    1.05999994    2.82999992
   17.57972336   88.29260254    1.07000005    2.84999990
   17.58277893   86.87349701    1.07000005    2.84999990
   17.58472252   89.49849701    1.07000005    2.84999990
   17.58638954   86.70379639    1.07000005    2.84999990
   17.59250069   86.70379639    1.05999994    2.82999992
   17.59638977   83.06289673    1.05999994    2.82999992
   17.59972191   87.80770111    1.05999994    2.84999990
   17.60305595   87.37079620    1.05999994    2.84999990
   17.60611153   87.06169891    1.09000003    2.82999992
   17.60944557   85.48370361    1.09000003    2.82999992
   17.61277771   80.57389832    1.09000003    2.82999992
   17.61583328   79.99210358    1.09000003    2.82999992
   17.61805534   93.67759705    1.11000001    2.84999990
   17.61944389   86.96420288    1.13000000    2.82999992
   17.62277794   84.12830353    1.13000000    2.82999992
   17.62611198   87.82309723    1.14999998    2.82999992
   17.62916756   86.85430145    1.16999996    2.82999992
   17.63527679   86.85430145    1.19000006    2.82999992
   17.63944435   88.94480133    1.21000004    2.82999992
   17.64249992   87.64489746    1.21000004    2.82999992
   17.64583397   86.32299805    1.21000004    2.82999992
   17.64916611   88.68640137    1.23000002    2.82999992
   17.65138817   92.62129974    1.25000000    2.80999994
   17.65277672   86.02359772    1.25000000    2.80999994
   17.65611076   88.15650177    1.26999998    2.82999992
   17.65916634   90.47299957    1.26999998    2.80999994
   17.66250038   82.06159973    1.26999998    2.82999992
   17.66555595   90.44509888    1.25000000    2.82999992
   17.66888809   86.76200104    1.25000000    2.82999992
   17.67222214   83.53160095    1.25000000    2.82999992
   17.67805481   83.53160095    1.23000002    2.82999992
   17.68222237   83.04219818    1.25000000    2.82999992
   17.68472099   86.59130096    1.23000002    2.82999992
   17.68583298   85.95790100    1.21000004    2.82999992
   17.68916512   86.37709808    1.21000004    2.82999992
   17.69222069   83.55560303    1.21000004    2.82999992
   17.69555473   84.67880249    1.23000002    2.82999992
   17.69861031   82.33950043    1.23000002    2.82999992
   17.70194435   82.88700104    1.23000002    2.82999992
   17.70527840   87.23699951    1.23000002    2.82999992
   17.70833397   84.35350037    1.23000002    2.82999992
   17.71166801   82.21209717    1.23000002    2.82999992
   17.71500015   89.09110260    1.23000002    2.82999992
   17.72083473   89.09110260    1.23000002    2.82999992
   17.72500038   82.97000122    1.25000000    2.82999992
   17.72833443   89.62609863    1.25000000    2.82999992
   17.73139000   82.44760132    1.26999998    2.82999992
   17.75111198   88.22750092    1.30999994    2.82999992
   17.75194359   83.32160187    1.28999996    2.82999992
   17.75499916   89.39659882    1.30999994    2.82999992
   17.75805473   82.57599640    1.28999996    2.82999992
   17.76388931   82.57599640    1.26999998    2.82999992
   17.76805496   80.61569977    1.26999998    2.82999992
   17.77138901   79.59359741    1.26999998    2.82999992
   17.77444458   86.07109833    1.25000000    2.82999992
   17.77777672   83.91580200    1.26999998    2.82999992
   17.78111076   83.41880035    1.26999998    2.82999992
   17.78416634   83.42070007    1.25000000    2.82999992
   17.78527641   85.40570068    1.25000000    2.82999992
   17.78777695   90.58619690    1.26999998    2.80999994
   17.79111099   83.79470062    1.25000000    2.82999992
   17.79416656   86.45800018    1.25000000    2.82999992
   17.79749870   84.18630219    1.25000000    2.82999992
   17.80083275   85.93630219    1.30999994    2.84999990
   17.80694389   85.93630219    1.28999996    2.82999992
   17.81083298   84.45790100    1.36000001    2.82999992
   17.81416512   83.70379639    1.41999996    2.80999994
   17.81750107   80.44580078    1.41999996    2.82999992
   17.81888962   85.91179657    1.41999996    2.82999992
   17.82111168   87.96810150    1.44000006    2.80999994
   17.82416725   83.45020294    1.44000006    2.82999992
   17.82750130   83.78540039    1.44000006    2.80999994
   17.83055687   81.36239624    1.41999996    2.80999994
   17.83388901   81.94699860    1.39999998    2.82999992
   17.83722305   82.23880005    1.39999998    2.82999992
   17.84055710   86.76080322    1.39999998    2.82999992
   17.84361267   86.10820007    1.41999996    2.80999994
   17.84972191   86.10820007    1.41999996    2.82999992
   17.85388947   86.99539948    1.41999996    2.82999992
   17.85694504   84.05490112    1.41999996    2.82999992
   17.86027908   83.07150269    1.48000002    2.80999994
   17.86361122   85.01959991    1.50000000    2.82999992
   17.86666679   89.18990326    1.50000000    2.82999992
   17.87000084   83.81539917    1.50000000    2.82999992
   17.87333298   88.28610229    1.51999998    2.82999992
   17.87638855   85.26609802    1.51999998    2.82999992
   17.87972260   82.54640198    1.53999996    2.82999992
   17.88277817   84.49169922    1.53999996    2.82999992
   17.88555527   84.40119934    1.53999996    2.82999992
   17.88666725   86.19840240    1.53999996    2.82999992
   17.89249992   86.19840240    1.55999994    2.82999992
   17.89666748   82.06320190    1.55999994    2.80999994
   17.89972115   86.44799805    1.58000004    2.82999992
   17.90305519   86.93560028    1.60000002    2.82999992
   17.90638924   87.61560059    1.60000002    2.82999992
   17.90944481   86.60359955    1.58000004    2.82999992
   17.91277695   86.73400116    1.58000004    2.82999992
   17.91611099   83.11710358    1.60000002    2.80999994
   17.91888809   90.19809723    1.60000002    2.80999994
   17.91972160   87.47080231    1.60000002    2.80999994
   17.92277718   82.99189758    1.58000004    2.80999994
   17.92611122   88.85859680    1.58000004    2.80999994
   17.92944336   82.01950073    1.60000002    2.82999992
   17.93527603   82.01950073    1.58000004    2.82999992
   17.93944359   84.37580109    1.61000001    2.80999994
   17.94277763   86.27809906    1.61000001    2.82999992
   17.94583321   82.39479828    1.60000002    2.80999994
   17.94916534   85.26699829    1.60000002    2.82999992
   17.95222282   88.94239807    1.61000001    2.80999994
   17.95277786   85.81620026    1.61000001    2.80999994
   17.95583344   86.14340210    1.61000001    2.82999992
   17.95916748   87.44580078    1.61000001    2.82999992
   17.96222305   86.81400299    1.60000002    2.80999994
   17.96555710   84.62400055    1.60000002    2.80999994
   17.96888924   82.84059906    1.60000002    2.80999994
   17.97194481   83.97799683    1.61000001    2.80999994
   17.97833443   83.97799683    1.71000004    2.80999994
   17.98250008   81.67829895    1.71000004    2.80999994
   17.98555565   83.01010132    1.71000004    2.80999994
   17.98611069   84.91960144    1.71000004    2.82999992
   17.98916626   84.57140350    1.69000006    2.82999992
   17.99250031   83.59870148    1.69000006    2.82999992
   17.99583435   81.85829926    1.69000006    2.82999992
   17.99888992   84.27940369    1.64999998    2.80999994
   18.00222206   91.68370056    1.66999996    2.82999992
   18.00527763   81.76989746    1.66999996    2.80999994
   18.00861168   83.41280365    1.66999996    2.80999994
   18.01194382   87.57520294    1.66999996    2.80999994
   18.01499939   88.17030334    1.66999996    2.80999994
   18.02111053   88.17030334    1.69000006    2.80999994
   18.02527809   81.05229950    1.69000006    2.82999992
   18.02833366   86.05079651    1.69000006    2.80999994
   18.03166580   81.93430328    1.69000006    2.80999994
   18.03472137   81.89739990    1.71000004    2.80999994
   18.03805542   82.39929962    1.71000004    2.80999994
   18.04138756   81.43270111    1.73000002    2.82999992
   18.04444313   79.05590057    1.73000002    2.82999992
   18.04777718   79.53849792    1.75000000    2.80999994
   18.05111122   83.89450073    1.85000002    2.80999994
   18.05222130   81.64679718    1.85000002    2.80999994
   18.05472183   80.18620300    1.85000002    2.80999994
   18.05777740   80.81510162    1.85000002    2.80999994
   18.06388855   80.81510162    1.83000004    2.80999994
   18.06805611   82.66690063    1.78999996    2.80999994
   18.07111168   81.95369720    1.78999996    2.80999994
   18.07444572   83.33180237    1.80999994    2.80999994
   18.07777786   81.70549774    1.80999994    2.80999994
   18.08083344   84.48870087    1.83000004    2.82999992
   18.08416748   80.20500183    1.80999994    2.80999994
   18.08555603   81.10959625    1.80999994    2.80999994
   18.08805656   83.17780304    1.80999994    2.80999994
   18.09111214   84.65650177    1.83000004    2.80999994
   18.09444427   81.56649780    1.85000002    2.80999994
   18.09777832   89.84970093    1.85000002    2.80999994
   18.10083389   82.28260040    1.88000000    2.80999994
   18.10666656   82.28260040    1.85000002    2.82999992
   18.11083412   83.43540192    1.86000001    2.80999994
   18.11416626   83.37830353    1.83000004    2.80999994
   18.11722183   86.77480316    1.73000002    2.80999994
   18.11916733   85.52670288    1.73000002    2.80999994
   18.12111092   80.86019897    1.73000002    2.80999994
   18.12416649   79.60389709    1.73000002    2.80999994
   18.12750053   78.81159973    1.73000002    2.80999994
   18.13083267   82.80780029    1.66999996    2.82999992
   18.13388824   82.38549805    1.63000000    2.80999994
   18.13722229   85.06729889    1.63000000    2.82999992
   18.14027786   86.24859619    1.60000002    2.80999994
   18.14361191   85.44570160    1.61000001    2.82999992
   18.14972115   85.44570160    1.61000001    2.80999994
   18.15361023   83.18299866    1.64999998    2.80999994
   18.15694427   89.44259644    1.64999998    2.80999994
   18.16027832   85.66059875    1.66999996    2.80999994
   18.16333389   84.03309631    1.69000006    2.80999994
   18.16666603   78.23770142    1.71000004    2.80999994
   18.17000008   90.11579895    1.73000002    2.82999992
   18.17305565   83.51429749    1.73000002    2.82999992
   18.17638779   89.77449799    1.76999998    2.82999992
   18.17972183   84.94670105    1.71000004    2.82999992
   18.18277740   91.39710236    1.69000006    2.80999994
   18.18583298   94.38780212    1.69000006    2.82999992
   18.18666649   84.47889709    1.69000006    2.82999992
   18.19249916   84.47889709    1.69000006    2.80999994
   18.19666672   87.26740265    1.71000004    2.82999992
   18.19972038   89.03649902    1.71000004    2.80999994
   18.20305634   87.36100006    1.73000002    2.80999994
   18.20611191   88.24250031    1.73000002    2.82999992
   18.20944595   78.80020142    1.73000002    2.82999992
   18.21277809   89.47679901    1.73000002    2.80999994
   18.21611214   78.84899902    1.75000000    2.82999992
   18.21916771   85.50469971    1.75000000    2.82999992
   18.21972275   84.96440125    1.80999994    2.80999994
   18.22277832   94.58719635    1.80999994    2.80999994
   18.22611237   81.92250061    1.85000002    2.80999994
   18.22944450   84.94419861    1.86000001    2.80999994
   18.23527718   84.94419861    1.88000000    2.80999994
   18.23944473   94.30130005    1.86000001    2.80999994
   18.24250031   83.97350311    1.86000001    2.80999994
   18.24583435   91.49089813    1.86000001    2.80999994
   18.24916649   88.98439789    1.86000001    2.80999994
   18.25222206   93.77580261    1.94000006    2.80999994
   18.25277710   84.09439850    1.94000006    2.80999994
   18.25611115   90.42569733    1.94000006    2.80999994
   18.25944519   81.65239716    1.96000004    2.80999994
   18.26250076   82.24639893    2.26999998    2.80999994
   18.26583290   86.29840088    2.13000011    2.80999994
   18.26888847   88.88480377    2.01999998    2.80999994
   18.27222252   84.61039734    2.03999996    2.82999992
   18.27805519   84.61039734    2.09999990    2.82999992
   18.28222275   83.32350159    2.11999989    2.80999994
   18.28555489   80.46659851    2.09999990    2.80999994
   18.28610992   86.48490143    2.09999990    2.80999994
   18.28916550   84.52420044    2.09999990    2.80999994
   18.29249954   81.54029846    2.07999992    2.80999994
   18.29555511   85.10530090    2.07999992    2.80999994
   18.29888916   87.88130188    2.07999992    2.80999994
   18.30194283   87.18190002    2.05999994    2.80999994
   18.30527687   85.74259949    2.05999994    2.80999994
   18.30861092   86.93710327    2.07999992    2.80999994
   18.31166649   86.48079681    2.09999990    2.80999994
   18.31499863   89.52310181    2.11999989    2.80999994
   18.32083511   89.52310181    2.07999992    2.80999994
   18.32500076   91.08390045    2.05999994    2.80999994
   18.32833481   91.61799622    2.05999994    2.80999994
   18.33166695   84.66539764    2.03999996    2.80999994
   18.33472252   87.27089691    2.03999996    2.80999994
   18.33805656   93.37640381    2.05999994    2.80999994
   18.34138870   94.86360168    2.05999994    2.80999994
   18.34444427   89.44960022    2.05999994    2.80999994
   18.34777832   87.52860260    2.05999994    2.80999994
   18.35111237   90.17269897    2.07999992    2.80999994
   18.35277748   92.56269836    2.07999992    2.80999994
   18.35472298   93.68090057    2.07999992    2.80999994
   18.35805511   86.62100220    2.07999992    2.80999994
   18.36388969   86.62100220    2.09999990    2.80999994
   18.36805534   87.39700317    2.09999990    2.80999994
   18.37111092   89.88739777    2.09999990    2.80999994
   18.37444496   83.51540375    2.11999989    2.80999994
   18.37750053   86.54779816    2.11999989    2.80999994
   18.38083267   88.08480072    2.13000011    2.80999994
   18.38416672   81.02690125    2.17000008    2.80999994
   18.38611031   84.61509705    2.17000008    2.80999994
   18.38777733   84.02660370    2.17000008    2.80999994
   18.39111137   79.91880035    2.19000006    2.80999994
   18.39416695   83.46869659    2.21000004    2.80999994
   18.39749908   85.84359741    2.21000004    2.80999994
   18.40055466   85.67949677    2.21000004    2.78999996
   18.40666580   85.67949677    2.21000004    2.78999996
   18.41083336   92.42630005    2.19000006    2.80999994
   18.41388893   86.91159821    2.21000004    2.80999994
   18.41722107   94.83329773    2.21000004    2.80999994
   18.41944313   84.88140106    2.23000002    2.80999994
   18.42083359   84.71309662    2.23000002    2.78999996
   18.42416573   85.75779724    2.25000000    2.80999994
   18.42722130   87.68949890    2.28999996    2.80999994
   18.43055534   85.86799622    2.32999992    2.78999996
   18.43361092   86.40660095    2.34999990    2.80999994
   18.43694305   90.27089691    2.36999989    2.80999994
   18.44027710   83.07409668    2.36999989    2.80999994
   18.44333267   86.94020081    2.39000010    2.78999996
   18.44944382   86.94020081    2.46000004    2.76999998
   18.45361137   91.06759644    2.48000002    2.78999996
   18.45694542   82.85260010    2.50000000    2.78999996
   18.46000099   86.26820374    2.50000000    2.78999996
   18.46333504   83.83370209    2.55999994    2.78999996
   18.46666718   83.19719696    2.59999990    2.78999996
   18.46972275   84.17620087    2.61999989    2.78999996
   18.47305679   83.34919739    2.69000006    2.78999996
   18.47611237   87.90750122    2.73000002    2.78999996
   18.47944450   85.85459900    2.76999998    2.78999996
   18.48277855   84.63369751    2.76999998    2.78999996
   18.48583412   85.42910004    2.75000000    2.78999996
   18.48638916   86.68949890    2.76999998    2.78999996
   18.49222183   86.68949890    2.80999994    2.76999998
   18.49638939   86.54540253    2.80999994    2.78999996
   18.49972153   86.31950378    2.75000000    2.78999996
   18.50305557   87.82009888    2.67000008    2.78999996
   18.50611115   87.49590302    2.57999992    2.78999996
   18.50944519   85.91770172    2.51999998    2.78999996
   18.51250076   88.56520081    2.50000000    2.78999996
   18.51583290   93.13220215    2.51999998    2.78999996
   18.51916695   90.10099792    2.51999998    2.78999996
   18.51972198   87.98449707    2.51999998    2.78999996
   18.52277756   87.30059814    2.50000000    2.76999998
   18.52611160   89.30000305    2.46000004    2.78999996
   18.52916718   87.43609619    2.44000006    2.78999996
   18.53527641   87.43609619    2.48000002    2.78999996
   18.53944397   84.34169769    2.50000000    2.78999996
   18.54249954   87.21099854    2.51999998    2.78999996
   18.54583359   86.26249695    2.48000002    2.78999996
   18.54888916   84.42900085    2.46000004    2.78999996
   18.55222130   84.67299652    2.42000008    2.78999996
   18.55305481   83.88860321    2.40000010    2.78999996
   18.55583191   85.18129730    2.36999989    2.78999996
   18.55916595   92.18440247    2.36999989    2.78999996
   18.56222153   81.63899994    2.40000010    2.78999996
   18.56555557   86.13860321    2.42000008    2.78999996
   18.56861115   83.79250336    2.44000006    2.78999996
   18.57194519   85.24179840    2.46000004    2.78999996
   18.57805634   85.24179840    2.42000008    2.76999998
   18.58222389   83.79399872    2.40000010    2.78999996
   18.58527756   81.26499939    2.39000010    2.80999994
   18.58638954   85.74579620    2.40000010    2.78999996
   18.58916664   81.39289856    2.42000008    2.80999994
   18.59250069   82.27359772    2.40000010    2.78999996
   18.59583473   81.71829987    2.40000010    2.78999996
   18.59916687   86.84359741    2.44000006    2.78999996
   18.61166763   85.11430359    0.00000000    0.00000000
   18.61499977   89.31230164    2.50000000    2.78999996
   18.62111092   89.31230164    2.53999996    2.78999996
   18.62527847   84.58930206    2.51999998    2.78999996
   18.62750053   85.07240295    2.53999996    2.80999994
   18.63833237   88.24099731    0.00000000    0.00000000
   18.64166641   84.08589935    2.61999989    2.78999996
   18.64500046   89.58689880    2.64000010    2.78999996
   18.64805603   87.61260223    2.66000009    2.78999996
   18.65138817   88.15190125    2.64000010    2.78999996
   18.66388893   89.13439941    0.00000000    0.00000000
   18.66444397   89.85260010    2.59999990    2.80999994
   18.66722107   88.12689972    2.55999994    2.78999996
   18.67333221   88.12689972    2.50000000    2.78999996
   18.67833328   87.23770142    2.48000002    2.78999996
   18.68138885   86.46219635    2.46000004    2.78999996
   18.68472099   86.02269745    2.46000004    2.78999996
   18.68777657   95.77890015    2.46000004    2.78999996
   18.69111061   87.27269745    2.48000002    2.78999996
   18.69444275   86.78579712    2.50000000    2.78999996
   18.69749832   91.92150116    2.51999998    2.78999996
   18.69805527   86.03759766    2.51999998    2.76999998
   18.70138931   96.67890167    2.55999994    2.78999996
   18.70472336   82.23410034    2.57999992    2.78999996
   18.70777893   87.74680328    2.59999990    2.78999996
   18.71111107   84.29979706    2.59999990    2.78999996
   18.71611214   84.29979706    2.57999992    2.78999996
   18.72027779   88.88980103    2.55999994    2.78999996
   18.72333336   90.75820160    2.53999996    2.78999996
   18.72666740   87.11479950    2.53999996    2.78999996
   18.73000145   86.90799713    2.55999994    2.78999996
   18.73139000   88.04360199    2.57999992    2.78999996
   18.73361206   86.40129852    2.59999990    2.78999996
   18.73694420   85.84919739    2.59999990    2.78999996
   18.73999977   85.27590179    2.59999990    2.78999996
   18.74333382   85.75440216    2.59999990    2.78999996
   18.74638939   90.06099701    2.57999992    2.78999996
   18.74972153   86.08480072    2.53999996    2.78999996
   18.75305557   90.88770294    2.50000000    2.80999994
   18.75888824   90.88770294    2.46000004    2.78999996
   18.76305580   96.55470276    2.44000006    2.78999996
   18.76499939   89.96410370    2.44000006    2.78999996
   18.76666641   96.58439636    2.42000008    2.78999996
   18.77000046   90.34549713    2.40000010    2.78999996
   18.78944397   86.13649750    2.40000010    2.78999996
   18.79277802   89.01670074    2.40000010    2.78999996
   18.79611015   85.61959839    2.50000000    2.78999996
   18.79833221   87.43009949    2.48000002    2.76999998
   18.80249977   87.43009949    2.50000000    2.78999996
   18.80666542   88.59929657    2.48000002    2.78999996
   18.80999947   87.51210022    2.61999989    2.76999998
   18.81305504   93.60250092    2.53999996    2.78999996
   18.81638718   88.88590240    2.50000000    2.78999996
   18.81972313   85.07630157    2.48000002    2.78999996
   18.82277870   91.58529663    2.46000004    2.78999996
   18.82611275   86.89859772    2.42000008    2.78999996
   18.82944489   93.96559906    2.40000010    2.78999996
   18.83166695   86.58640289    2.36999989    2.78999996
   18.83305550   87.65219879    2.36999989    2.76999998
   18.83638954   88.60649872    2.39000010    2.78999996
   18.83944511   92.30609894    2.39000010    2.76999998
   18.84555626   92.30609894    2.34999990    2.76999998
   18.84944534   84.17769623    2.32999992    2.78999996
   18.85277748   86.24790192    2.32999992    2.78999996
   18.85611153   81.71620178    2.32999992    2.78999996
   18.85916710   81.45339966    2.28999996    2.78999996
   18.86250114   91.25289917    2.26999998    2.76999998
   18.86499977   85.33149719    2.28999996    2.76999998
   18.86611176   89.21050262    2.26999998    2.78999996
   18.86944389   83.66639709    2.28999996    2.76999998
   18.87249947   90.44300079    2.28999996    2.78999996
   18.87583351   85.68250275    2.30999994    2.76999998
   18.87916756   86.87259674    2.32999992    2.76999998
   18.88222313   88.84079742    2.32999992    2.76999998
   18.88833237   88.84079742    2.30999994    2.76999998
   18.89249992   86.65049744    2.32999992    2.76999998
   18.89555550   85.55570221    2.34999990    2.78999996
   18.89833260   89.43099976    2.36999989    2.78999996
   18.89916611   84.11129761    2.39000010    2.78999996
   18.90250015   85.47810364    2.34999990    2.78999996
   18.90555573   85.15489960    2.36999989    2.76999998
   18.90888786   86.45520020    2.36999989    2.76999998
   18.91222191   90.86270142    2.36999989    2.76999998
   18.91527748   87.89089966    2.36999989    2.76999998
   18.91860962   88.65390015    2.40000010    2.76999998
   18.92166519   89.52369690    2.40000010    2.76999998
   18.92499924   91.38110352    2.40000010    2.76999998
   18.93111038   91.38110352    2.36999989    2.78999996
   18.93527603   92.10169983    2.34999990    2.76999998
   18.93861008   87.57669830    2.36999989    2.78999996
   18.94166565   89.10659790    2.40000010    2.76999998
   18.94499969   84.56919861    2.46000004    2.76999998
   18.94805527   88.14199829    2.48000002    2.76999998
   18.95138931   91.53029633    2.44000006    2.76999998
   18.95472336   88.09899902    2.40000010    2.76999998
   18.95777893   88.90409851    2.36999989    2.76999998
   18.96111107   88.97959900    2.36999989    2.76999998
   18.96444511   86.74949646    2.34999990    2.78999996
   18.96611214   86.39710236    2.34999990    2.76999998
   18.96805573   89.20809937    2.36999989    2.76999998
   18.97389030   89.20809937    2.40000010    2.76999998
   18.97805595   86.93959808    2.34999990    2.76999998
   18.98139000   92.36849976    2.34999990    2.76999998
   18.98444557   85.39920044    2.30999994    2.76999998
   18.98777771   85.10579681    2.32999992    2.76999998
   18.99111176   84.89640045    2.36999989    2.76999998
   18.99416733   84.31449890    2.32999992    2.76999998
   18.99749947   85.32250214    2.28999996    2.76999998
   18.99944496   90.25669861    2.26999998    2.76999998
   19.00111198   82.76599884    2.26999998    2.76999998
   19.00444412   87.35430145    2.28999996    2.76999998
   19.00749969   89.04010010    2.30999994    2.78999996
   19.01083374   91.40290070    2.30999994    2.76999998
   19.01694489   91.40290070    2.34999990    2.76999998
   19.02083397   89.97059631    2.36999989    2.76999998
   19.02416611   88.93630219    2.39000010    2.76999998
   19.02750015   89.84349823    2.40000010    2.76999998
   19.03055573   93.37619781    2.36999989    2.76999998
   19.03305435   87.15100098    2.36999989    2.76999998
   19.03444481   90.42050171    2.39000010    2.76999998
   19.04611015   88.78669739    0.00000000    0.00000000
   19.04916573   92.27210236    2.46000004    2.75000000
   19.05249977   88.63780212    2.46000004    2.75000000
   19.05583191   89.48390198    2.48000002    2.76999998
   19.05999947   89.48390198    2.48000002    2.76999998
   19.07277870   88.68049622    0.00000000    0.00000000
   19.07333374   85.22579956    2.51999998    2.75000000
   19.07611275   89.56990051    2.53999996    2.76999998
   19.07944489   92.19789886    2.55999994    2.78999996
   19.08277893   84.72560120    2.57999992    2.76999998
   19.08583450   87.73870087    2.64000010    2.75000000
   19.08916664   81.70459747    2.71000004    2.75000000
   19.09250069   84.43219757    2.69000006    2.75000000
   19.09555626   83.68569946    2.67000008    2.76999998
   19.09889030   86.49189758    2.66000009    2.76999998
   19.10305595   86.49189758    2.55999994    2.75000000
   19.11611176   86.05519867    0.00000000    0.00000000
   19.11944389   86.69799805    2.66000009    2.75000000
   19.12277794   86.88670349    2.67000008    2.75000000
   19.12611198   89.70749664    2.71000004    2.75000000
   19.12916756   88.33779907    2.73000002    2.75000000
   19.13249969   86.62480164    2.76999998    2.75000000
   19.13583374   88.88929749    2.80999994    2.75000000
   19.13916588   91.30729675    2.82999992    2.75000000
   19.13999939   84.50090027    2.82999992    2.73000002
   19.15499878   84.50090027    2.84999990    2.75000000
   19.15916634   91.73950195    2.84999990    2.73000002
   19.16250038   86.69689941    2.82999992    2.75000000
   19.16555595   87.43520355    2.84999990    2.75000000
   19.16888809   84.43229675    2.89000010    2.75000000
   19.17222214   83.95770264    2.91000009    2.75000000
   19.17333221   88.26789856    2.93000007    2.75000000
   19.17555428   86.08010101    2.94000006    2.73000002
   19.17888832   85.93289948    2.94000006    2.75000000
   19.18222237   86.11489868    2.96000004    2.73000002
   19.18861008   86.11489868    3.00000000    2.75000000
   19.19277763   84.60079956    3.01999998    2.75000000
   19.19610977   84.86900330    3.00000000    2.73000002
   19.19916534   90.93260193    3.01999998    2.73000002
   19.20250130   87.82140350    3.03999996    2.73000002
   19.20583344   91.00009918    3.05999994    2.73000002
   19.20666695   91.14189911    3.05999994    2.73000002
   19.20944595   88.27899933    3.05999994    2.73000002
   19.21361160   92.32289886    3.07999992    2.73000002
   19.21694565   88.39450073    3.11999989    2.73000002
   19.22027779   90.29519653    3.11999989    2.75000000
   19.22333336   90.04039764    3.09999990    2.73000002
   19.22666740   92.18000031    3.09999990    2.75000000
   19.23139000   92.18000031    3.11999989    2.73000002
   19.24500084   90.58660126    0.00000000    0.00000000
   19.24555588   87.36990356    3.18000007    2.73000002
   19.24833298   89.52149963    3.20000005    2.73000002
   19.25166702   91.36019897    3.20000005    2.73000002
   19.25499916   87.64910126    3.23000002    2.73000002
   19.25805473   87.95729828    3.25000000    2.73000002
   19.26138878  119.99099731    3.25000000    2.75000000
   19.26472282   87.01770020    3.25000000    2.75000000
   19.26777840   88.23429871    3.21000004    2.73000002
   19.27444458   88.23429871    3.20000005    2.73000002
   19.27861023   86.85430145    3.20000005    2.73000002
   19.27916718   90.90679932    3.20000005    2.73000002
   19.28222275   89.75749969    3.21000004    2.73000002
   19.29388809   89.31639862    0.00000000    0.00000000
   19.29722214   88.24810028    3.21000004    2.73000002
   19.30055428   88.26049805    3.21000004    2.73000002
   19.30360985   94.91190338    3.21000004    2.73000002
   19.30694389   90.66230011    3.21000004    2.73000002
   19.31944466   92.01519775    0.00000000    0.00000000
   19.32000160   89.71099854    3.28999996    2.73000002
   19.32277870   88.74369812    3.28999996    2.73000002
   19.32888985   88.74369812    3.32999992    2.73000002
   19.33388901   91.35749817    3.36999989    2.73000002
   19.33694458   85.79399872    3.41000009    2.73000002
   19.34055710   86.50309753    3.41000009    2.71000004
   19.34388924   84.86289978    3.43000007    2.73000002
   19.34694481   88.11280060    3.45000005    2.71000004
   19.35027885   86.09030151    3.45000005    2.71000004
   19.35333443   83.46659851    3.46000004    2.73000002
   19.35361099   83.56099701    3.48000002    2.73000002
   19.35694504   89.57129669    3.50000000    2.73000002
   19.36027908   85.40409851    3.51999998    2.71000004
   19.36333466   85.63169861    3.51999998    2.73000002
   19.36666679   85.59079742    3.53999996    2.73000002
   19.37166595   85.59079742    3.53999996    2.71000004
   19.37583351   86.72599792    3.53999996    2.71000004
   19.37888908   82.76300049    3.51999998    2.71000004
   19.38222313   90.67440033    3.50000000    2.71000004
   19.38555527   92.81770325    3.48000002    2.71000004
   19.38666725   89.34220123    3.46000004    2.71000004
   19.38916588   86.88690186    3.48000002    2.71000004
   19.39222145   88.69519806    3.51999998    2.71000004
   19.39555550   95.78150177    3.55999994    2.71000004
   19.39888954   90.73629761    3.57999992    2.71000004
   19.40194321   87.58149719    3.61999989    2.71000004
   19.40527725   85.50920105    3.64000010    2.71000004
   19.40833282   90.28209686    3.70000005    2.71000004
   19.41444397   90.28209686    4.17999983    2.71000004
   19.41860962   84.47450256    4.53999996    2.71000004
   19.42000008   84.52559662    4.65999985    2.69000006
   19.42222214   86.80549622    4.80999994    2.69000006
   19.42527771   84.89479828    4.80000019    2.69000006
   19.42860985   86.52239990    4.80999994    2.69000006
   19.43194389   86.51959991    4.80000019    2.71000004
   19.44388771   84.48339844    0.00000000    0.00000000
   19.44694328   90.84339905    4.00000000    2.73000002
   19.45027924   85.25499725    4.00000000    2.71000004
   19.45361137   87.41200256    4.11999989    2.71000004
   19.45777893   87.41200256    4.28999996    2.71000004
   19.47055626   90.96690369    0.00000000    0.00000000
   19.47361183   92.94280243    4.90999985    2.71000004
   19.47694588   89.23809814    4.90999985    2.71000004
   19.48027802   88.87979889    4.90999985    2.69000006
   19.48333359   88.11750031    4.90999985    2.69000006
   19.48666763   85.91040039    4.90999985    2.69000006
   19.48999977   88.68689728    4.90999985    2.69000006
   19.49277878   94.54470062    4.90999985    2.69000006
   19.49361229   90.38929749    4.90999985    2.69000006
   19.50055504   90.38929749    4.90999985    2.69000006
   19.50472260   84.34390259    4.90999985    2.69000006
   19.50777817   86.10980225    4.90999985    2.71000004
   19.51111031   87.26950073    4.88999987    2.71000004
   19.51444435   83.79789734    4.90999985    2.71000004
   19.51749992   86.86380005    4.86999989    2.71000004
   19.52111053   88.35620117    4.90999985    2.71000004
   19.52444458   85.58979797    4.90999985    2.71000004
   19.52638817   86.05449677    4.90999985    2.69000006
   19.52805519   83.85420227    4.88999987    2.69000006
   19.54055595  106.83599854    0.00000000    0.00000000
   19.54361153   87.43099976    4.82999992    2.71000004
   19.54999924   87.43099976    4.84999990    2.69000006
   19.55416679   85.44439697    4.80999994    2.71000004
   19.55722237   87.04609680    4.86999989    2.71000004
   19.55972099   87.69380188    4.88999987    2.71000004
   19.56083298   86.62010193    4.90999985    2.71000004
   19.56416512   89.38069916    4.88999987    2.69000006
   19.56888962   86.96320343    4.78000021    2.71000004
   19.57222366   89.65110016    4.71999979    2.69000006
   19.57527924   89.41059875    4.67999983    2.71000004
   19.57861137   88.50620270    4.71999979    2.71000004
   19.58166695   87.12719727    4.67999983    2.71000004
   19.58500099   84.16220093    4.63999987    2.71000004
   19.58833313   86.25399780    4.53000021    2.71000004
   19.59277916   86.25399780    4.38999987    2.71000004
   19.59694481   89.31729889    4.32999992    2.71000004
   19.60000038   91.20120239    4.28999996    2.71000004
   19.60333443   89.63099670    4.17999983    2.71000004
   19.60666656   84.00910187    4.03999996    2.71000004
   19.60972214   84.75009918    3.91000009    2.71000004
   19.61305618   87.15160370    3.89000010    2.71000004
   19.61638832   91.91429901    3.93000007    2.73000002
   19.61944389   87.59449768    3.97000003    2.71000004
   19.62333298   86.99140167    3.89000010    2.71000004
   19.62666702   84.14779663    3.84999990    2.73000002
   19.62777710   88.95369720    3.82999992    2.71000004
   19.63027763   81.97039795    3.76999998    2.71000004
   19.63611031   81.97039795    3.72000003    2.73000002
   19.64027786   94.91880035    3.68000007    2.71000004
   19.64361191   85.42510223    3.61999989    2.71000004
   19.64666748   92.64109802    3.64000010    2.73000002
   19.64999962   88.88719940    3.55999994    2.73000002
   19.65333366   89.66339874    3.51999998    2.71000004
   19.65694427   85.38130188    3.51999998    2.71000004
   19.66027832   89.27359772    3.59999990    2.71000004
   19.66110992   89.18109894    3.66000009    2.71000004
   19.66388893   88.43340302    3.70000005    2.71000004
   19.66694450   90.53949738    3.76999998    2.71000004
   19.67027664   87.43219757    3.82999992    2.71000004
   19.67361069   86.90599823    3.95000005    2.71000004
   19.67833328   86.90599823    4.00000000    2.71000004
   19.68249893   86.08239746    4.05999994    2.71000004
   19.68583298   78.20330048    4.07999992    2.71000004
   19.68916512   88.04270172    4.09999990    2.71000004
   19.69222069   86.57810211    4.13999987    2.71000004
   19.69472122   86.09729767    4.15999985    2.71000004
   19.69610977   89.42030334    4.19999981    2.71000004
   19.69916534   91.37370300    4.19999981    2.71000004
   19.70333481   87.90850067    4.26000023    2.69000006
   19.70666695   86.15709686    4.30999994    2.69000006
   19.70972252   91.58219910    4.26000023    2.71000004
   19.71305656   90.16799927    4.05999994    2.71000004
   19.71638870   89.71199799    3.93000007    2.71000004
   19.72138977   89.71199799    3.80999994    2.71000004
   19.72555542   90.17130280    3.76999998    2.71000004
   19.72805595   88.16429901    3.76999998    2.71000004
   19.72916794   88.40740204    3.76999998    2.71000004
   19.73222351   88.45970154    3.82999992    2.71000004
   19.74500084   87.09300232    0.00000000    0.00000000
   19.74805641   85.09069824    3.89000010    2.71000004
   19.75138855   87.10890198    3.89000010    2.71000004
   19.75472260   87.21109772    3.82999992    2.71000004
   19.75777817   88.54869843    3.76999998    2.71000004
   19.76499939   88.31849670    3.59999990    2.71000004
   19.76555634   89.38420105    3.59999990    2.71000004
   19.76888847   93.87760162    3.59999990    2.71000004
   19.77444458   93.87760162    3.55999994    2.71000004
   19.77861023   89.22399902    3.50000000    2.71000004
   19.78166580   91.83270264    3.51999998    2.71000004
   19.78499985   89.96849823    3.51999998    2.69000006
   19.78944397   90.88059998    3.50000000    2.69000006
   19.79277802   90.84649658    3.55999994    2.71000004
   19.79583359   90.79149628    3.53999996    2.71000004
   19.79888916   91.17299652    3.53999996    2.69000006
   19.79972076   91.33670044    3.53999996    2.69000006
   19.80277634   90.54579926    3.59999990    2.71000004
   19.80611038   93.95749664    3.72000003    2.71000004
   19.80972099   85.70899963    3.68000007    2.69000006
   19.81305504   88.07610321    3.68000007    2.69000006
   19.82611275   88.07610321    3.53999996    2.69000006
   19.84444427   85.00949860    3.86999989    2.69000006
   19.84777832   83.39399719    3.91000009    2.69000006
   19.85111237   86.66300201    3.93000007    2.71000004
   19.85416794   86.95510101    3.86999989    2.69000006
   19.86944389   86.95510101    3.76999998    2.71000004
   19.87361145   85.88760376    3.80999994    2.69000006
   19.87694550   93.02349854    3.89000010    2.69000006
   19.88000107   85.85970306    3.93000007    2.69000006
   19.88333321   91.29750061    3.99000001    2.69000006
   19.88527679   86.46029663    3.97000003    2.69000006
   19.88694382   90.13610077    3.99000001    2.69000006
   19.89027786   90.90000153    4.07999992    2.69000006
   19.89361191   88.65789795    4.28999996    2.69000006
   19.89666748   89.44259644    4.59999990    2.69000006
   19.90305519   89.44259644    4.40999985    2.69000006
   19.90722275   95.68240356    4.36999989    2.69000006
   19.91027832   87.44999695    4.40999985    2.69000006
   19.91361046   88.32369995    4.44999981    2.67000008
   19.91666603   92.96569824    4.48999977    2.69000006
   19.91860962   87.74500275    4.48999977    2.69000006
   19.92055511   86.24680328    4.53000021    2.69000006
   19.92361069   89.08129883    4.53000021    2.67000008
   19.92694473   86.26699829    4.48999977    2.69000006
   19.93027687   91.91100311    4.44999981    2.67000008
   19.93333244   87.73709869    4.26000023    2.69000006
   19.93666649   85.58860016    4.28999996    2.67000008
   19.93972206   90.81240082    4.19999981    2.69000006
   19.94583321   90.81240082    4.13999987    2.67000008
   19.95000076   95.05729675    4.17999983    2.69000006
   19.95194435   90.60810089    4.19999981    2.69000006
   19.95361137   93.15859985    4.21999979    2.69000006
   19.95666695   97.62409973    4.21999979    2.69000006
   19.96027946   92.90640259    4.26999998    2.67000008
   19.96333504   95.03089905    4.26000023    2.69000006
   19.96666718   87.64289856    4.26000023    2.67000008
   19.97000122   91.57089996    4.30999994    2.67000008
   19.97305679   88.30639648    4.26000023    2.67000008
   19.97666740   86.52529907    4.21999979    2.69000006
   19.98000145   89.04450226    4.19999981    2.67000008
   19.98305511   93.92089844    4.23999977    2.69000006
   19.98861122   93.92089844    4.26000023    2.69000006
   19.99277878   89.85669708    4.32999992    2.67000008
   19.99611092   88.02459717    4.34999990    2.67000008
   19.99916649   92.38639832    4.30999994    2.67000008
   20.00250053   92.90840149    4.28999996    2.67000008
   20.00583267   94.58010101    4.19999981    2.67000008
   20.00888824   98.89179993    4.05999994    2.67000008
   20.01222229   91.24130249    4.00000000    2.67000008
   20.01555634   96.00980377    3.97000003    2.67000008
   20.01888847   93.41079712    3.95000005    2.67000008
   20.01944351   91.57240295    3.93000007    2.67000008
   20.02249908   92.57559967    3.97000003    2.67000008
   20.02583313   92.28109741    3.95000005    2.67000008
   20.03194427   92.28109741    4.07999992    2.67000008
   20.03583336   97.65920258    4.19999981    2.67000008
   20.03999901   94.62329865    4.38999987    2.67000008
   20.04333305   97.54620361    4.38999987    2.67000008
   20.04638863   94.50700378    4.57999992    2.66000009
   20.04972076   91.77780151    4.73999977    2.66000009
   20.05277634   95.20529938    4.86999989    2.67000008
   20.05333328   88.31559753    4.71999979    2.67000008
   20.05666542   92.59909821    4.65999985    2.67000008
   20.05999947   93.98930359    4.51000023    2.67000008
   20.06305504   90.53330231    4.44999981    2.67000008
   20.06638718   87.73139954    4.59999990    2.67000008
   20.06944466   94.06109619    4.48999977    2.66000009
   20.08277893   94.06109619    4.30999994    2.67000008
   20.08694458   89.77619934    4.34999990    2.66000009
   20.09027863   91.36029816    4.32999992    2.67000008
   20.09333420   92.87390137    4.34999990    2.67000008
   20.09666824   91.10220337    4.36999989    2.66000009
   20.10000038   90.18979645    4.28999996    2.67000008
   20.10305595   86.91819763    4.30999994    2.67000008
   20.10639000   88.86340332    4.38999987    2.66000009
   20.10944557   87.27259827    4.38999987    2.66000009
   20.11277771   88.67009735    4.38999987    2.67000008
   20.11777878   88.67009735    4.30999994    2.66000009
   20.12194443   90.17150116    4.26999998    2.66000009
   20.12500000   92.91979980    4.28999996    2.66000009
   20.12833405   89.20099640    4.26999998    2.66000009
   20.13138962   91.02709961    4.32999992    2.66000009
   20.13472176   92.70619965    4.40999985    2.66000009
   20.13805580   87.54470062    4.44999981    2.67000008
   20.15055466   91.89199829    0.00000000    0.00000000
   20.15305519   93.58930206    4.26000023    2.66000009
   20.15416718   92.49759674    4.23999977    2.67000008
   20.15999985   92.49759674    4.26000023    2.66000009
   20.16416550   95.35479736    4.26999998    2.66000009
   20.16749954   95.21140289    4.21999979    2.67000008
   20.17055511   97.74839783    4.15999985    2.66000009
   20.17388916   93.91059875    4.19999981    2.66000009
   20.18472099   98.25800323    0.00000000    0.00000000
   20.18638802   90.76200104    4.26999998    2.66000009
   20.18833160   93.28289795    4.26999998    2.66000009
   20.19138718   92.19129944    4.26000023    2.66000009
   20.19472122   92.30619812    4.26999998    2.66000009
   20.20722389   95.10669708    0.00000000    0.00000000
   20.21138954   95.10669708    4.26000023    2.66000009
   20.21555710   96.32170105    4.30999994    2.66000009
   20.21888924   92.09709930    4.42999983    2.66000009
   20.22222328  100.25399780    4.46999979    2.64000010
   20.22833443   91.17500305    4.51000023    2.64000010
   20.23083305   97.29280090    4.53999996    2.64000010
   20.23444557   91.34390259    4.53000021    2.64000010
   20.23750114   92.96630096    4.61999989    2.64000010
   20.24083328   92.28389740    4.53999996    2.64000010
   20.24416733   96.48349762    4.55999994    2.64000010
   20.24777794   92.06710052    4.59999990    2.64000010
   20.25083351   95.49030304    4.61999989    2.64000010
   20.25583267   95.49030304    4.65999985    2.64000010
   20.26000023   89.85359955    4.59999990    2.64000010
   20.26333427   95.04010010    4.51000023    2.64000010
   20.26638794   98.54060364    4.44999981    2.64000010
   20.27000046   89.63050079    4.34999990    2.64000010
   20.27333260   94.46479797    4.28999996    2.64000010
   20.27638817   93.77050018    4.28999996    2.64000010
   20.27972221   93.56130219    4.30999994    2.64000010
   20.28305435   93.11309814    4.30999994    2.64000010
   20.28638840   97.16639709    4.34999990    2.64000010
   20.28944397   97.70420074    4.34999990    2.64000010
   20.29111099   89.14099884    4.36999989    2.64000010
   20.29333305   94.18199921    4.36999989    2.64000010
   20.29916573   94.18199921    4.40999985    2.64000010
   20.30360985   92.68740082    4.40999985    2.64000010
   20.30694389   90.66729736    4.44999981    2.64000010
   20.30999947   95.32350159    4.44999981    2.64000010
   20.31333351   92.42179871    4.44999981    2.64000010
   20.31666756   90.87920380    4.44999981    2.64000010
   20.31972313   95.55599976    4.40999985    2.64000010
   20.32305717   91.34829712    4.34999990    2.64000010
   20.32416725   91.80310059    4.30999994    2.64000010
   20.32666779   93.48709869    4.26999998    2.61999989
   20.33000183   92.82530212    4.21999979    2.64000010
   20.33305550   92.48390198    4.19999981    2.61999989
   20.33638954   95.66760254    4.21999979    2.64000010
   20.34166718   95.66760254    4.26000023    2.64000010
   20.34583473   90.86139679    4.26999998    2.64000010
   20.34889030   98.93399811    4.28999996    2.64000010
   20.35222244   96.42780304    4.26999998    2.64000010
   20.35527802   93.68890381    4.26000023    2.64000010
   20.35777855  101.37100220    4.26000023    2.61999989
   20.35916710   96.72250366    4.26999998    2.64000010
   20.36222267   96.37120056    4.26000023    2.64000010
   20.36555672   93.80930328    4.26999998    2.61999989
   20.36888885   93.56520081    4.26999998    2.64000010
   20.37194443   94.76909637    4.26000023    2.61999989
   20.37527847   94.61029816    4.23999977    2.64000010
   20.37861061   91.13009644    4.26000023    2.61999989
   20.38444519   91.13009644    4.23999977    2.61999989
   20.38861084   97.40769958    4.26999998    2.64000010
   20.39111137   99.46579742    4.26999998    2.64000010
   20.39222145   97.76740265    4.26999998    2.61999989
   20.39527702   96.66760254    4.26000023    2.64000010
   20.39861107   90.55950165    4.15999985    2.64000010
   20.40194321   96.67169952    4.00000000    2.61999989
   20.40499878   95.00679779    3.91000009    2.61999989
   20.40833282   89.48200226    3.89000010    2.61999989
   20.41166687   91.05590057    3.89000010    2.61999989
   20.41472244   94.35590363    3.89000010    2.61999989
   20.42361069   96.84100342    3.91000009    2.61999989
   20.42777634   96.84100342    3.86999989    2.61999989
   20.43194389   93.97460175    3.86999989    2.61999989
   20.43527603   99.93199921    3.82999992    2.61999989
   20.43833160   96.26319885    3.78999996    2.61999989
   20.44166565   95.02860260    3.78999996    2.61999989
   20.44472122   94.33290100    3.76999998    2.61999989
   20.44805527   94.23600006    3.76999998    2.61999989
   20.45138931   93.60489655    3.82999992    2.61999989
   20.45444489   97.48030090    3.78999996    2.61999989
   20.45777893   96.44039917    3.80999994    2.61999989
   20.45861244   94.94329834    3.82999992    2.64000010
   20.46138954   94.55599976    3.86999989    2.61999989
   20.46472359   91.37280273    3.86999989    2.64000010
   20.47055626   91.37280273    3.89000010    2.61999989
   20.47472191   88.81069946    3.93000007    2.61999989
   20.47805595   90.10189819    3.97000003    2.61999989
   20.48111153   89.57440186    4.00000000    2.61999989
   20.48444557   91.47979736    4.00000000    2.61999989
   20.48777771   89.09929657    4.00000000    2.61999989
   20.49083328   92.16639709    4.01999998    2.61999989
   20.49194527   92.59889984    4.03999996    2.61999989
   20.49444389   92.10009766    4.03999996    2.61999989
   20.49777794   95.54129791    4.01999998    2.61999989
   20.50083351   95.87960052    4.00000000    2.61999989
   20.50416756   94.28810120    4.03999996    2.61999989
   20.50722313   93.39479828    4.09999990    2.59999990
   20.51361084   93.39479828    4.17999983    2.59999990
   20.52722168   96.52529907    0.00000000    0.00000000
   20.52777672   95.16999817    4.26999998    2.59999990
   20.53055573  100.27600098    4.26999998    2.59999990
   20.53388786   95.90570068    4.32999992    2.59999990
   20.53722191   96.95390320    4.40999985    2.59999990
   20.54027748   96.68150330    4.44999981    2.59999990
   20.54361153   97.16459656    4.51000023    2.57999992
   20.54694366   94.06009674    4.51000023    2.59999990
   20.54999924   97.84339905    4.46999979    2.59999990
   20.55638885   97.84339905    4.30999994    2.59999990
   20.56055450   95.88770294    4.34999990    2.59999990
   20.56110954  109.18800354    4.34999990    2.59999990
   20.56416512  118.76200104    4.36999989    2.59999990
   20.56750107  132.33799744    4.36999989    2.59999990
   20.57055664  135.32299805    4.38999987    2.59999990
   20.58277893  144.77299500    0.00000000    0.00000000
   20.58583450  215.27400208    4.36999989    2.59999990
   20.58916664  300.03900146    4.38999987    2.59999990
   20.59250069  159.62600708    4.34999990    2.57999992
   20.61361122   -1.00000000    4.44999981    2.57999992
   20.61694527   -1.00000000    4.42999983    2.59999990
   20.62944412   -1.00000000    0.00000000    0.00000000
   20.63305473   -1.00000000    4.44999981    2.57999992
   20.63611031   -1.00000000    4.40999985    2.57999992
   20.64611053   -1.00000000    4.51000023    2.57999992
   20.64916611   -1.00000000    4.44999981    2.55999994
   20.65250015   -1.00000000    4.48999977    2.55999994
   20.65583229   -1.00000000    4.46999979    2.55999994
   20.65888786   -1.00000000    4.48999977    2.55999994
   20.66222191   -1.00000000    4.53000021    2.55999994
   20.66583252   -1.00000000    4.57999992    2.55999994
   20.66888809   -1.00000000    4.59999990    2.55999994
   20.67222214   -1.00000000    4.63999987    2.55999994
   20.67527771   -1.00000000    4.61999989    2.55999994
   20.67860985   -1.00000000    4.63999987    2.55999994
   20.69833183   -1.00000000    0.00000000    0.00000000
   20.70166779   -1.00000000    4.76000023    2.55999994
   20.71389008   -1.00000000    0.00000000    0.00000000
   20.71722221   -1.00000000    4.76000023    2.55999994
   20.72027779   -1.00000000    4.76000023    2.55999994
   20.72361183   -1.00000000    4.76000023    2.55999994
   20.73166656   -1.00000000    4.73999977    2.55999994
   20.73555565   -1.00000000    4.69999981    2.55999994
   20.73861122   -1.00000000    4.69999981    2.55999994
   20.75055504   -1.00000000    0.00000000    0.00000000
   20.75361061   -1.00000000    4.63999987    2.53999996
   20.75694466   -1.00000000    4.55999994    2.53999996
   20.76027870   -1.00000000    4.57999992    2.53999996
   20.76333427   -1.00000000    4.59999990    2.53999996
   20.76722145   -1.00000000    4.61999989    2.53999996
   20.77027702   -1.00000000    4.71999979    2.53999996
   20.77361107   -1.00000000    4.73999977    2.53999996
   20.79916573   -1.00000000    4.80999994    2.53999996
   20.80249977   -1.00000000    4.82999992    2.51999998
   20.80555534   -1.00000000    4.82999992    2.51999998
   20.80888748   -1.00000000    4.84999990    2.51999998
   20.81250000   -1.00000000    4.86999989    2.51999998
   20.81555557   -1.00000000    4.88999987    2.51999998
   20.81888962   -1.00000000    4.86999989    2.51999998
   20.82722282   -1.00000000    4.88999987    2.51999998
   20.83944511   -1.00000000    0.00000000    0.00000000
   20.84250069   -1.00000000    4.82999992    2.51999998
   20.84611130   -1.00000000    4.82999992    2.51999998
   20.84916687   -1.00000000    4.84999990    2.51999998
   20.85250092   -1.00000000    4.86999989    2.50000000
   20.85583305   -1.00000000    4.86999989    2.51999998
   20.85888863   -1.00000000    4.86999989    2.51999998
   20.86222267   -1.00000000    4.86999989    2.51999998
   20.87111092   -1.00000000    4.84999990    2.50000000
   20.87416649   -1.00000000    4.86999989    2.50000000
   20.87777710   -1.00000000    4.86999989    2.50000000
   20.88111115   -1.00000000    4.84999990    2.50000000
   20.88444519   -1.00000000    4.82999992    2.50000000
   20.88750076   -1.00000000    4.80999994    2.50000000
   20.89083290   -1.00000000    4.80999994    2.50000000
   20.92694473   -1.00000000    4.90999985    2.48000002
   20.93000031   -1.00000000    4.90999985    2.48000002
   20.93333244   -1.00000000    4.90999985    2.48000002
   20.93666649   -1.00000000    4.90999985    2.48000002
   20.93972206   -1.00000000    4.90999985    2.48000002
   20.94305420   -1.00000000    4.90999985    2.48000002
   20.95499992   -1.00000000    0.00000000    0.00000000
   20.95805550   -1.00000000    4.90999985    2.46000004
   20.96833420   -1.00000000    4.90999985    2.46000004
   20.97222328   -1.00000000    4.90999985    2.46000004
   20.97527885   -1.00000000    4.90999985    2.48000002
   20.97888947   -1.00000000    4.90999985    2.46000004
   20.98611069   -1.00000000    4.90999985    2.46000004
   20.98972321   -1.00000000    4.90999985    2.46000004
   20.99305534   -1.00000000    4.90999985    2.46000004
   20.99638939   -1.00000000    4.90999985    2.46000004
   20.99944496   -1.00000000    4.90999985    2.46000004
   21.00277710   -1.00000000    4.90999985    2.46000004
   21.01111031   -1.00000000    4.90999985    2.46000004
   21.01444435   -1.00000000    4.90999985    2.44000006
   21.01777840   -1.00000000    4.90999985    2.44000006
   21.02083397   -1.00000000    4.90999985    2.44000006
   21.02416611   -1.00000000    4.90999985    2.44000006
   21.02750015   -1.00000000    4.90999985    2.44000006
   21.03055573   -1.00000000    4.90999985    2.44000006
   21.03388786   -1.00000000    4.90999985    2.44000006
   21.03694344   -1.00000000    4.90999985    2.42000008
   21.04027748   -1.00000000    4.90999985    2.42000008
   21.04361153   -1.00000000    4.90999985    2.44000006
   21.05444336   -1.00000000    4.90999985    2.44000006
   21.05777740   -1.00000000    4.90999985    2.42000008
   21.06110954   -1.00000000    4.90999985    2.42000008
   21.06472206   -1.00000000    4.90999985    2.42000008
   21.06805611   -1.00000000    4.90999985    2.42000008
   21.07111168   -1.00000000    4.90999985    2.42000008
   21.07444572   -1.00000000    4.90999985    2.42000008
   21.07805634   -1.00000000    4.90999985    2.42000008
   21.08139038   -1.00000000    4.90999985    2.42000008
   21.09388924   -1.00000000    0.00000000    0.00000000
   21.10194397   -1.00000000    4.90999985    2.42000008
   21.10527802   -1.00000000    4.90999985    2.42000008
   21.10833359   -1.00000000    4.90999985    2.40000010
   21.11222267   -1.00000000    4.90999985    2.42000008
   21.11555672   -1.00000000    4.90999985    2.40000010
   21.11861038   -1.00000000    4.90999985    2.40000010
   21.12194443   -1.00000000    4.90999985    2.40000010
   21.12527847   -1.00000000    4.90999985    2.40000010
   21.12833405   -1.00000000    4.90999985    2.40000010
   21.13166618   -1.00000000    4.90999985    2.40000010
   21.14388847   -1.00000000    0.00000000    0.00000000
   21.15194321   -1.00000000    4.90999985    2.40000010
   21.15527725   -1.00000000    4.90999985    2.40000010
   21.15833282   -1.00000000    4.90999985    2.40000010
   21.16166687   -1.00000000    4.90999985    2.40000010
   21.16499901   -1.00000000    4.90999985    2.39000010
   21.17722130   -1.00000000    0.00000000    0.00000000
   21.18083191   -1.00000000    4.90999985    2.39000010
   21.18416595   -1.00000000    4.90999985    2.39000010
   21.19499969   -1.00000000    4.90999985    2.39000010
   21.19833183   -1.00000000    4.90999985    2.39000010
   21.20138931   -1.00000000    4.90999985    2.36999989
   21.20472336   -1.00000000    4.90999985    2.36999989
   21.20805550   -1.00000000    4.90999985    2.36999989
   21.21138954   -1.00000000    4.90999985    2.36999989
   21.22389030   -1.00000000    0.00000000    0.00000000
   21.22694588   -1.00000000    4.90999985    2.36999989
   21.23777771   -1.00000000    0.20999999    0.25999999
   21.24111176   -1.00000000    0.15000001    0.13000000
   21.24444389   -1.00000000    0.15000001    0.13000000
   21.24805641   -1.00000000    0.15000001    0.13000000
   21.26055527   -1.00000000    0.00000000    0.00000000
   21.26361084   -1.00000000    0.15000001    0.13000000
   21.26694489   -1.00000000    0.15000001    0.13000000
   21.27027702   -1.00000000    0.15000001    0.13000000
   21.28055573   -1.00000000    0.15000001    0.13000000
   21.28388786   -1.00000000    0.15000001    0.13000000
   21.28722191   -1.00000000    0.15000001    0.13000000
   21.29027748   -1.00000000    0.15000001    0.13000000
   21.29361153   -1.00000000    0.15000001    0.13000000
   21.29694366   -1.00000000    0.15000001    0.13000000
   21.30944443   -1.00000000    0.00000000    0.00000000
   21.31305504   -1.00000000    0.15000001    0.13000000
   21.32333374   -1.00000000    0.15000001    0.13000000
   21.32666779   -1.00000000    0.15000001    0.13000000
   21.32972336   -1.00000000    0.15000001    0.13000000
   21.33305550   -1.00000000    0.15000001    0.13000000
   21.33638954   -1.00000000    0.15000001    0.13000000
   21.33944511   -1.00000000    0.15000001    0.13000000
   21.34277916   -1.00000000    0.15000001    0.13000000
   21.34638977   -1.00000000    0.15000001    0.13000000
   21.34972191   -1.00000000    0.15000001    0.13000000
   21.35277748   -1.00000000    0.15000001    0.13000000
   21.35611153   -1.00000000    0.15000001    0.13000000
   21.36611176   -1.00000000    0.15000001    0.13000000
   21.36944389   -1.00000000    0.15000001    0.13000000
   21.37277794   -1.00000000    0.15000001    0.13000000
   21.37583351   -1.00000000    0.15000001    0.13000000
   21.37944412   -1.00000000    0.15000001    0.13000000
   21.38666725   -1.00000000    0.15000001    0.13000000
   21.38999939   -1.00000000    0.15000001    0.13000000
   21.39361191   -1.00000000    0.15000001    0.13000000
   21.39694405   -1.00000000    0.15000001    0.13000000
   21.40944481   -1.00000000    0.00000000    0.00000000
   21.41777802   -1.00000000    0.15000001    0.13000000
   21.42083359   -1.00000000    0.15000001    0.13000000
   21.42416573   -1.00000000    0.15000001    0.13000000
   21.43610954   -1.00000000    0.00000000    0.00000000
   21.43916512   -1.00000000    0.15000001    0.13000000
   21.44249916   -1.00000000    0.15000001    0.13000000
   21.44583321   -1.00000000    0.15000001    0.13000000
   21.44888878   -1.00000000    0.15000001    0.13000000
   21.45305634   -1.00000000    0.15000001    0.13000000
   21.45639038   -1.00000000    0.15000001    0.13000000
   21.45944595   -1.00000000    0.15000001    0.13000000
   21.47694588   -1.00000000    0.15000001    0.13000000
   21.48000145   -1.00000000    0.15000001    0.13000000
   21.48333359   -1.00000000    0.15000001    0.13000000
   21.48666763   -1.00000000    0.15000001    0.13000000
   21.49027824   -1.00000000    0.15000001    0.13000000
   21.49333382   -1.00000000    0.15000001    0.13000000
   21.49694443   -1.00000000    0.15000001    0.13000000
   21.50027847   -1.00000000    0.15000001    0.13000000
   21.51055527   -1.00000000    0.15000001    0.13000000
   21.51388931   -1.00000000    0.15000001    0.13000000
   21.51694489   -1.00000000    0.15000001    0.13000000
   21.52944374   -1.00000000    0.00000000    0.00000000
   21.53277779   -1.00000000    0.15000001    0.13000000
   21.53610992   -1.00000000    0.15000001    0.13000000
   21.53916550   -1.00000000    0.15000001    0.13000000
   21.55166626   -1.00000000    0.00000000    0.00000000
   21.55499840   -1.00000000    0.15000001    0.13000000
   21.56527710   -1.00000000    0.15000001    0.13000000
   21.56916809   -1.00000000    0.15000001    0.13000000
   21.57250023   -1.00000000    0.15000001    0.13000000
   21.57583427   -1.00000000    0.15000001    0.13000000
   21.57888985   -1.00000000    0.15000001    0.13000000
   21.58222389   -1.00000000    0.15000001    0.13000000
   21.58527756   -1.00000000    0.15000001    0.13000000
   21.58861160   -1.00000000    0.15000001    0.13000000
   21.59194565   -1.00000000    0.15000001    0.13000000
   21.59500122   -1.00000000    0.15000001    0.13000000
   21.59833336   -1.00000000    0.15000001    0.13000000
   21.60805511   -1.00000000    0.15000001    0.13000000
   21.61138916   -1.00000000    0.15000001    0.13000000
   21.62388992   -1.00000000    0.00000000    0.00000000
   21.62694550   -1.00000000    0.15000001    0.13000000
   21.63027763   -1.00000000    0.15000001    0.13000000
   21.63361168   -1.00000000    0.15000001    0.13000000
   21.63666725   -1.00000000    0.15000001    0.13000000
   21.64083290   -1.00000000    0.15000001    0.13000000
   21.64388847   -1.00000000    0.15000001    0.13000000
   21.64722252   -1.00000000    0.15000001    0.13000000
   21.65555573   -1.00000000    0.15000001    0.13000000
   21.65861130   -1.00000000    0.15000001    0.13000000
   21.66194344   -1.00000000    0.15000001    0.13000000
   21.66527748   -1.00000000    0.15000001    0.13000000
   21.66833305   -1.00000000    0.15000001    0.13000000
   21.67166519   -1.00000000    0.15000001    0.13000000
   21.67499924   -1.00000000    0.15000001    0.13000000
   21.67833328   -1.00000000    0.15000001    0.13000000
   21.68166542   -1.00000000    0.15000001    0.13000000
   21.68472099   -1.00000000    0.15000001    0.13000000
   21.68805504   -1.00000000    0.15000001    0.13000000
   21.69833183   -1.00000000    0.15000001    0.13000000
   21.70166779   -1.00000000    0.15000001    0.13000000
