    HOUR (UT)   FLARE FACTOR    SKY TESTER    SUN TESTER
   11.89916611   -1.00000000   -1.00000000   -1.00000000
   11.94666672   82.45729828    4.01999998    1.94000006
   11.94999981  235.73300171    4.03999996    1.94000006
   11.95333290  217.76100159    4.03999996    1.94000006
   11.95638847  237.01899719    4.01999998    1.94000006
   11.95972157  217.61399841    4.01999998    1.94000006
   11.96305561  218.83200073    4.00000000    1.94000006
   11.96694374  218.83200073    4.00000000    1.94000006
   11.97111034  221.00399780    3.99000001    1.96000004
   11.97444439  215.93099976    3.97000003    1.96000004
   11.97777748  219.33599854    3.97000003    1.96000004
   11.97999954  213.16000366    3.97000003    1.96000004
   11.98111057  210.83200073    3.95000005    1.96000004
   11.98444462  209.79100037    3.95000005    1.96000004
   11.98750019  208.59800720    3.93000007    1.96000004
   11.99083328  212.53700256    3.91000009    1.96000004
   11.99416733  206.17700195    3.91000009    1.98000002
   11.99722290  205.25799561    3.91000009    1.98000002
   12.00055599  206.88699341    3.89000010    1.98000002
   12.00388908  210.62699890    3.89000010    1.98000002
   12.01000023  210.62699890    3.89000010    1.98000002
   12.01416683  209.13499451    3.86999989    1.98000002
   12.01722240  204.21000671    3.86999989    1.98000002
   12.02055550  206.62100220    3.86999989    1.98000002
   12.02388859  199.36700439    3.84999990    2.00000000
   12.02694416  203.63200378    3.82999992    2.00000000
   12.03027725  209.49400330    3.82999992    2.00000000
   12.03333378  203.70799255    3.80999994    2.00000000
   12.03666687  207.41999817    3.80999994    2.00000000
   12.04000092  213.66400146    3.80999994    2.00000000
   12.04305553  214.94599915    3.78999996    2.00000000
   12.04638958  208.41000366    3.78999996    2.00000000
   12.04694462  197.78999329    3.78999996    2.00000000
   12.05277824  197.78999329    3.76999998    2.01999998
   12.05694485  202.67799377    3.75000000    2.01999998
   12.06027794  214.11099243    3.73000002    2.01999998
   12.06361103  212.42900085    3.72000003    2.01999998
   12.06666660  212.20599365    3.70000005    2.01999998
   12.06999969  210.17700195    3.70000005    2.01999998
   12.07333374  206.99099731    3.70000005    2.01999998
   12.07638836  201.80299377    3.70000005    2.01999998
   12.07972240  207.29699707    3.70000005    2.03999996
   12.08027744  204.13400269    3.68000007    2.03999996
   12.08333302  208.95100403    3.70000005    2.03999996
   12.08666611  203.67599487    3.68000007    2.03999996
   12.09000015  205.94000244    3.66000009    2.03999996
   12.09555531  205.94000244    3.66000009    2.03999996
   12.09972191  214.92500305    3.66000009    2.03999996
   12.10305595  205.67700195    3.66000009    2.05999994
   12.10638905  206.57600403    3.64000010    2.03999996
   12.10944462  196.85899353    3.64000010    2.05999994
   12.11277771  205.71800232    3.59999990    2.05999994
   12.11361122  206.83700562    3.59999990    2.05999994
   12.11666679  207.93899536    3.59999990    2.05999994
   12.11972237  220.12600708    3.59999990    2.05999994
   12.12305546  202.51100159    3.59999990    2.05999994
   12.12611103  195.22799683    3.57999992    2.05999994
   12.12944412  201.71299744    3.55999994    2.05999994
   12.13277817  198.36599731    3.55999994    2.05999994
   12.13861084  198.36599731    3.51999998    2.07999992
   12.14277744  201.72999573    3.51999998    2.07999992
   12.14583302  201.86199951    3.51999998    2.07999992
   12.14694405  197.34100342    3.51999998    2.07999992
   12.14972210  195.84899902    3.50000000    2.07999992
   12.15277767  193.12600708    3.50000000    2.07999992
   12.15611076  196.60499573    3.48000002    2.07999992
   12.15916634  198.12300110    3.46000004    2.09999990
   12.16249943  198.29200745    3.46000004    2.07999992
   12.16583252  198.15199280    3.45000005    2.09999990
   12.16888905  203.44700623    3.45000005    2.07999992
   12.17222214  208.19599915    3.43000007    2.07999992
   12.17555618  199.94900513    3.43000007    2.07999992
   12.18138885  199.94900513    3.43000007    2.09999990
   12.18555546  190.16299438    3.41000009    2.09999990
   12.18861103  199.88099670    3.41000009    2.09999990
   12.19194412  198.18600464    3.41000009    2.09999990
   12.19527817  199.76800537    3.39000010    2.09999990
   12.19833374  198.49000549    3.39000010    2.09999990
   12.20166683  207.96299744    3.39000010    2.09999990
   12.20499992  202.77900696    3.39000010    2.11999989
   12.20805550  208.43800354    3.39000010    2.11999989
   12.21138859  201.28999329    3.39000010    2.11999989
   12.21361065  203.14399719    3.36999989    2.11999989
   12.21500015  207.54299927    3.36999989    2.11999989
   12.21805477  206.56900024    3.36999989    2.11999989
   12.22416592  206.56900024    3.34999990    2.11999989
   12.22833252  209.87399292    3.32999992    2.13000011
   12.23166656  198.97500610    3.32999992    2.11999989
   12.23472214  203.99000549    3.32999992    2.13000011
   12.23805618  207.17500305    3.32999992    2.13000011
   12.24138927  199.04499817    3.32999992    2.11999989
   12.24444485  201.51699829    3.32999992    2.13000011
   12.24694443  201.85699463    3.30999994    2.13000011
   12.24833393  194.92100525    3.30999994    2.13000011
   12.25138855  195.78399658    3.30999994    2.13000011
   12.25472260  187.07499695    3.30999994    2.13000011
   12.25777817  198.38900757    3.30999994    2.13000011
   12.26111126  188.83599854    3.30999994    2.13000011
   12.26694393  188.83599854    3.30999994    2.13000011
   12.27111053  189.37399292    3.30999994    2.13000011
   12.27444458  197.45300293    3.30999994    2.13000011
   12.27777767  189.85200500    3.30999994    2.13000011
   12.28027725  190.28300476    3.30999994    2.13000011
   12.28138828  197.63200378    3.28999996    2.13000011
   12.28444481  194.02000427    3.30999994    2.13000011
   12.28777790  195.87800598    3.26999998    2.15000010
   12.29083347  187.83200073    3.25000000    2.15000010
   12.29416752  200.76400757    3.23000002    2.15000010
   12.29750061  195.20199585    3.23000002    2.15000010
   12.30055618  191.50399780    3.23000002    2.15000010
   12.30388927  184.08799744    3.23000002    2.15000010
   12.31000042  184.08799744    3.21000004    2.15000010
   12.31416702  192.33500671    3.26999998    2.17000008
   12.31722260  193.12500000    3.26999998    2.17000008
   12.32055569  194.70199585    3.28999996    2.15000010
   12.32361126  194.17900085    3.28999996    2.15000010
   12.32694435  187.38600159    3.28999996    2.15000010
   12.33027744  211.96600342    3.28999996    2.15000010
   12.33333302  185.55299377    3.28999996    2.15000010
   12.33666611  192.55299377    3.28999996    2.15000010
   12.34027767  206.66200256    3.28999996    2.15000010
   12.34361076  198.93400574    3.28999996    2.15000010
   12.34666634  191.75199890    3.28999996    2.15000010
   12.34722233  196.13600159    3.28999996    2.15000010
   12.35277843  196.13600159    3.28999996    2.15000010
   12.35694504  194.92500305    3.28999996    2.15000010
   12.36000061  195.46099854    3.28999996    2.15000010
   12.36333370  190.57800293    3.28999996    2.15000010
   12.36666679  189.58700562    3.28999996    2.15000010
   12.36999989  191.62800598    3.28999996    2.15000010
   12.37305546  195.55900574    3.28999996    2.15000010
   12.37638855  189.60400391    3.28999996    2.15000010
   12.37944412  189.34700012    3.28999996    2.17000008
   12.38055611  195.86799622    3.28999996    2.17000008
   12.38333321  197.40600586    3.28999996    2.17000008
   12.38666630  199.45599365    3.28999996    2.17000008
   12.38972187  199.80000305    3.28999996    2.17000008
   12.39555550  199.80000305    3.28999996    2.17000008
   12.39972210  200.10200500    3.28999996    2.17000008
   12.40305519  213.35499573    3.28999996    2.17000008
   12.40611076  216.22399902    3.28999996    2.17000008
   12.40944386  204.26300049    3.28999996    2.17000008
   12.41249943  205.58399963    3.28999996    2.17000008
   12.41388893  212.24800110    3.28999996    2.17000008
   12.41638851  204.72999573    3.28999996    2.17000008
   12.42027855  204.32000732    0.00000000    0.00000000
   12.42416668  204.96800232    0.00000000    0.00000000
   12.42777824  205.15400696    0.00000000    0.00000000
   12.43166733  196.95199585    0.00000000    0.00000000
   12.43916702  196.95199585    0.00000000    0.00000000
   12.44388866  185.41400146    0.00000000    0.00000000
   12.44750023  191.38900757    0.00000000    0.00000000
   12.44805527  188.29400635    0.00000000    0.00000000
   12.45166683  192.24000549    0.00000000    0.00000000
   12.45499992  185.51800537    3.28999996    2.17000008
   12.45833302  192.23699951    3.28999996    2.17000008
   12.46138859  190.04899597    3.28999996    2.17000008
   12.46472168  190.35499573    3.28999996    2.17000008
   12.46777725  193.23899841    3.28999996    2.17000008
   12.47111034  191.87699890    3.28999996    2.17000008
   12.47444439  186.71200562    3.28999996    2.17000008
   12.48138809  186.71200562    4.26999998    2.17000008
   12.48527813  216.40600586    4.51000023    2.13000011
   12.48861122  184.41499329    4.65999985    2.07999992
   12.49194431  196.11900330    4.84999990    2.15000010
   12.49499989  191.62899780    4.90999985    2.21000004
   12.49833393  186.16700745    4.90999985    2.17000008
   12.50166702  190.02699280    4.90999985    2.19000006
   12.50472260  188.06900024    4.90999985    2.17000008
   12.50805569  187.87199402    4.82999992    2.17000008
   12.51111126  189.39999390    4.76000023    2.21000004
   12.51444435  186.71600342    4.67999983    2.17000008
   12.51638889  197.41999817    4.63999987    2.15000010
   12.51805496  190.60099792    4.61999989    2.17000008
   12.52416611  190.60099792    4.44999981    2.21000004
   12.52833271  192.28399658    4.34999990    2.21000004
   12.53138828  185.64500427    4.28999996    2.21000004
   12.53472233  194.24899292    4.26000023    2.19000006
   12.53805637  184.67999268    4.34999990    2.21000004
   12.54111195  190.60400391    4.53000021    2.19000006
   12.54444504  186.33099365    4.67999983    2.23000002
   12.54777813  192.98300171    4.69999981    2.23000002
   12.54972267  195.89799500    4.65999985    2.21000004
   12.55111122  196.49600220    4.63999987    2.21000004
   12.55444431  185.31700134    4.53000021    2.21000004
   12.55777836  187.17799377    4.30999994    2.23000002
   12.56083393  185.00399780    4.01999998    2.19000006
   12.56694412  185.00399780    3.80999994    2.23000002
   12.57111073  181.49099731    4.17999983    2.23000002
   12.57444477  240.96499634    4.13999987    2.23000002
   12.57750034  183.44000244    4.21999979    1.96000004
   12.58083344  183.62500000    4.90999985    2.25000000
   12.58305550  187.18899536    4.63999987    2.23000002
   12.58444405  179.31900024    4.15999985    2.23000002
   12.58777714  183.79100037    3.78999996    2.23000002
   12.59083271  185.37500000    3.97000003    2.25000000
   12.59416676  192.45599365    4.73999977    2.23000002
   12.59749985  185.57899475    4.90999985    1.83000004
   12.60055637  358.36199951    4.90999985    1.83000004
   12.60388947  194.49600220    4.90999985    2.05999994
   12.60972214  194.49600220    4.90999985    2.25000000
   12.61388969  188.74000549    4.46999979    2.23000002
   12.61638927  185.22000122    4.38999987    2.23000002
   12.61750031  189.65400696    4.38999987    2.23000002
   12.62083340  195.81900024    4.38999987    2.23000002
   12.62416649  186.48500061    4.38999987    2.23000002
   12.62722206  196.29800415    4.51000023    2.25000000
   12.63055611  208.08200073    4.51000023    2.25000000
   12.63388920  184.40800476    4.51000023    2.25000000
   12.63694477  185.40800476    4.13999987    2.26999998
   12.64027786  192.57600403    3.76999998    2.26999998
   12.64333344  176.85099792    3.57999992    2.21000004
   12.64666653  185.68200684    3.57999992    2.21000004
   12.65277767  185.68200684    4.03999996    2.13000011
   12.65666676  192.70100403    4.90999985    2.05999994
   12.65999985  189.75399780    4.90999985    2.09999990
   12.66333294  178.89700317    4.90999985    2.09999990
   12.66638851  180.55299377    4.90999985    2.09999990
   12.66972256  182.00000000    4.90999985    2.09999990
   12.67305565  173.99800110    4.90999985    2.15000010
   12.67611122  191.22599792    3.23000002    2.30999994
   12.67944431  171.68400574    3.36999989    2.28999996
   12.68249989  175.90800476    3.36999989    2.28999996
   12.68361092  179.85200500    3.23000002    2.28999996
   12.68611145  172.34599304    3.20000005    2.28999996
   12.68944454  171.13299561    3.28999996    2.30999994
   12.69555569  171.13299561    3.76999998    2.28999996
   12.69972229  185.66299438    4.90999985    2.28999996
   12.70277786  235.97000122    4.90999985    2.25000000
   12.70611095  222.11700439    4.90999985    2.25000000
   12.70944405  193.66700745    4.90999985    2.11999989
   12.71249962  178.85800171    4.90999985    2.21000004
   12.71583271  183.45799255    4.90999985    2.25000000
   12.71694374  172.50399780    4.90999985    2.28999996
   12.71916580  199.10899353    4.90999985    2.07999992
   12.72249985  181.45300293    4.90999985    2.17000008
   12.72583294  176.95100403    4.90999985    2.23000002
   12.72888851  171.50000000    4.90999985    2.28999996
   12.73222160  174.76600647    4.90999985    2.21000004
   12.73833370  174.76600647    4.80999994    2.25000000
   12.74250031  181.33099365    4.90999985    2.23000002
   12.74583340  174.43400574    4.90999985    2.07999992
   12.74888897  171.95399475    4.90999985    2.17000008
   12.75055599  170.24099731    4.90999985    2.26999998
   12.75249958  168.27400208    4.90999985    2.26999998
   12.75583363  169.02900696    4.86999989    2.23000002
   12.75888920  172.19900513    3.99000001    2.30999994
   12.76222229  169.41400146    3.61999989    2.32999992
   12.76555538  173.49400330    2.96000004    2.32999992
   12.76861095  163.39500427    2.71000004    2.32999992
   12.77194405  170.90699768    2.67000008    2.34999990
   12.77527714  170.11099243    2.66000009    2.32999992
   12.78111076  170.11099243    2.61999989    2.32999992
   12.78527832  167.25100708    2.61999989    2.34999990
   12.78861141  167.66499329    2.61999989    2.32999992
   12.79194450  170.84700012    2.61999989    2.32999992
   12.79500008  170.93699646    2.61999989    2.32999992
   12.79833412  160.17199707    2.59999990    2.34999990
   12.80138874  167.75799561    2.59999990    2.32999992
   12.80472279  169.35699463    2.59999990    2.34999990
   12.80805588  164.84300232    2.59999990    2.32999992
   12.81111145  171.41700745    2.59999990    2.34999990
   12.81444454  179.63999939    2.59999990    2.34999990
   12.81722260  178.65600586    2.59999990    2.34999990
   12.81805515  166.39300537    2.59999990    2.34999990
   12.82416630  166.39300537    2.71000004    2.34999990
   12.82805538  169.08599854    2.67000008    2.34999990
   12.83138847  182.21400452    2.67000008    2.34999990
   12.83472157  169.41000366    2.66000009    2.32999992
   12.83777714  169.69799805    2.67000008    2.34999990
   12.84111118  176.31900024    2.71000004    2.34999990
   12.84416676  165.51400757    2.67000008    2.34999990
   12.84749985  163.78300476    2.59999990    2.34999990
   12.85055637  168.17199707    2.57999992    2.34999990
   12.85111141  167.51300049    2.57999992    2.34999990
   12.85444450  168.43299866    2.55999994    2.36999989
   12.85750008  173.06900024    2.55999994    2.36999989
   12.86083412  165.39199829    2.55999994    2.36999989
   12.86694431  165.39199829    2.53999996    2.36999989
   12.87111092  178.05599976    2.53999996    2.36999989
   12.87416649  171.41700745    2.53999996    2.34999990
   12.87750053  165.06599426    2.53999996    2.39000010
   12.88055611  163.23500061    2.53999996    2.34999990
   12.88388920  171.89799500    2.53999996    2.36999989
   12.88416672  166.21200562    2.55999994    2.36999989
   12.88749981  163.20100403    2.59999990    2.36999989
   12.89055538  172.48599243    2.51999998    2.36999989
   12.89388847  167.97900391    2.51999998    2.36999989
   12.89722252  164.43899536    2.53999996    2.36999989
   12.90027714  172.10699463    2.51999998    2.36999989
   12.90361118  170.75300598    2.53999996    2.36999989
   12.90972137  170.75300598    2.67000008    2.36999989
   12.91388893  184.42999268    3.16000009    2.36999989
   12.91722298  180.74699402    3.51999998    2.36999989
   12.91750050  179.88400269    3.51999998    2.39000010
   12.92083359  190.03700256    3.46000004    2.30999994
   12.92388916  205.55000305    3.43000007    2.34999990
   12.92722225  211.31599426    3.28999996    2.36999989
   12.93055630  212.77299500    3.14000010    2.34999990
   12.93361092  198.19200134    2.86999989    2.34999990
   12.93694496  170.50599670    2.82999992    2.39000010
   12.94027805  170.89399719    2.71000004    2.39000010
   12.94333363  184.24299622    2.61999989    2.39000010
   12.94666672  174.65699768    2.55999994    2.39000010
   12.96833324  174.65699768    4.90999985    2.28999996
   12.97249985  170.39100647    4.88999987    2.39000010
   12.97555542  171.39300537    4.34999990    2.39000010
   12.97888851  174.75700378    4.42999983    2.39000010
   12.98222160  167.03100586    4.80000019    2.34999990
   12.98527813  173.56900024    4.90999985    2.32999992
   12.98861122  167.03900146    4.90999985    2.34999990
   12.99166679  181.99000549    4.90999985    2.34999990
   12.99499989  167.35800171    4.90999985    2.30999994
   12.99833393  176.20300293    4.38999987    2.36999989
   12.99916649  178.46800232    4.38999987    2.36999989
   13.00166702  161.73699951    3.55999994    2.30999994
   13.00500011  165.97200012    3.48000002    2.21000004
   13.01111126  165.97200012    3.95000005    2.39000010
   13.01527786  170.86599731    4.90999985    2.26999998
   13.01833344  166.57499695    4.90999985    2.39000010
   13.02166653  171.85000610    4.90999985    2.39000010
   13.02472210  176.04499817    4.90999985    2.42000008
   13.02805519  169.49499512    2.91000009    2.30999994
   13.03138828  166.45599365    3.78999996    2.32999992
   13.03249931  174.29299927    3.78999996    2.32999992
   13.03472233  172.93099976    3.23000002    2.39000010
   13.03805637  175.52200317    3.09999990    2.40000010
   13.04138947  173.38299561    3.07999992    2.40000010
   13.04444504  169.61099243    2.71000004    2.39000010
   13.04777813  167.43400574    2.75000000    2.40000010
   13.05388927  167.43400574    2.82999992    2.39000010
   13.05833340  167.04600525    2.89000010    2.40000010
   13.06138897  167.55799866    2.89000010    2.40000010
   13.06472206  167.72999573    2.57999992    2.40000010
   13.06611156  161.35899353    2.75000000    2.42000008
   13.06833363  168.45799255    2.75000000    2.42000008
   13.07166672  169.90499878    2.86999989    2.39000010
   13.07472229  177.12500000    3.97000003    2.39000010
   13.07805538  175.53199768    4.90999985    2.36999989
   13.08138847  182.91600037    4.90999985    2.36999989
   13.08444405  177.79200745    4.90999985    2.32999992
   13.08777714  171.87500000    4.88999987    2.32999992
   13.09111118  167.89999390    4.90999985    2.39000010
   13.09666634  167.89999390    4.28999996    2.39000010
   13.10083389  170.19700623    3.66000009    2.36999989
   13.10416698  170.05200195    3.59999990    2.40000010
   13.10722256  177.33200073    3.59999990    2.40000010
   13.11055565  178.42399597    3.61999989    2.28999996
   13.11388969  172.69200134    3.84999990    2.36999989
   13.11694431  173.61000061    4.17999983    2.42000008
   13.12027836  175.41600037    3.64000010    2.42000008
   13.12333393  162.02900696    3.26999998    2.39000010
   13.12666702  172.78199768    3.43000007    2.39000010
   13.13000011  172.92700195    3.66000009    2.42000008
   13.13277817  170.91200256    3.55999994    2.40000010
   13.13361073  177.88099670    3.55999994    2.40000010
   13.13972187  177.88099670    3.93000007    2.39000010
   13.14361095  165.36000061    4.17999983    2.36999989
   13.14694405  174.98300171    4.30999994    2.25000000
   13.15027714  172.31799316    4.55999994    2.36999989
   13.15333271  168.58999634    4.71999979    2.40000010
   13.15666676  172.74699402    4.21999979    2.42000008
   13.15972137  165.65899658    3.64000010    2.40000010
   13.16305542  175.19000244    3.34999990    2.42000008
   13.16611099  169.12899780    3.25000000    2.40000010
   13.16666698  173.27799988    3.25000000    2.40000010
   13.17000008  172.68499756    3.43000007    2.42000008
   13.17305565  189.07000732    3.78999996    2.42000008
   13.17638874  179.67900085    3.95000005    2.42000008
   13.18249989  179.67900085    3.95000005    2.42000008
   13.18722248  173.36900330    0.00000000    0.00000000
   13.19111156  174.78399658    0.00000000    0.00000000
   13.19499969  177.33999634    0.00000000    0.00000000
   13.19861126  169.69599915    0.00000000    0.00000000
   13.19944477  170.86599731    0.00000000    0.00000000
   13.20277786  172.86500549    0.00000000    0.00000000
   13.20666695  173.11700439    0.00000000    0.00000000
   13.21055508  170.03900146    0.00000000    0.00000000
   13.21444416  174.06399536    0.00000000    0.00000000
   13.21777725  164.81399536    3.95000005    2.42000008
   13.22083282  171.46200562    3.95000005    2.42000008
   13.22527695  171.46200562    3.95000005    2.42000008
   13.22944355  175.66400146    3.95000005    2.42000008
   13.23277760  168.83500671    3.95000005    2.42000008
   13.23305511  178.57099915    3.95000005    2.42000008
   13.23638916  162.65600586    3.95000005    2.42000008
   13.23944473  164.27600098    3.95000005    2.42000008
   13.24277782  168.58200073    3.95000005    2.42000008
   13.24611092  165.82600403    3.95000005    2.42000008
   13.24916649  163.59399414    3.95000005    2.42000008
   13.25249958  163.65600586    3.95000005    2.42000008
   13.25583363  166.02299500    4.17999983    2.30999994
   13.25888920  169.49200439    4.42999983    2.42000008
   13.26222229  172.47900391    3.99000001    2.42000008
   13.26805496  172.47900391    3.64000010    2.36999989
   13.27222157  167.72099304    3.53999996    2.42000008
   13.27555561  168.53300476    3.45000005    2.40000010
   13.27861118  171.15699768    3.46000004    2.42000008
   13.28194427  167.18600464    3.43000007    2.42000008
   13.28527832  165.73800659    3.41000009    2.42000008
   13.28833389  165.34700012    3.28999996    2.40000010
   13.29166698  167.01400757    3.50000000    2.44000006
   13.29472256  163.58999634    4.03999996    2.44000006
   13.29805565  170.22300720    4.57999992    2.44000006
   13.29944515  158.19400024    4.80999994    2.46000004
   13.30194473  174.05900574    4.90999985    2.44000006
   13.30500031  169.46800232    4.90999985    2.39000010
   13.31083393  169.46800232    4.90999985    2.32999992
   13.31500053  173.94599915    4.90999985    2.39000010
   13.31833363  180.60099792    4.90999985    2.32999992
   13.32166672  178.75100708    4.90999985    2.32999992
   13.32472229  172.73800659    4.90999985    2.34999990
   13.32805538  170.60299683    4.90999985    2.34999990
   13.33111095  169.78100586    4.90999985    2.36999989
   13.33277798  176.65600586    4.90999985    2.39000010
   13.33500004  181.22300720    4.90999985    2.39000010
   13.33805561  180.30299377    4.90999985    2.40000010
   13.34138870  187.10200500    4.90999985    2.40000010
   13.34444427  172.10800171    4.90999985    2.39000010
   13.34777737  169.24899292    4.90999985    2.36999989
   13.35388947  169.24899292    4.90999985    2.39000010
   13.35805607  181.02699280    4.90999985    2.36999989
   13.36111164  171.24099731    4.90999985    2.39000010
   13.36444473  168.98199463    4.90999985    2.42000008
   13.36611176  153.96099854    4.90999985    2.42000008
   13.36805534  170.18099976    4.90999985    2.39000010
   13.37138939  172.61599731    4.90999985    2.42000008
   13.37444496  172.31599426    4.90999985    2.39000010
   13.37777805  181.56799316    4.90999985    2.36999989
   13.38111115  197.89199829    4.90999985    2.13000011
   13.38416672  172.55700684    4.90999985    2.34999990
   13.38749981  167.22900391    3.66000009    2.46000004
   13.39055538  167.27400208    3.26999998    2.46000004
   13.39666653  167.27400208    3.11999989    2.46000004
   13.40083313  168.70300293    3.03999996    2.46000004
   13.40388870  166.93400574    3.00000000    2.46000004
   13.40722179  173.51600647    2.93000007    2.46000004
   13.41055489  170.58099365    2.84999990    2.46000004
   13.41361046  165.94400024    2.78999996    2.46000004
   13.41694450  172.93899536    2.76999998    2.46000004
   13.42027855  164.49299622    2.78999996    2.46000004
   13.42333412  166.85400391    2.78999996    2.48000002
   13.42666721  168.02299500    2.75000000    2.46000004
   13.42972279  176.67199707    2.67000008    2.46000004
   13.43277836  170.50199890    2.64000010    2.46000004
   13.43361092  163.91999817    2.61999989    2.46000004
   13.43944454  163.91999817    2.67000008    2.46000004
   13.44361115  170.16499329    2.66000009    2.46000004
   13.44694424  158.98800659    2.57999992    2.48000002
   13.44999981  163.69799805    2.64000010    2.46000004
   13.45333290  167.70199585    2.75000000    2.48000002
   13.45666695  172.55799866    3.05999994    2.46000004
   13.45972157  170.53399658    3.48000002    2.46000004
   13.46305561  163.21299744    3.84999990    2.48000002
   13.46611118  165.00399780    4.11999989    2.46000004
   13.46666622  167.33399963    4.19999981    2.44000006
   13.46999931  166.18499756    4.36999989    2.44000006
   13.47305489  162.54400635    4.53999996    2.46000004
   13.47638798  178.97000122    4.65999985    2.44000006
   13.48222160  178.97000122    4.61999989    2.40000010
   13.48638916  165.78999329    4.42999983    2.42000008
   13.48972225  168.20100403    4.26999998    2.42000008
   13.49305534  173.19900513    4.17999983    2.44000006
   13.49611092  177.35099792    4.03999996    2.46000004
   13.49944496  162.52699280    3.86999989    2.46000004
   13.50000000  160.94500732    3.86999989    2.46000004
   13.50305557  168.11599731    3.73000002    2.46000004
   13.50638866  162.99000549    3.50000000    2.46000004
   13.50972176  169.85099792    3.32999992    2.48000002
   13.51277733  160.83700562    3.20000005    2.46000004
   13.51611137  120.88500214    3.09999990    2.48000002
   13.51944447  156.06700134    3.01999998    2.48000002
   13.52527714  156.06700134    2.86999989    2.46000004
   13.52916622  163.95799255    2.78999996    2.46000004
   13.53249931  162.71499634    2.73000002    2.46000004
   13.53333378  164.96600342    2.71000004    2.46000004
   13.53611183  169.25399780    2.66000009    2.48000002
   13.53944492  163.11599731    2.61999989    2.48000002
   13.54277802  162.03799438    2.59999990    2.48000002
   13.54583359  153.86599731    2.59999990    2.48000002
   13.54916668  165.00100708    2.67000008    2.48000002
   13.55249977  156.99400330    2.75000000    2.48000002
   13.55555534  167.75100708    2.78999996    2.48000002
   13.55888939  149.10000610    2.80999994    2.46000004
   13.56194496  166.27999878    2.84999990    2.46000004
   13.56805515  166.27999878    2.89000010    2.46000004
   13.57222176  168.83399963    2.82999992    2.48000002
   13.57527733  167.30200195    2.69000006    2.48000002
   13.57861137  168.10099792    2.59999990    2.48000002
   13.58194447  156.56100464    2.51999998    2.48000002
   13.58500004  165.07200623    2.50000000    2.48000002
   13.58833313  164.38900757    2.48000002    2.48000002
   13.59166622  153.63699341    2.44000006    2.50000000
   13.59472179  160.46600342    2.48000002    2.48000002
   13.59805489  164.84800720    2.51999998    2.50000000
   13.60000038  176.62399292    2.53999996    2.48000002
   13.60138893  170.02799988    2.51999998    2.48000002
   13.60472298  161.15499878    2.53999996    2.50000000
   13.61083412  161.15499878    2.55999994    2.50000000
   13.61500072  160.68400574    2.50000000    2.48000002
   13.61833382  171.07299805    2.48000002    2.48000002
   13.62138939  157.30999756    2.46000004    2.50000000
   13.62472248  156.00900269    2.50000000    2.50000000
   13.62805557  153.56500244    2.51999998    2.48000002
   13.63111115  158.72099304    2.57999992    2.48000002
   13.63333321  163.11999512    2.61999989    2.48000002
   13.63472176  156.50700378    2.64000010    2.48000002
   13.63805580  163.25999451    2.67000008    2.50000000
   13.64138889  157.62899780    2.73000002    2.48000002
   13.64444447  158.24899292    2.86999989    2.48000002
   13.64777756  170.83399963    3.00000000    2.50000000
   13.65388870  170.83399963    3.21000004    2.46000004
   13.65777779  166.09300232    3.46000004    2.48000002
   13.66111088  162.67300415    3.93000007    2.48000002
   13.66444397  154.68499756    4.61999989    2.48000002
   13.66666698  174.78599548    4.90999985    2.44000006
   13.66777802  167.95599365    4.90999985    2.39000010
   13.67111111  173.92799377    4.90999985    2.39000010
   13.67444515  166.03799438    4.90999985    2.32999992
   13.67750072  169.77200317    4.90999985    2.39000010
   13.68083382  165.96299744    4.90999985    2.34999990
   13.68416691  162.83299255    4.90999985    2.39000010
   13.68722248  156.34899902    4.90999985    2.40000010
   13.69055557  180.63299561    4.90999985    2.40000010
   13.69666672  180.63299561    4.90999985    2.39000010
   13.70083332  160.37399292    4.90999985    2.40000010
   13.70388889  169.17700195    4.90999985    2.42000008
   13.70722198  172.31599426    4.86999989    2.46000004
   13.71027756  163.48500061    4.61999989    2.44000006
   13.71361065  156.94799805    4.48999977    2.46000004
   13.71694374  158.96099854    4.13999987    2.46000004
   13.71999931  157.75199890    3.89000010    2.46000004
   13.72333336  155.55700684    3.61999989    2.48000002
   13.72666645  165.14799500    3.45000005    2.50000000
   13.72972202  163.09500122    3.25000000    2.50000000
   13.73305511  160.58599854    3.30999994    2.50000000
   13.73361111  163.98899841    3.30999994    2.50000000
   13.73944473  163.98899841    3.48000002    2.50000000
   13.74361134  159.30000305    3.64000010    2.48000002
   13.74666691  167.75799561    3.84999990    2.48000002
   13.75000000  163.88800049    3.84999990    2.46000004
   13.75333309  153.91000366    3.76999998    2.44000006
   13.75638866  160.32299805    3.76999998    2.46000004
   13.75972176  163.03900146    3.68000007    2.48000002
   13.76305580  160.86900330    3.66000009    2.48000002
   13.76611137  146.42799377    3.57999992    2.46000004
   13.76694393  155.83000183    3.53999996    2.46000004
   13.76972198  152.47999573    3.46000004    2.48000002
   13.77305508  157.30999756    3.43000007    2.50000000
   13.77638817  159.36199951    3.23000002    2.50000000
   13.78222179  159.36199951    3.16000009    2.50000000
   13.78638935  158.70300293    2.96000004    2.50000000
   13.78972244  161.53900146    2.82999992    2.51999998
   13.79277802  159.69400024    2.71000004    2.50000000
   13.79611111  158.72300720    2.75000000    2.51999998
   13.79944515  166.71200562    2.82999992    2.51999998
   13.80027771  161.92700195    2.82999992    2.51999998
   13.80277824  163.44099426    2.89000010    2.51999998
   13.80611134  148.11300659    2.93000007    2.51999998
   13.80944443  158.13099670    2.76999998    2.51999998
   13.81250000  168.51600647    2.82999992    2.51999998
   13.81583309  160.46299744    3.07999992    2.50000000
   13.81916618  180.28999329    4.09999990    2.50000000
   13.82527733  180.28999329    4.90999985    2.36999989
   13.82916641  186.76800537    4.90999985    2.28999996
   13.83249950  177.81900024    4.90999985    2.26999998
   13.83361053  171.69700623    4.90999985    2.25000000
   13.83611107  175.87300110    4.90999985    2.25000000
   13.83944416  235.40299988    4.90999985    2.21000004
   13.84277725   -1.00000000    4.90999985    1.55999994
   13.84583282  219.19700623    4.90999985    1.33000004
   13.84916592  166.64900208    4.90999985    1.88000000
   13.85249996  178.27900696    4.90999985    2.26999998
   13.85555553  155.78199768    4.90999985    2.25000000
   13.85888958  157.42700195    4.90999985    2.51999998
   13.86194515  169.36999512    4.90999985    2.36999989
   13.86805534  169.36999512    4.90999985    2.09999990
   13.87222195  135.14599609    4.90999985    0.95999998
   13.87527752  128.96699524    4.90999985    2.36999989
   13.87861156  165.76600647    4.90999985    2.53999996
   13.88166714  161.77900696    4.90999985    2.50000000
   13.88500023  163.74899292    3.55999994    2.51999998
   13.88833332  153.09100342    3.32999992    2.53999996
   13.89138889  162.57000732    4.90999985    2.55999994
   13.89472198  173.49600220    4.90999985    2.39000010
   13.89805508  328.64401245    4.90999985    1.86000001
   13.90027714  421.14199829    4.90999985    1.89999998
   13.90138817  221.17399597    4.90999985    1.86000001
   13.90472221  196.29299927    4.90999985    1.85000002
   13.91083336  196.29299927    4.90999985    2.39000010
   13.91499996  158.62800598    4.90999985    2.50000000
   13.91805553  163.59800720    4.90999985    2.46000004
   13.92138958  167.64999390    4.90999985    2.36999989
   13.92472267  161.18600464    4.90999985    2.36999989
   13.92777824  146.82800293    4.90999985    2.46000004
   13.93111134  159.71299744    4.90999985    2.34999990
   13.93361092  169.26499939    4.90999985    2.34999990
   13.93472195  164.73500061    4.90999985    2.40000010
   13.93805599  163.02699280    4.90999985    2.32999992
   13.94138908  170.39999390    4.90999985    2.32999992
   13.94444466  165.74600220    4.90999985    2.34999990
   13.94777775  180.51300049    4.90999985    2.32999992
   13.95361137  180.51300049    4.90999985    1.98000002
   13.95777798  187.28599548    4.90999985    2.15000010
   13.96111107  164.94000244    4.90999985    2.21000004
   13.96416664  174.73199463    4.90999985    2.36999989
   13.98194408  155.95799255    4.90999985    2.34999990
   13.98416710  163.09599304    4.90999985    2.39000010
   13.98750019  171.27299500    4.90999985    2.40000010
   13.99083328  166.53100586    4.90999985    2.39000010
   13.99666691  166.53100586    4.90999985    2.21000004
   14.00083351  196.31900024    4.90999985    2.13000011
   14.00416660  207.38900757    4.90999985    2.17000008
   14.00722218  189.77200317    4.90999985    2.11999989
   14.01055527  218.87899780    4.90999985    2.09999990
   14.01361084  198.38999939    4.90999985    1.96000004
   14.01500034  252.36000061    4.90999985    2.13000011
   14.01749992  228.87399292    4.90999985    1.91999996
   14.02083302  291.29199219    4.90999985    2.03999996
   14.02388859  302.44601440    4.90999985    1.88000000
   14.02722168  205.05900574    4.90999985    2.01999998
   14.03027725  207.67199707    4.90999985    2.15000010
   14.03361130  203.02699280    4.90999985    2.03999996
   14.03944492  203.02699280    4.90999985    2.11999989
   14.04361153  233.17300415    4.90999985    2.03999996
   14.04694462  249.84899902    4.90999985    2.00000000
   14.04833412  266.58499146    4.90999985    1.94000006
   14.05055618  241.28700256    4.90999985    1.94000006
   14.05388927  213.66900635    4.90999985    1.91999996
   14.05694485  193.58299255    4.90999985    2.05999994
   14.06027794  171.48500061    4.90999985    2.05999994
   14.06361103  196.51499939    4.90999985    2.11999989
   14.06666660  202.00799561    4.90999985    2.05999994
   14.06999969  186.36599731    4.90999985    2.07999992
   14.07333374  197.07099915    4.90999985    2.09999990
   14.07638836  317.82598877    4.90999985    2.07999992
   14.08249950  317.82598877    4.90999985    2.01999998
   14.08638859  184.47799683    4.90999985    2.17000008
   14.08972168  196.31900024    4.90999985    2.23000002
   14.09305477  245.68899536    4.90999985    1.98000002
   14.09611034  227.13900757    4.90999985    1.98000002
   14.09944439  198.37899780    4.90999985    2.03999996
   14.10277843  177.77799988    4.90999985    2.17000008
   14.10583401  172.03999329    4.90999985    2.25000000
   14.10916710  166.50700378    4.90999985    2.34999990
   14.11222267  168.87300110    4.90999985    2.28999996
   14.11500072  176.40600586    4.90999985    2.32999992
   14.11583328  167.72300720    4.90999985    2.30999994
   14.11916637  178.21000671    4.90999985    2.28999996
   14.12527752  178.21000671    4.90999985    2.26999998
   14.12944412  176.67199707    4.90999985    2.11999989
   14.13249969  151.31700134    4.90999985    2.19000006
   14.13583279  165.55299377    4.90999985    2.30999994
   14.13916683  162.67599487    4.90999985    2.36999989
   14.14222240  179.79899597    4.90999985    2.30999994
   14.14555550  176.73699951    4.90999985    2.21000004
   14.14833355  166.41200256    4.90999985    2.19000006
   14.14916611  168.71299744    4.90999985    2.19000006
   14.15249920  167.42799377    4.90999985    2.15000010
   14.15555477  160.75000000    4.90999985    2.30999994
   14.15888882  176.68499756    4.90999985    2.25000000
   14.16222191  168.71099854    4.90999985    2.30999994
   14.16805553  168.71099854    4.90999985    2.46000004
   14.17222214  155.41000366    4.90999985    2.39000010
   14.17555618  163.41600037    4.90999985    2.40000010
   14.17861176  190.02200317    4.90999985    2.40000010
   14.18166733  170.58700562    4.90999985    2.21000004
   14.18222237  198.88699341    4.90999985    2.21000004
   14.18555546  171.16400146    4.90999985    2.00000000
   14.18861103  165.74200439    4.90999985    2.42000008
   14.19194412  162.12800598    4.90999985    2.40000010
   14.19527817  169.80400085    4.90999985    2.40000010
   14.19833374  143.98800659    4.90999985    2.40000010
   14.20166683  210.21400452    4.90999985    2.21000004
   14.20472240  186.60699463    4.90999985    2.01999998
   14.21083355  186.60699463    4.90999985    2.07999992
   14.21500015  178.90600586    4.90999985    2.17000008
   14.21555519  160.97900391    4.90999985    2.17000008
   14.21888828  167.70899963    4.90999985    2.36999989
   14.22194386  182.16000366    4.90999985    2.34999990
   14.22527695  175.24899292    4.90999985    2.11999989
   14.22861099  244.26100159    4.90999985    2.17000008
   14.23166656  205.36099243    4.90999985    1.88000000
   14.23500061  214.11000061    4.90999985    2.09999990
   14.23833370  184.92399597    4.90999985    2.19000006
   14.24138927  186.47000122    4.90999985    2.11999989
   14.24472237  172.66600037    4.90999985    2.23000002
   14.24777794  170.95899963    4.90999985    2.30999994
   14.24833393  172.81599426    4.90999985    2.28999996
   14.25388908  172.81599426    4.90999985    2.34999990
   14.25777817  167.14799500    4.90999985    2.34999990
   14.26111126  170.00700378    4.90999985    2.36999989
   14.26444435  159.03700256    4.90999985    2.46000004
   14.26749992  159.58000183    4.90999985    2.48000002
   14.27083302  149.15600586    3.66000009    2.53999996
   14.27416611  155.17100525    2.94000006    2.55999994
   14.27722168  155.36500549    2.78999996    2.55999994
   14.28055573  154.28599548    2.82999992    2.55999994
   14.28194427  159.93699646    2.78999996    2.55999994
   14.28416729  158.07299805    2.59999990    2.55999994
   14.28750038  159.75999451    2.53999996    2.57999992
   14.29055595  162.19400024    2.51999998    2.57999992
   14.29666710  162.19400024    3.20000005    2.53999996
   14.30083370  156.69799805    3.39000010    2.53999996
   14.30388927  156.03500366    4.11999989    2.53999996
   14.30722237  155.42300415    4.90999985    2.55999994
   14.31055546  132.98300171    4.67999983    2.32999992
   14.31361103  149.91299438    4.30999994    2.55999994
   14.31527805  144.38400269    2.98000002    2.55999994
   14.31722260  151.13000488    2.57999992    2.59999990
   14.32055569  147.63400269    2.51999998    2.57999992
   14.32361126  157.48500061    3.59999990    2.55999994
   14.32694435  159.19999695    4.90999985    2.53999996
   14.33027744  152.73599243    4.90999985    2.51999998
   14.33333302  156.41900635    4.90999985    2.48000002
   14.33944416  156.41900635    4.90999985    2.39000010
   14.34361076  173.64900208    4.90999985    2.32999992
   14.34694386  175.32400513    4.90999985    2.25000000
   14.34861088  187.13200378    4.90999985    2.23000002
   14.35027790  173.39599609    4.90999985    2.19000006
   14.35361195  173.25999451    4.90999985    2.15000010
   14.35666752  200.00700378    4.90999985    2.26999998
   14.36000061  173.79299927    4.90999985    2.19000006
   14.36333370  199.98699951    4.90999985    2.07999992
   14.36638927  271.02801514    4.90999985    2.01999998
   14.36972237  276.55300903    4.90999985    1.98000002
   14.37305546  270.13299561    4.90999985    1.91999996
   14.37611103  268.73699951    4.90999985    1.88000000
   14.38222218  268.73699951    4.90999985    1.96000004
   14.38638878  328.74899292    4.90999985    1.88000000
   14.38972187  321.47399902    4.90999985    1.88000000
   14.39277744  383.78201294    4.90999985    1.80999994
   14.39611053  366.98901367    4.90999985    1.76999998
   14.39944458  307.09500122    4.90999985    1.83000004
   14.40249920  242.80599976    4.90999985    1.91999996
   14.40583324  356.10900879    4.90999985    1.86000001
   14.40916634  230.19000244    4.90999985    1.89999998
   14.41222191  198.10499573    4.90999985    2.01999998
   14.41527748  204.86500549    4.90999985    2.09999990
   14.41583252  177.57000732    4.90999985    2.09999990
   14.41916656  148.07299805    4.90999985    2.13000011
   14.42527771  148.07299805    4.90999985    2.19000006
   14.42916679  153.11399841    4.90999985    2.23000002
   14.43249989  158.33700562    4.90999985    2.34999990
   14.43583298  159.15699768    4.90999985    2.44000006
   14.43888855  154.20599365    4.90999985    2.40000010
   14.44222260  142.16499329    4.90999985    2.44000006
   14.44555569  155.37100220    4.90999985    2.39000010
   14.44861126  159.86900330    4.90999985    2.30999994
   14.44888878  158.25700378    4.90999985    2.30999994
   14.45222187  164.88699341    4.90999985    2.19000006
   14.45527744  159.96000671    4.90999985    2.13000011
   14.45861053  154.41299438    4.90999985    2.39000010
   14.46194458  147.23100281    4.90999985    2.51999998
   14.46805477  147.23100281    4.90999985    2.53999996
   14.47222137  154.84199524    4.90999985    2.42000008
   14.47527695  147.55900574    4.90999985    2.46000004
   14.47861099  152.88200378    4.90999985    2.51999998
   14.48194408  145.71499634    4.90999985    2.55999994
   14.48222160  151.71200562    4.69999981    2.59999990
   14.48555565  143.75000000    3.23000002    2.59999990
   14.48861122  142.38400269    2.59999990    2.59999990
   14.49194431  143.13000488    1.94000006    2.59999990
   14.49527836  143.02499390    1.80999994    2.59999990
   14.49833393  145.39199829    1.78999996    2.59999990
   14.50166702  144.41499329    1.78999996    2.59999990
   14.50500011  135.11000061    1.83000004    2.61999989
   14.51083374  135.11000061    1.76999998    2.61999989
   14.51500034  142.69599915    2.07999992    2.61999989
   14.51555538  149.76600647    2.25000000    2.61999989
   14.51861095  141.51899719    2.91000009    2.57999992
   14.52194405  141.03399658    3.48000002    2.55999994
   14.52527714  143.42999268    3.73000002    2.57999992
   14.52833271  138.38200378    3.68000007    2.51999998
   14.53166676  143.60099792    3.64000010    2.55999994
   14.53500080  149.30099487    2.71000004    2.59999990
   14.53805637  144.84300232    2.11999989    2.59999990
   14.54138947  152.35000610    2.05999994    2.61999989
   14.54444504  145.67700195    1.96000004    2.59999990
   14.54777813  136.07499695    2.05999994    2.61999989
   14.54888916  143.30299377    2.13000011    2.59999990
   14.55361176  143.30299377    2.46000004    2.59999990
   14.55777836  140.40800476    4.42999983    2.61999989
   14.56111145  141.28500366    4.90999985    2.59999990
   14.56416702  139.47799683    4.21999979    2.53999996
   14.56750011  136.79299927    3.30999994    2.57999992
   14.57083321  131.63000488    2.26999998    2.59999990
   14.57416630  139.53100586    1.83000004    2.61999989
   14.57722187  143.55700684    1.83000004    2.61999989
   14.58055592  145.38999939    1.88000000    2.59999990
   14.58222198  147.36500549    1.88000000    2.59999990
   14.58416653  138.27200317    1.88000000    2.61999989
   14.58722210  139.88499451    1.86000001    2.59999990
   14.59055519  146.26899719    1.86000001    2.59999990
   14.59666634  146.26899719    2.15000010    2.61999989
   14.60055637  134.34500122    2.28999996    2.61999989
   14.60388947  147.52200317    3.95000005    2.57999992
   14.60722256  145.80900574    4.17999983    2.59999990
   14.61027813  143.20100403    4.90999985    2.51999998
   14.61361122  144.30400085    4.90999985    2.48000002
   14.61555576  140.44299316    4.90999985    2.48000002
   14.61750031  146.77799988    4.90999985    2.48000002
   14.62055588  149.57400513    4.90999985    2.42000008
   14.62388897  145.30900574    4.90999985    2.44000006
   14.62694454  154.10600281    4.90999985    2.48000002
   14.63027763  150.40899658    4.90999985    2.51999998
   14.63361073  153.11300659    4.90999985    2.51999998
   14.63944435  153.11300659    4.67999983    2.53999996
   14.64361095  138.27499390    4.48999977    2.55999994
   14.64666653  147.69999695    4.46999979    2.53999996
   14.64888859  149.55799866    4.44999981    2.55999994
   14.65055561  147.35699463    4.46999979    2.53999996
   14.65361118  150.49699402    4.42999983    2.51999998
   14.65694427  148.86799622    4.42999983    2.57999992
   14.65999985  145.50799561    4.32999992    2.55999994
   14.66333294  156.11399841    4.30999994    2.55999994
   14.66694450  140.35699463    4.17999983    2.55999994
   14.67027855  156.28599548    4.19999981    2.53999996
   14.67333412  143.40400696    4.46999979    2.53999996
   14.67666721  149.64599609    4.61999989    2.55999994
   14.68222237  149.64599609    4.90999985    2.51999998
   14.68638897  144.13699341    4.90999985    2.51999998
   14.68972206  145.59899902    4.90999985    2.48000002
   14.69277763  141.68899536    4.90999985    2.50000000
   14.69611073  147.38800049    4.82999992    2.53999996
   14.69916630  152.85899353    4.28999996    2.57999992
   14.70249939  151.18299866    4.19999981    2.51999998
   14.70583344  148.49899292    3.51999998    2.55999994
   14.70888901  148.83399963    2.73000002    2.59999990
   14.71222210  148.27799988    2.44000006    2.61999989
   14.71555519  135.93400574    2.55999994    2.59999990
   14.71583271  143.38800049    2.55999994    2.59999990
   14.71916580  138.94500732    2.84999990    2.57999992
   14.72499943  138.94500732    3.39000010    2.55999994
   14.72916603  147.68200684    3.72000003    2.55999994
   14.73249912  144.34800720    3.95000005    2.55999994
   14.73555565  136.87800598    4.21999979    2.53999996
   14.73888874  147.91000366    4.17999983    2.53999996
   14.74222279  136.21499634    4.01999998    2.53999996
   14.74527836  143.85800171    3.82999992    2.57999992
   14.74861145  143.71800232    3.59999990    2.57999992
   14.74916649  136.67100525    3.53999996    2.57999992
   14.75222206  145.18899536    3.55999994    2.57999992
   14.75555515  147.99800110    3.50000000    2.57999992
   14.75861073  131.61199951    3.41000009    2.57999992
   14.76194477  142.98899841    3.48000002    2.57999992
   14.76805496  142.98899841    3.59999990    2.57999992
   14.77194405  143.91099548    3.51999998    2.57999992
   14.77527714  141.23599243    3.41000009    2.57999992
   14.77861118  146.31100464    3.36999989    2.57999992
   14.78166676  138.55599976    3.32999992    2.57999992
   14.78277779  144.24400330    3.30999994    2.57999992
   14.78527832  151.03100586    3.34999990    2.59999990
   14.78861141  145.75999451    3.39000010    2.59999990
   14.79166698  141.50700378    3.45000005    2.57999992
   14.79500008  146.05299377    3.36999989    2.57999992
   14.79833412  139.00399780    3.23000002    2.57999992
   14.80138874  140.61700439    3.20000005    2.57999992
   14.80472279  148.18400574    3.09999990    2.59999990
   14.81083393  148.18400574    2.94000006    2.59999990
   14.81500053  141.75599670    2.91000009    2.59999990
   14.81611156  140.87800598    2.93000007    2.59999990
   14.81861115  142.07400513    2.91000009    2.59999990
   14.82194424  144.70199585    2.86999989    2.59999990
   14.82499981  138.58700562    2.75000000    2.61999989
   14.82833290  149.86000061    2.66000009    2.61999989
   14.83166695  144.53500366    2.61999989    2.59999990
   14.83472157  141.28300476    2.61999989    2.59999990
   14.83805561  139.48500061    2.64000010    2.59999990
   14.84138870  157.23300171    2.64000010    2.61999989
   14.84444427  151.09199524    2.61999989    2.61999989
   14.84777737  142.02600098    2.46000004    2.61999989
   14.84944439  146.32699585    2.39000010    2.61999989
   14.85361195  146.32699585    2.25000000    2.61999989
   14.85777855  142.44700623    2.15000010    2.64000010
   14.86111164  138.44900513    2.13000011    2.61999989
   14.86416721  144.19999695    2.15000010    2.64000010
   14.86750031  140.18499756    2.11999989    2.64000010
   14.87055588  145.09599304    2.09999990    2.61999989
   14.87388897  139.27600098    2.05999994    2.64000010
   14.87722206  138.86199951    2.01999998    2.64000010
   14.88027763  147.76300049    2.00000000    2.61999989
   14.88277817  137.23399353    2.00000000    2.61999989
   14.88388920  138.59599304    1.98000002    2.61999989
   14.88722229  145.16900635    1.98000002    2.61999989
   14.89027786  131.34500122    1.94000006    2.61999989
   14.89638901  131.34500122    1.89999998    2.64000010
   14.90055561  144.98399353    1.89999998    2.64000010
   14.90388870  141.37199402    1.96000004    2.64000010
   14.90722179  140.34700012    2.11999989    2.61999989
   14.91027737  138.66400146    2.11999989    2.64000010
   14.91361046  137.24800110    2.07999992    2.61999989
   14.91611099  139.63699341    2.03999996    2.61999989
   14.91722298  142.06300354    2.03999996    2.64000010
   14.92055607  138.73500061    2.01999998    2.61999989
   14.92361164  141.28999329    2.00000000    2.61999989
   14.92694473  142.45799255    2.00000000    2.64000010
   14.93027782  150.16600037    2.05999994    2.64000010
   14.93333340  148.52799988    2.15000010    2.64000010
   14.93944454  148.52799988    2.36999989    2.64000010
   14.94333363  133.40199280    2.59999990    2.61999989
   14.94666672  145.11099243    2.80999994    2.61999989
   14.94944477  147.55999756    2.80999994    2.59999990
   14.95027733  141.41000366    2.84999990    2.61999989
   14.95361137  138.81799316    2.94000006    2.59999990
   14.95666695  145.66099548    2.84999990    2.61999989
   14.96000004  148.73399353    2.78999996    2.64000010
   14.96333313  134.16799927    2.86999989    2.61999989
   14.96638870  146.17900085    2.93000007    2.61999989
   14.96972179  152.18400574    2.91000009    2.61999989
   14.97305489  142.43899536    2.93000007    2.61999989
   14.97611046  146.94599915    2.96000004    2.61999989
   14.98222160  146.94599915    3.18000007    2.59999990
   15.00055599  128.26600647    3.73000002    2.61999989
   15.00388908  131.53399658    3.99000001    2.59999990
   15.00694466  136.48399353    4.36999989    2.59999990
   15.01027775  142.67900085    4.78000021    2.57999992
   15.01416683  129.36300659    4.90999985    2.57999992
   15.01749992  144.59399414    4.90999985    2.55999994
   15.02055550  134.79100037    4.90999985    2.57999992
   15.02555561  134.79100037    4.90999985    2.57999992
   15.02972221  133.26300049    4.90999985    2.55999994
   15.03277779  134.27000427    4.86999989    2.57999992
   15.03361130  139.32000732    4.86999989    2.57999992
   15.03666687  139.91099548    4.80000019    2.57999992
   15.03972244  147.08099365    4.76000023    2.57999992
   15.04305553  135.29299927    4.90999985    2.57999992
   15.04611111  136.74200439    4.90999985    2.53999996
   15.04944515  137.25399780    4.90999985    2.55999994
   15.05277824  142.26300049    4.57999992    2.57999992
   15.05583382  132.63099670    4.21999979    2.59999990
   15.05916691  133.02999878    3.91000009    2.59999990
   15.06250000  133.85800171    3.76999998    2.59999990
   15.06861115  133.85800171    3.82999992    2.59999990
   15.07277775  131.28900146    3.76999998    2.61999989
   15.07611084  130.04400635    3.68000007    2.61999989
   15.07916641  136.27400208    3.48000002    2.61999989
   15.08249950  140.85400391    3.30999994    2.61999989
   15.08583260  122.18599701    3.39000010    2.61999989
   15.08916664  133.30200195    3.01999998    2.61999989
   15.09222221  135.07499695    2.94000006    2.61999989
   15.09555531  137.23199463    2.96000004    2.61999989
   15.09861088  125.24400330    3.03999996    2.64000010
   15.10027790  126.34300232    3.09999990    2.64000010
   15.10249996  129.80400085    3.45000005    2.61999989
   15.10555553  123.70800018    4.90999985    2.64000010
   15.11083412  123.70800018    4.90999985    2.59999990
   15.11500072  138.94999695    3.46000004    2.59999990
   15.11833382  134.62699890    3.18000007    2.61999989
   15.12138939  136.19299316    2.96000004    2.61999989
   15.12472248  126.63500214    3.01999998    2.61999989
   15.12805557  134.28799438    3.26999998    2.61999989
   15.13111115  132.80299377    3.48000002    2.61999989
   15.13361073  132.38200378    3.55999994    2.59999990
   15.13500023  125.20899963    3.51999998    2.59999990
   15.13805580  132.55999756    3.55999994    2.61999989
   15.14138889  133.53399658    3.61999989    2.61999989
   15.14472198  135.48399353    4.00000000    2.59999990
   15.14777756  138.45700073    4.23999977    2.57999992
   15.15388870  138.45700073    4.46999979    2.57999992
   15.15805531  130.07000732    4.71999979    2.57999992
   15.16111088  137.98599243    4.86999989    2.55999994
   15.16444397  131.03799438    4.90999985    2.55999994
   15.16694450  133.94299316    4.73999977    2.55999994
   15.16805553  134.38099670    4.73999977    2.55999994
   15.17111111  126.92600250    4.82999992    2.53999996
   15.17444515  132.72700500    4.90999985    2.55999994
   15.17777824  125.18900299    4.90999985    2.53999996
   15.18083382  133.69799805    4.90999985    2.55999994
   15.18416691  134.58200073    4.90999985    2.53999996
   15.18722248  143.05900574    4.90999985    2.55999994
   15.19055557  134.80499268    4.90999985    2.53999996
   15.19666672  134.80499268    4.90999985    2.51999998
   15.20083332  129.42799377    4.90999985    2.50000000
   15.31055546   -1.00000000   -1.00000000   -1.00000000
   15.40138817   -1.00000000   -1.00000000   -1.00000000
   15.53611183   -1.00000000   -1.00000000   -1.00000000
   15.64999962   -1.00000000   -1.00000000   -1.00000000
   15.70361137  130.58399963    2.93000007    2.64000010
   15.70666695  137.92799377    3.50000000    2.61999989
   15.71000004  134.81199646    3.70000005    2.64000010
   15.71333313  140.95599365    3.89000010    2.61999989
   15.71638870  139.80400085    3.84999990    2.59999990
   15.71972179  139.75000000    3.30999994    2.59999990
   15.72388840  139.75000000    2.67000008    2.61999989
   15.72805500  141.47000122    2.15000010    2.64000010
   15.73111057  139.97700500    1.88000000    2.67000008
   15.73444462  145.87600708    2.40000010    2.66000009
   15.73666668  141.49800110    3.26999998    2.61999989
   15.73805618  143.99800110    3.61999989    2.57999992
   15.74138927  137.18600464    4.13999987    2.59999990
   15.74444485  138.83099365    4.40999985    2.55999994
   15.74777794  148.00399780    4.90999985    2.48000002
   15.75083351  152.21499634    4.90999985    2.26999998
   15.75416660  231.41400146    4.90999985    2.25000000
   15.75749969  154.61700439    4.90999985    2.07999992
   15.76055527  140.82499695    4.90999985    2.50000000
   15.76666641  140.82499695    4.90999985    2.51999998
   15.77083302  156.30299377    4.90999985    2.44000006
   15.77388859  150.64999390    4.90999985    2.39000010
   15.77722168  157.26400757    4.90999985    2.46000004
   15.78055573  154.89700317    4.90999985    2.36999989
   15.78361130  146.76800537    4.90999985    2.39000010
   15.78694534  158.15699768    4.90999985    2.36999989
   15.79027843  303.04098511    4.90999985    2.15000010
   15.79333401  205.14799500    4.90999985    1.89999998
   15.79666710  262.03399658    4.90999985    2.07999992
   15.79972267  232.00700378    4.90999985    1.91999996
   15.80305576  180.09599304    4.90999985    1.78999996
   15.80361176  183.48899841    4.90999985    1.78999996
   15.80944443  183.48899841    4.90999985    2.11999989
   15.81361103  213.24499512    4.90999985    2.17000008
   15.81694412  247.29400635    4.90999985    2.09999990
   15.81999969  334.74200439    4.90999985    1.89999998
   15.82333374  406.48001099    4.90999985    1.86000001
   15.82527733  253.07400513    4.90999985    1.80999994
   15.82555580  213.24499512    4.90999985    2.17000008
   15.82555580  247.29400635    4.90999985    2.09999990
   15.82555580  334.74200439    4.90999985    1.89999998
   15.82583332  406.48001099    4.90999985    1.86000001
   15.82583332  303.04098511    4.90999985    2.15000010
   15.82583332  205.14799500    4.90999985    1.89999998
   15.82611084  262.03399658    4.90999985    2.07999992
   15.82611084  232.00700378    4.90999985    1.91999996
   15.82611084  180.09599304    4.90999985    1.78999996
   15.82805538  341.32000732    4.90999985    1.91999996
   15.83138847  380.59100342    4.90999985    1.69000006
   15.83472157  103.82900238    4.90999985    1.66999996
   15.83777714   52.33649826    4.90999985    1.58000004
   15.84111118  175.61700439    4.90999985    1.53999996
   15.84611034  175.61700439    4.90999985    2.21000004
   15.85027790  171.80200195    4.90999985    2.19000006
   15.85361195  182.47099304    4.90999985    2.15000010
   15.85666752  174.38800049    4.90999985    2.07999992
   15.85916710  189.68200684    4.90999985    2.11999989
   15.86055565  181.18400574    4.90999985    2.13000011
   15.86361122  191.35000610    4.90999985    2.07999992
   15.86694431  157.23199463    4.90999985    2.17000008
   15.87027836  167.62100220    4.90999985    2.21000004
   15.87333393  289.44198608    4.90999985    2.19000006
   15.87666702  285.27801514    4.90999985    1.78999996
   15.88000011  218.70100403    4.90999985    2.01999998
   15.88305569  166.72500610    4.90999985    2.05999994
   15.88888836  166.72500610    4.90999985    2.28999996
   15.89305496  142.84300232    4.90999985    2.50000000
   15.89638901  158.22799683    4.90999985    2.34999990
   15.89972210  185.01100159    4.90999985    2.26999998
   15.90277767  225.76699829    4.90999985    2.00000000
   15.90611076  179.48399353    4.90999985    1.98000002
   15.90944386  191.55400085    4.90999985    2.17000008
   15.91249943  291.57501221    4.90999985    1.91999996
   15.91583252   94.16629791    4.90999985    1.66999996
   15.91916656  164.16999817    4.90999985    1.61000001
   15.92222214  393.47799683    4.90999985    1.75000000
   15.92555618  368.65600586    4.90999985    1.86000001
   15.92611122  364.35101318    4.90999985    1.86000001
   15.93194485  364.35101318    4.90999985    1.88000000
   15.93611145  195.84500122    4.90999985    2.01999998
   15.93916702  186.08299255    4.90999985    1.91999996
   15.94250011  182.93899536    4.90999985    2.01999998
   15.94555569  219.77000427    4.90999985    1.89999998
   15.94888878  367.45700073    4.90999985    1.86000001
   15.95222187  212.30599976    4.90999985    1.83000004
   15.95527744  198.84399414    4.90999985    1.98000002
   15.95861053  164.62199402    4.90999985    2.07999992
   15.95944405  182.36000061    4.90999985    2.07999992
   15.96222210  187.64700317    4.90999985    2.03999996
   15.96555519  218.58500671    4.90999985    1.76999998
   15.96888828  144.90100098    4.90999985    2.17000008
   15.97472191  144.90100098    4.90999985    2.36999989
   15.97888851  162.01699829    4.90999985    2.13000011
   15.98194408  152.48800659    4.90999985    2.30999994
   15.98527813  204.13999939    4.90999985    1.94000006
   15.98861122  158.97399902    4.90999985    2.13000011
   15.99194431  151.44099426    4.90999985    2.55999994
   15.99277782  152.27699280    4.90999985    2.55999994
   15.99527836  150.61399841    4.90999985    2.57999992
   15.99861145  177.78599548    4.90999985    2.21000004
   16.00194359  154.88200378    4.90999985    2.15000010
   16.00499916   84.74539948    4.90999985    1.91999996
   16.00833321  128.96499634    4.90999985    1.78999996
   16.01166725  195.64500427    4.90999985    1.80999994
   16.01749992  195.64500427    4.90999985    2.17000008
   16.02166557  187.65600586    4.90999985    2.23000002
   16.02499962  187.17100525    4.90999985    2.00000000
   16.02611160  165.86700439    4.90999985    1.98000002
   16.02833366  198.57499695    4.90999985    2.13000011
   16.03166580  177.00999451    4.90999985    1.91999996
   16.03499985  154.94400024    4.90999985    2.15000010
   16.03805542  171.16499329    4.90999985    2.25000000
   16.04138756  202.62500000    4.90999985    1.94000006
   16.04472160  192.36900330    4.90999985    2.00000000
   16.04777718  181.98899841    4.90999985    1.98000002
   16.05111122  213.35099792    4.90999985    2.01999998
   16.05416679  189.69799805    4.90999985    1.96000004
   16.06027794  189.69799805    4.90999985    2.07999992
   16.06444359  143.49000549    4.90999985    2.42000008
   16.06777954  135.25999451    4.90999985    2.48000002
   16.07083511  149.52299500    4.90999985    2.48000002
   16.07416725  164.35400391    4.90999985    2.28999996
   16.07750130  132.42100525    4.90999985    2.21000004
   16.08055687  145.13400269    4.90999985    2.25000000
   16.08388901  183.38200378    4.90999985    2.09999990
   16.08722305  146.20199585    4.90999985    2.07999992
   16.09027863  155.37899780    4.90999985    2.13000011
   16.09277916  182.20100403    4.90999985    2.09999990
   16.09388924  147.83000183    4.90999985    2.05999994
   16.09722328  182.53799438    4.90999985    2.09999990
   16.10333443  182.53799438    4.90999985    1.83000004
   16.10722351  186.94400024    4.90999985    1.94000006
   16.11055565  142.03700256    4.90999985    2.13000011
   16.11388969  149.36399841    4.90999985    2.26999998
   16.11694527  131.21499634    4.90999985    2.34999990
   16.12027740  140.00000000    4.90999985    2.30999994
   16.12361145  156.89599609    4.90999985    2.28999996
   16.12611198  184.12300110    4.90999985    2.13000011
   16.12694550  183.38000488    4.90999985    2.03999996
   16.13027763  314.83898926    4.90999985    1.94000006
   16.13361168  208.96400452    4.90999985    1.76999998
   16.13666725  186.61399841    4.90999985    2.09999990
   16.13999939  175.09700012    4.90999985    2.13000011
   16.14611053  175.09700012    4.90999985    2.05999994
   16.15027809  212.45799255    4.90999985    2.01999998
   16.15333366  186.03900146    4.90999985    1.94000006
   16.15666580  214.85000610    4.90999985    1.98000002
   16.15944481  192.25799561    4.90999985    1.96000004
   16.16027832  169.43600464    4.90999985    2.01999998
   16.16361046  168.69999695    4.90999985    2.11999989
   16.16694450  179.13499451    4.90999985    2.13000011
   16.17000008  188.85800171    4.90999985    2.07999992
   16.17333221  213.69999695    4.90999985    1.85000002
   16.17666626  156.29400635    4.90999985    2.13000011
   16.17972183  146.01100159    4.90999985    2.15000010
   16.18305397  157.65800476    4.90999985    2.19000006
   16.18888855  157.65800476    4.90999985    2.23000002
   16.19305420  143.22200012    4.90999985    2.26999998
   16.19638824  143.67100525    4.90999985    2.32999992
   16.19944382  139.57299805    4.90999985    2.36999989
   16.20277786  146.60299683    4.90999985    2.32999992
   16.20583344  133.72799683    4.90999985    2.25000000
   16.20916748  141.30200195    4.90999985    2.36999989
   16.21250153  137.35499573    4.90999985    2.36999989
   16.21555710  131.39100647    4.90999985    2.39000010
   16.21888924  131.89900208    4.90999985    2.40000010
   16.22222328  130.39799500    4.90999985    2.42000008
   16.22527885  137.23300171    4.90999985    2.44000006
   16.22611237  127.27600098    4.90999985    2.44000006
   16.23166656  127.27600098    4.90999985    2.46000004
   16.23583412  132.50500488    4.90999985    2.44000006
   16.23916626  135.56700134    4.90999985    2.44000006
   16.24222183  138.17900085    4.90999985    2.48000002
   16.24555588  134.71400452    4.90999985    2.50000000
   16.24888992  139.14599609    4.90999985    2.46000004
   16.25194359  135.31199646    4.90999985    2.46000004
   16.25527763  131.36599731    4.90999985    2.44000006
   16.25861168  137.30599976    4.90999985    2.44000006
   16.25944519  142.46800232    4.90999985    2.44000006
   16.26222229  140.70300293    4.90999985    2.44000006
   16.26527786  130.94400024    4.90999985    2.46000004
   16.26861000  134.19400024    4.90999985    2.48000002
   16.27472115  134.19400024    4.90999985    2.51999998
   16.27861023  134.08299255    4.90999985    2.53999996
   16.28194427  142.22200012    4.88999987    2.53999996
   16.28527641  123.43199921    4.90999985    2.53999996
   16.28833199  131.19000244    4.90999985    2.50000000
   16.29166603  133.22999573    4.90999985    2.46000004
   16.29277802  138.83200073    4.90999985    2.40000010
   16.29527664  139.85699463    4.90999985    2.25000000
   16.29833221  144.19000244    4.90999985    2.32999992
   16.30166626  133.56500244    4.90999985    2.30999994
   16.30472183  132.76499939    4.90999985    2.53999996
   16.30805397  128.61199951    4.42999983    2.53999996
   16.31138802  128.48199463    4.46999979    2.57999992
   16.31750107  128.48199463    4.90999985    2.46000004
   16.32166672  138.21000671    4.90999985    2.36999989
   16.32472229  139.69900513    4.90999985    2.46000004
   16.32611275  140.94700623    4.90999985    2.50000000
   16.32861137  131.86500549    4.90999985    2.51999998
   16.33166695  138.01699829    4.90999985    2.50000000
   16.33500099  136.64700317    4.90999985    2.48000002
   16.33805656  137.72000122    4.90999985    2.39000010
   16.34138870  135.42700195    4.90999985    2.51999998
   16.34472275  140.58900452    4.90999985    2.48000002
   16.34777832  134.15800476    4.90999985    2.34999990
   16.35111237  134.98899841    4.90999985    2.46000004
   16.35444450  134.31399536    4.90999985    2.51999998
   16.36027908  134.31399536    4.90999985    2.59999990
   16.36444473  136.69099426    4.90999985    2.40000010
   16.36777878  139.30400085    4.90999985    2.42000008
   16.37083435  138.35000610    4.90999985    2.42000008
   16.37416649  136.17999268    4.90999985    2.39000010
   16.37722206  137.19599915    4.90999985    2.40000010
   16.38055611  133.29299927    4.90999985    2.42000008
   16.38388824  129.02799988    4.90999985    2.48000002
   16.38694382  129.83399963    4.90999985    2.53999996
   16.39027786  129.97900391    4.90999985    2.55999994
   16.39277840  129.17900085    4.90999985    2.50000000
   16.39388847  133.20899963    4.90999985    2.42000008
   16.39694405  130.25599670    4.90999985    2.30999994
   16.40305519  130.25599670    4.90999985    2.30999994
   16.40722275  135.10600281    4.90999985    2.44000006
   16.41055489  127.12300110    4.90999985    2.42000008
   16.41361046  134.77499390    4.90999985    2.39000010
   16.41694450  143.85899353    4.90999985    2.40000010
   16.42027664  133.67199707    4.90999985    2.34999990
   16.42333221  128.79800415    4.90999985    2.40000010
   16.42611122  143.74200439    4.90999985    2.48000002
   16.42722130  135.11099243    4.90999985    2.48000002
   16.43027687  127.65799713    4.90999985    2.48000002
   16.43361092  135.46299744    4.90999985    2.50000000
   16.43666649  139.13800049    4.90999985    2.48000002
   16.43999863  136.95599365    4.90999985    2.50000000
   16.44610977  136.95599365    4.90999985    2.46000004
   16.45000076  145.40199280    4.90999985    2.46000004
   16.45333481  143.60400391    4.90999985    2.40000010
   16.45666695  139.38999939    4.90999985    2.46000004
   16.45944595  142.49000549    4.90999985    2.46000004
   16.46027946  137.66099548    4.90999985    2.46000004
   16.46333504  142.55299377    4.90999985    2.48000002
   16.46666718  137.44299316    4.90999985    2.46000004
   16.46972275  145.10400391    4.90999985    2.46000004
   16.47305679  143.75199890    4.90999985    2.46000004
   16.47638893  137.07600403    4.90999985    2.46000004
   16.47944450  135.28399658    4.90999985    2.50000000
   16.48277855  133.73199463    4.82999992    2.53999996
   16.48888969  133.73199463    4.55999994    2.57999992
   16.49305534  134.52400208    4.59999990    2.55999994
   16.49611092  124.09300232    3.82999992    2.57999992
   16.49944496  131.77600098    3.55999994    2.57999992
   16.50277710  131.68600464    3.51999998    2.59999990
   16.50583267  147.60800171    3.57999992    2.57999992
   16.50916672  136.49299622    3.30999994    2.59999990
   16.51222229  133.11099243    3.09999990    2.61999989
   16.51555634  133.80200195    3.00000000    2.61999989
   16.51888847  129.42399597    3.09999990    2.64000010
   16.52194405  127.74199677    3.07999992    2.59999990
   16.52527809  139.15400696    2.82999992    2.64000010
   16.52611160  130.03399658    2.73000002    2.64000010
   16.53166580  130.03399658    3.03999996    2.59999990
   16.53583336  126.36900330    3.20000005    2.61999989
   16.53916550  131.82699585    2.86999989    2.61999989
   16.54222107  126.98999786    2.78999996    2.61999989
   16.54555511  127.23899841    2.76999998    2.61999989
   16.54861069  124.75499725    3.25000000    2.57999992
   16.55194283  117.93900299    3.93000007    2.57999992
   16.55527687  129.54400635    4.21999979    2.55999994
   16.55833244  128.53900146    4.28999996    2.51999998
   16.55944443  130.07299805    4.23999977    2.53999996
   16.56222153  128.67199707    3.91000009    2.59999990
   16.56527710  125.12999725    3.28999996    2.59999990
   16.56861115  119.80899811    2.76999998    2.61999989
   16.57444572  119.80899811    2.32999992    2.64000010
   16.57861137  121.70500183    2.48000002    2.64000010
   16.58194542  126.73000336    2.55999994    2.64000010
   16.58500099  122.81999969    2.67000008    2.64000010
   16.58833313  118.94100189    2.64000010    2.64000010
   16.59166718  123.05400085    2.69000006    2.64000010
   16.59277916  123.83499908    2.69000006    2.61999989
   16.59527779  125.75099945    2.69000006    2.66000009
   16.59833336  126.53099823    2.55999994    2.64000010
   16.60166740  130.12500000    2.32999992    2.64000010
   16.60499954  123.76100159    2.17000008    2.66000009
   16.60805511  131.54299927    2.13000011    2.64000010
   16.61138916  130.79800415    1.91999996    2.66000009
   16.61750031  130.79800415    1.75000000    2.67000008
   16.62138939  119.69899750    1.60000002    2.67000008
   16.62472153  127.29900360    1.50000000    2.67000008
   16.62611198  128.95300293    1.51999998    2.69000006
   16.62833405  119.89399719    1.51999998    2.67000008
   16.63138962  128.74800110    1.60000002    2.67000008
   16.63472176  125.78800201    1.28999996    2.69000006
   16.63805580  125.81700134    1.30999994    2.69000006
   16.64111137  123.29799652    1.48000002    2.67000008
   16.64444351  128.19999695    1.53999996    2.69000006
   16.64749908  124.57700348    1.55999994    2.69000006
   16.65083313  128.03900146    1.60000002    2.67000008
   16.65416718  127.73100281    2.19000006    2.66000009
   16.66027832  127.73100281    4.90999985    2.57999992
   16.66444397  132.06900024    4.90999985    2.55999994
   16.66749954  139.52299500    4.90999985    2.42000008
   16.67083359  148.60400391    4.90999985    2.44000006
   16.67416573  145.33299255    4.90999985    2.34999990
   16.67722130  153.82099915    4.90999985    2.23000002
   16.68055534  186.80200195    4.90999985    2.19000006
   16.68361092  229.15100098    4.90999985    1.94000006
   16.68694305  297.55899048    4.90999985    1.83000004
   16.69027710  240.54299927    4.90999985    1.89999998
   16.69277763  174.95399475    4.90999985    1.91999996
   16.69388771  159.98800659    4.90999985    2.01999998
   16.69694328  153.03799438    4.90999985    2.15000010
   16.70305634  153.03799438    4.90999985    2.40000010
   16.72138977  128.84399414    4.90999985    2.53999996
   16.72472191  129.83399963    4.90999985    2.57999992
   16.72611237  132.81799316    4.86999989    2.61999989
   16.72833443  122.80699921    3.59999990    2.64000010
   16.73139000  128.60600281    2.36999989    2.67000008
   16.73472214  126.70800018    2.66000009    2.66000009
   16.73805618  126.68800354    2.82999992    2.67000008
   16.74111176  123.15799713    3.00000000    2.67000008
   16.74611092  123.15799713    4.38999987    2.61999989
   16.75027847  119.93399811    4.11999989    2.61999989
   16.75361061  117.06300354    4.26000023    2.66000009
   16.75666618  123.48999786    4.90999985    2.64000010
   16.75944519  135.86300659    4.90999985    2.48000002
   16.76055527  132.30400085    4.90999985    2.44000006
   16.76361084  131.69700623    4.90999985    2.40000010
   16.76694489  147.33999634    4.90999985    2.40000010
   16.77027702  163.95199585    4.90999985    2.21000004
   16.77333260  138.90499878    4.90999985    2.28999996
   16.77666664  154.72000122    4.90999985    2.28999996
   16.78000069  134.83900452    4.90999985    2.36999989
   16.78305435  133.13200378    4.90999985    2.51999998
   16.78888893  133.13200378    4.90999985    2.32999992
   16.79305458  134.19000244    4.90999985    2.53999996
   16.79638863  123.98699951    4.90999985    2.51999998
   16.79972076  138.35099792    4.90999985    2.51999998
   16.80277634  136.34700012    4.90999985    2.50000000
   16.80611038  137.40600586    4.90999985    2.48000002
   16.80916595  132.40299988    4.90999985    2.44000006
   16.81250000  145.76199341    4.90999985    2.39000010
   16.81583214  147.29800415    4.90999985    2.30999994
   16.81888962  152.06199646    4.90999985    2.26999998
   16.82222366  155.21499634    4.90999985    2.23000002
   16.82555580  165.48500061    4.90999985    2.25000000
   16.82611275  178.40800476    4.90999985    2.19000006
   16.83194542  178.40800476    4.90999985    2.00000000
   16.83611107  141.77799988    4.90999985    2.36999989
   16.83944511  126.11699677    4.90999985    2.36999989
   16.84250069  154.05200195    4.90999985    2.36999989
   16.84583473  143.65699768    4.90999985    2.36999989
   16.84916687  218.02600098    4.90999985    2.13000011
   16.85222244  154.33999634    4.90999985    2.05999994
   16.85555649  141.36900330    4.90999985    2.25000000
   16.85888863  140.83999634    4.90999985    2.30999994
   16.85944557  138.36399841    4.90999985    2.28999996
   16.86250114  133.91200256    4.90999985    2.30999994
   16.86583328  154.58500671    4.90999985    2.15000010
   16.86888885  137.85099792    4.90999985    2.11999989
   16.87472153  137.85099792    4.90999985    2.39000010
   16.87888908  134.98599243    4.90999985    2.30999994
   16.88194466  139.10699463    4.90999985    2.32999992
   16.88527679  139.16099548    4.90999985    2.34999990
   16.88861084  135.93899536    4.90999985    2.42000008
   16.89166641  143.74000549    4.90999985    2.42000008
   16.89277840  130.83999634    4.90999985    2.53999996
   16.89527702  121.07900238    4.90999985    2.61999989
   16.89861107  120.64800262    4.90999985    2.53999996
   16.90166664  125.57499695    4.90999985    2.57999992
   16.90499878  129.72300720    4.90999985    2.50000000
   16.90805435  130.98399353    4.90999985    2.51999998
   16.91138840  133.90400696    4.90999985    2.50000000
   16.91749954  133.90400696    4.90999985    2.59999990
   16.92166519  120.93699646    4.42999983    2.59999990
   16.92499924  132.41999817    2.84999990    2.66000009
   16.92611122  124.77100372    2.48000002    2.67000008
   16.92860985  125.61399841    2.28999996    2.66000009
   16.93194389  122.86699677    2.48000002    2.67000008
   16.93499947  126.36799622    2.91000009    2.64000010
   16.93833160  117.67299652    2.86999989    2.67000008
   16.94166565  122.44000244    2.61999989    2.67000008
   16.94472122  122.73899841    4.90999985    2.66000009
   16.94805527  115.81900024    4.90999985    2.36999989
   16.95111275  121.81900024    4.90999985    2.53999996
   16.95444489  121.90699768    4.90999985    2.66000009
   16.96027946  121.90699768    4.90999985    2.23000002
   16.96444511  144.96000671    4.90999985    2.40000010
   16.96777916  146.27499390    4.90999985    2.17000008
   16.97111130  187.50300598    4.90999985    2.09999990
   16.97416687  280.83200073    4.90999985    1.98000002
   16.97750092  147.61099243    4.90999985    2.17000008
   16.98055649  161.74899292    4.90999985    2.28999996
   16.98388863  138.33999634    4.90999985    2.32999992
   16.98722267  147.82200623    4.90999985    2.34999990
   16.99027824  144.20500183    4.90999985    2.28999996
   16.99277878  165.56799316    4.90999985    2.21000004
   16.99388885  171.59300232    4.90999985    2.23000002
   16.99722290  146.16999817    4.90999985    1.96000004
   17.00333405  146.16999817    4.90999985    1.94000006
   17.00749969  142.22700500    4.90999985    2.15000010
   17.01055527  133.33200073    4.90999985    2.13000011
   17.01388931  156.23599243    4.90999985    2.39000010
   17.01694489  133.66499329    4.90999985    2.32999992
   17.02027702  135.75799561    4.90999985    2.44000006
   17.02361107  152.17700195    4.90999985    2.26999998
   17.02611160  198.07499695    4.90999985    2.23000002
   17.02722168  219.44099426    4.90999985    1.83000004
   17.03055573  304.68798828    4.90999985    1.98000002
   17.03361130  171.05999756    4.90999985    2.13000011
   17.03694344  314.74499512    4.90999985    2.01999998
   17.03999901  232.62800598    4.90999985    1.71000004
   17.04611015  232.62800598    4.90999985    2.30999994
   17.05027771  138.45500183    4.90999985    2.48000002
   17.05333328  147.87600708    4.90999985    2.46000004
   17.05666542  136.82600403    4.90999985    2.36999989
   17.05944443  132.60800171    4.90999985    2.61999989
   17.06027794  135.08900452    4.90999985    2.61999989
   17.06361008  155.96699524    4.90999985    2.57999992
   17.06666756  133.83299255    4.90999985    2.40000010
   17.07000160  134.73100281    4.90999985    2.50000000
   17.07305717  159.78799438    4.90999985    2.23000002
   17.07638931  144.70399475    4.90999985    2.40000010
   17.07972336  157.60400391    4.90999985    2.28999996
   17.08277893  158.34700012    4.90999985    2.21000004
   17.08889008  158.34700012    4.90999985    2.25000000
   17.09305573  220.67500305    4.90999985    2.26999998
   17.09638977   82.03720093    4.90999985    1.89999998
   17.09944534  107.30300140    4.90999985    1.66999996
   17.10277748   -1.00000000    4.90999985    1.61000001
   17.10611153  110.15799713    4.90999985    1.46000004
   17.10916710  140.68699646    4.90999985    1.64999998
   17.11250114  224.40600586    4.90999985    1.86000001
   17.11583328  242.35499573    4.90999985    2.01999998
   17.11888885  194.92199707    4.90999985    1.91999996
   17.12222290  244.69299316    4.90999985    2.00000000
   17.12527847  188.02799988    4.90999985    1.89999998
   17.12611198  177.41700745    4.90999985    1.98000002
   17.13166618  177.41700745    4.90999985    1.88000000
   17.13583374  145.91400146    4.90999985    2.28999996
   17.13916588  184.78399658    4.90999985    2.23000002
   17.14249992  207.29899597    4.90999985    2.00000000
   17.14555550  203.89300537    4.90999985    2.07999992
   17.14888954  203.95500183    4.90999985    2.19000006
   17.15194321  169.90600586    4.90999985    1.78999996
   17.15527725  160.08999634    4.90999985    2.30999994
   17.15861130  207.75900269    4.90999985    2.28999996
   17.15944481  183.58000183    4.90999985    2.01999998
   17.16222191  172.33500671    4.90999985    1.76999998
   17.16555595  167.76100159    4.90999985    2.28999996
   17.16860962  248.85099792    4.90999985    2.23000002
   17.17860985   -1.00000000    4.90999985    1.26999998
   17.18194389   -1.00000000    4.90999985    1.33000004
   17.18499947   -1.00000000    4.90999985    1.16999996
   17.18833160   23.57019997    4.90999985    1.58000004
   17.19166565  116.88500214    4.90999985    1.58000004
   17.19527626   -1.00000000    4.90999985    1.51999998
   17.19833183   -1.00000000    4.90999985    1.01999998
   17.20166779   -1.00000000    4.90999985    1.33000004
   17.20472336   -1.00000000    4.90999985    1.33000004
   17.20805550   -1.00000000    4.90999985    1.19000006
   17.21138954   -1.00000000    4.90999985    0.95999998
   17.21750069   -1.00000000    4.90999985    1.39999998
   17.22166634  338.48999023    4.90999985    1.76999998
   17.22472191  224.87899780    4.90999985    1.86000001
   17.22611237  220.51499939    4.90999985    2.00000000
   17.22833443  239.54200745    4.90999985    2.01999998
   17.23166656  209.67300415    4.90999985    2.07999992
   17.23472214  254.27699280    4.90999985    1.98000002
   17.23805618  188.91799927    4.90999985    2.00000000
   17.24138832  182.15299988    4.90999985    2.07999992
   17.24444389  219.71699524    4.90999985    2.05999994
   17.24777794  270.50698853    4.90999985    1.91999996
   17.25083351  186.10000610    4.90999985    1.98000002
   17.25416756  314.64001465    4.90999985    1.75000000
   17.26027870  314.64001465    4.90999985    1.94000006
   17.26444435  219.82899475    4.90999985    1.86000001
   17.26777840  292.31298828    4.90999985    1.89999998
   17.27083397  351.67898560    4.90999985    1.78999996
   17.27416611  131.52499390    4.90999985    1.85000002
   17.27750015  331.51901245    4.90999985    1.76999998
   17.28083229  346.09899902    4.90999985    1.85000002
   17.28388786  128.64599609    4.90999985    1.71000004
   17.28722191  165.19000244    4.90999985    1.73000002
   17.29027748  338.96899414    4.90999985    1.75000000
   17.29277802  362.88101196    4.90999985    1.80999994
   17.29388809  348.32400513    4.90999985    1.80999994
   17.29722214  324.13101196    4.90999985    1.80999994
   17.30305481  324.13101196    4.90999985    1.80999994
   17.30722237  383.50201416    4.90999985    1.89999998
   17.31055450  336.06900024    4.90999985    1.85000002
   17.31388855  258.01699829    4.90999985    1.88000000
   17.31694603  285.75500488    4.90999985    1.96000004
   17.32027817   -1.00000000    4.90999985    1.88000000
   17.32333374  271.61999512    4.90999985    1.41999996
   17.32611275  311.22601318    4.90999985    1.75000000
   17.32694626  362.79199219    4.90999985    1.73000002
   17.33027840  104.76899719    4.90999985    1.85000002
   17.33333397   40.49990082    4.90999985    1.51999998
   17.33666801  282.41699219    4.90999985    1.58000004
   17.34000015  185.69999695    4.90999985    1.94000006
   17.34611130  185.69999695    4.90999985    1.86000001
   17.35027885  123.41100311    4.90999985    1.76999998
   17.35333443   -1.00000000    4.90999985    1.85000002
   17.35666656  237.10600281    4.90999985    1.36000001
   17.35944557  277.49099731    4.90999985    1.71000004
   17.36027908  185.75100708    4.90999985    1.88000000
   17.36361122  159.35000610    4.90999985    2.09999990
   17.36666679  158.26400757    4.90999985    2.15000010
   17.37000084  125.72899628    4.90999985    2.30999994
   17.37333298  156.56399536    4.90999985    2.01999998
   17.37638855  137.60699463    4.90999985    2.28999996
   17.37972260  131.18800354    4.90999985    2.39000010
   17.38277817  135.38699341    4.90999985    2.51999998
   17.38888931  135.38699341    4.90999985    2.46000004
   17.39305496  140.37500000    4.90999985    2.48000002
   17.39611053  143.29600525    4.90999985    2.50000000
   17.39944458  154.02999878    4.90999985    2.25000000
   17.40277672  130.08399963    4.90999985    2.05999994
   17.40583229  136.11300659    4.90999985    2.46000004
   17.40916634  130.27799988    4.90999985    2.44000006
   17.41250038  138.16799927    4.90999985    2.51999998
   17.41555595  136.92199707    4.90999985    2.50000000
   17.41888809  151.35200500    4.90999985    2.39000010
   17.42194366  157.28599548    4.90999985    2.07999992
   17.42527771  128.41000366    4.90999985    2.51999998
   17.42611122  139.61300659    4.90999985    2.57999992
   17.43166542  139.61300659    4.90999985    2.32999992
   17.43583298  155.80400085    4.90999985    2.32999992
   17.43916512  238.56900024    4.90999985    2.01999998
   17.44222069  102.07599640    4.90999985    2.03999996
   17.44555473  195.81199646    4.90999985    2.00000000
   17.44888878  101.33000183    4.90999985    2.05999994
   17.45194435  186.29299927    4.90999985    1.85000002
   17.45527840  299.41699219    4.90999985    2.03999996
   17.45861244  370.08499146    4.90999985    1.86000001
   17.45944595  331.60299683    4.90999985    1.80999994
   17.46194458  212.49200439    4.90999985    1.86000001
   17.46527863  188.35400391    4.90999985    1.96000004
   17.46833420  212.02600098    4.90999985    2.03999996
   17.47444534  212.02600098    4.90999985    1.96000004
   17.47861099  111.36299896    4.90999985    1.53999996
   17.48194504  294.47799683    4.90999985    1.75000000
   17.48527718   99.66400146    4.90999985    1.63000000
   17.48833275  306.24099731    4.90999985    1.96000004
   17.49166679  226.35600281    4.90999985    1.88000000
   17.49305534  190.07099915    4.90999985    1.91999996
   17.49527740  320.99301147    4.90999985    1.88000000
   17.49861145  203.16900635    4.90999985    1.80999994
   17.50166702  198.94999695    4.90999985    1.80999994
   17.50499916  261.73300171    4.90999985    1.91999996
   17.50833321  216.74200439    4.90999985    2.07999992
   17.51138878  159.82899475    4.90999985    1.96000004
   17.51749992  159.82899475    4.90999985    2.21000004
   17.52166557  185.64100647    4.90999985    2.15000010
   17.52472115  171.93099976    4.90999985    2.03999996
   17.52638817  194.87899780    4.90999985    2.03999996
   17.52833366  303.67898560    4.90999985    2.00000000
   17.53166580   -1.00000000    4.90999985    1.60000002
   17.53472137  162.43600464    4.90999985    1.16999996
   17.53805542   -1.00000000    4.90999985    1.00000000
   17.54138756  281.11300659    4.90999985    1.63000000
   17.54444313  166.17900085    4.90999985    1.96000004
   17.54777718  167.92999268    4.90999985    2.19000006
   17.55111122  171.86500549    4.90999985    2.21000004
   17.55416679  143.33399963    4.90999985    2.19000006
   17.56027794  143.33399963    4.90999985    2.13000011
   17.56444359  105.89399719    4.90999985    1.64999998
   17.56750107  243.46299744    4.90999985    1.64999998
   17.57083511   -1.00000000    4.90999985    1.85000002
   17.57416725  106.18599701    4.90999985    1.07000005
   17.57722282  119.94400024    4.90999985    1.78999996
   17.58055687  116.01699829    4.90999985    1.73000002
   17.58388901  301.40399170    4.90999985    1.85000002
   17.58694458  178.17399597    4.90999985    1.91999996
   17.59027863  259.32901001    4.90999985    2.09999990
   17.59305573   78.02269745    4.90999985    1.73000002
   17.59388924   -1.00000000    4.90999985    1.73000002
   17.59722328  311.17300415    4.90999985    1.46000004
   17.60305595  311.17300415    4.90999985    1.89999998
   17.60722351  102.97200012    4.90999985    1.94000006
   17.61055565  309.72399902    4.90999985    1.66999996
   17.61361122  182.87300110    4.90999985    1.96000004
   17.61694527  165.45599365    4.90999985    2.09999990
   17.62000084  249.59700012    4.90999985    2.05999994
   17.62333298  227.89599609    4.90999985    1.98000002
   17.62638855  287.33300781    4.90999985    2.01999998
   17.62694550  232.58500671    4.90999985    1.98000002
   17.63027763   -1.00000000    4.90999985    1.53999996
   17.63333321   97.57749939    4.90999985    1.53999996
   17.63666725   -1.00000000   -1.00000000   -1.00000000
   17.63999939   -1.00000000    4.90999985    1.53999996
   17.64583397   -1.00000000    4.90999985    1.19000006
   17.64999962  230.24499512    4.90999985    1.53999996
   17.65333366   48.94079971    4.90999985    1.71000004
   17.65638924  364.01998901    4.90999985    1.66999996
   17.65972137  369.40899658    4.90999985    1.83000004
   17.65999985  279.73001099    4.90999985    1.83000004
   17.66333389  274.84298706    4.90999985    1.94000006
   17.66638756   -1.00000000    4.90999985    1.94000006
   17.66972160   -1.00000000    4.90999985    1.14999998
   17.67305565   -1.00000000    4.90999985    1.03999996
   17.67611122   -1.00000000    4.90999985    0.92000002
   17.67944336   -1.00000000    4.90999985    1.09000003
   17.68277740   -1.00000000    4.90999985    0.81999999
   17.68888855   -1.00000000    4.90999985    1.23000002
   17.69333267   -1.00000000    4.90999985    1.48000002
   17.69638824   -1.00000000    4.90999985    1.41999996
   17.69972038   -1.00000000    4.90999985    1.36000001
   17.70305634   -1.00000000    4.90999985    0.95999998
   17.70611191   -1.00000000    4.90999985    0.88000000
   17.70944595   -1.00000000    4.90999985    0.73000002
   17.71277809   -1.00000000    4.90999985    0.69000000
   17.71583366   -1.00000000    4.90999985    0.92000002
   17.71916771   -1.00000000    4.90999985    0.92000002
   17.74222183   -1.00000000    4.90999985    1.36000001
   17.74638939   -1.00000000    4.90999985    1.21000004
   17.74972153   -1.00000000    4.90999985    1.21000004
   17.75305557   -1.00000000    4.90999985    1.01999998
   17.75611115   -1.00000000    4.90999985    0.63000000
   17.75944519   -1.00000000    4.90999985    0.69000000
   17.76250076   -1.00000000    4.90999985    0.73000002
   17.76583290   -1.00000000    4.90999985    0.95999998
   17.76916695   -1.00000000    4.90999985    1.00000000
   17.77277756   -1.00000000    4.90999985    0.81999999
   17.77583313   -1.00000000    4.90999985    1.23000002
   17.77916718   -1.00000000    4.90999985    1.19000006
   17.78916550   -1.00000000    4.90999985    0.98000002
   17.79249954   -1.00000000    4.90999985    1.28999996
   17.79583359   -1.00000000    4.90999985    1.34000003
   17.79888916   -1.00000000    4.90999985    1.48000002
   17.80222130   -1.00000000    4.90999985    1.34000003
   17.80583191   -1.00000000    4.90999985    1.50000000
   17.80888748  106.19599915    4.90999985    1.55999994
   17.81222153  132.38499451    4.90999985    1.64999998
   17.81555557  133.93099976    4.90999985    1.73000002
   17.81861115   90.16519928    4.90999985    1.69000006
   17.82194519   -1.00000000    4.90999985    1.63000000
   17.82805634   -1.00000000    4.90999985    1.55999994
   17.83222389   -1.00000000    4.90999985    1.50000000
   17.83527756   -1.00000000    4.90999985    1.38000000
   17.83889008   -1.00000000    4.90999985    1.48000002
   17.84194565   -1.00000000    4.90999985    1.51999998
   17.84527779   -1.00000000    4.90999985    1.51999998
   17.84861183   -1.00000000    4.90999985    1.41999996
   17.85166740   -1.00000000    4.90999985    1.50000000
   17.85499954   -1.00000000   -1.00000000   -1.00000000
   17.85833359   -1.00000000    4.90999985    1.51999998
   17.86138916   -1.00000000    4.90999985    1.50000000
   17.86472321   -1.00000000    4.90999985    1.50000000
   17.87083435   -1.00000000    4.90999985    1.51999998
   17.87500000   -1.00000000    4.90999985    1.55999994
   17.87833405   -1.00000000    4.90999985    1.46000004
   17.88138962   -1.00000000    4.90999985    1.55999994
   17.88472176   74.62000275    4.90999985    1.60000002
   17.88805580  103.21399689    4.90999985    1.66999996
   17.89111137   -1.00000000    4.90999985    1.61000001
   17.89444351   -1.00000000    4.90999985    1.36000001
   17.89749908   -1.00000000    4.90999985    1.38000000
   17.90083313   -1.00000000    4.90999985    1.50000000
   17.90416718   -1.00000000    4.90999985    1.30999994
   17.90777779   -1.00000000    4.90999985    1.34000003
   17.91361046   -1.00000000    4.90999985    0.98000002
   17.91777802   -1.00000000    4.90999985    1.53999996
   17.92111015   -1.00000000    4.90999985    1.61000001
   17.92444420   -1.00000000    4.90999985    1.38000000
   17.92749977   -1.00000000    4.90999985    1.05999994
   17.93083191   -1.00000000    4.90999985    1.07000005
   17.93388748   -1.00000000    4.90999985    1.00000000
   17.93722153   -1.00000000    4.90999985    1.05999994
   17.94083214   -1.00000000    4.90999985    0.80000001
   17.94388771   -1.00000000    4.90999985    1.05999994
   17.94722176   -1.00000000    4.90999985    1.16999996
   17.95055580   -1.00000000    4.90999985    1.39999998
   17.96055603   -1.00000000    4.90999985    0.86000001
   17.96389008   -1.00000000    4.90999985    0.94000000
   17.96722221   -1.00000000    4.90999985    0.81999999
   17.97027779   -1.00000000    4.90999985    0.92000002
   17.97389030   -1.00000000    4.90999985    0.70999998
   17.97722244   -1.00000000    4.90999985    0.46000001
   17.98027802   -1.00000000    4.90999985    0.41999999
   17.98361206   -1.00000000    4.90999985    0.41999999
   17.98694420   -1.00000000    4.90999985    0.63000000
   17.98999977   -1.00000000    4.90999985    0.89999998
   17.99333382   -1.00000000    4.90999985    1.01999998
   18.00361061   -1.00000000    4.90999985    1.01999998
   18.00694466   -1.00000000    4.90999985    1.33000004
   18.01027870   -1.00000000    4.90999985    1.33000004
   18.01333427   -1.00000000    4.90999985    1.36000001
   18.01666641   -1.00000000    4.90999985    1.38000000
   18.02000046   57.96020126    4.90999985    1.50000000
   18.02305603  108.41100311    4.90999985    1.60000002
   18.02638817  109.66699982    4.90999985    1.69000006
   18.02972221   -1.00000000    4.90999985    1.73000002
   18.03277779   -1.00000000    4.90999985    0.98000002
   18.03610992   -1.00000000    4.90999985    1.03999996
   18.04638863   -1.00000000    4.90999985    0.89999998
   18.04944420   -1.00000000    4.90999985    0.83999997
   18.05277634   -1.00000000    4.90999985    1.25000000
   18.05611038   -1.00000000    4.90999985    1.23000002
   18.05916595  110.51499939    4.90999985    1.60000002
   18.06250000   93.56900024    4.90999985    1.58000004
   18.06583214   -1.00000000    4.90999985    1.73000002
   18.06888962   -1.00000000    4.90999985    1.51999998
   18.07222366   -1.00000000    4.90999985    1.46000004
   18.07583427   -1.00000000    4.90999985    0.76999998
   18.07888985   -1.00000000    4.90999985    0.92000002
   18.08916664   -1.00000000    4.90999985    0.70999998
   18.09250069   -1.00000000    4.90999985    1.11000001
   18.09555626   -1.00000000    4.90999985    0.92000002
   18.09889030   -1.00000000    4.90999985    1.16999996
   18.10222244   -1.00000000    4.90999985    1.39999998
   18.10527802   -1.00000000    4.90999985    1.50000000
   18.10888863   -1.00000000    4.90999985    1.55999994
   18.11194420   -1.00000000    4.90999985    1.51999998
   18.11527824  118.97699738    4.90999985    1.64999998
   18.11861038   82.21140289    4.90999985    1.76999998
   18.12166595   -1.00000000    4.90999985    1.55999994
   18.13194466   -1.00000000    4.90999985    0.95999998
   18.13527679   -1.00000000    4.90999985    1.11000001
   18.13861084   -1.00000000    4.90999985    1.41999996
   18.14222145   -1.00000000    4.90999985    1.23000002
   18.14527702  109.08100128    4.90999985    1.33000004
   18.14861107   -1.00000000    4.90999985    1.55999994
   18.15166664   -1.00000000    4.90999985    1.34000003
   18.15499878   -1.00000000    4.90999985    1.25000000
   18.15833282   -1.00000000    4.90999985    1.39999998
   18.16138840  106.31300354    4.90999985    1.28999996
   18.16472244  331.24398804    4.90999985    1.75000000
   18.17083359  331.24398804    4.90999985    1.91999996
   18.17499924  172.24099731    4.90999985    1.96000004
   18.17805481  321.16198730    4.90999985    1.39999998
   18.18138885  306.97100830    4.90999985    1.78999996
   18.18472099  383.14898682    4.90999985    1.85000002
   18.18777657  336.96099854    4.90999985    1.91999996
   18.19111061  338.02899170    4.90999985    1.78999996
   18.19444275  306.61199951    4.90999985    1.86000001
   18.19749832  293.69900513    4.90999985    1.89999998
   18.20083427  284.33599854    4.90999985    1.96000004
   18.20388985  305.82000732    4.90999985    2.05999994
   18.20777893   -1.00000000    4.90999985    1.75000000
   18.21361160   -1.00000000    4.90999985    1.94000006
   18.21777916  157.60800171    4.90999985    1.69000006
   18.22111130  155.94500732    4.90999985    2.23000002
   18.22416687  145.83999634    4.90999985    2.25000000
   18.22750092  136.04499817    4.90999985    2.32999992
   18.23083305  138.54800415    4.90999985    2.36999989
   18.23388863  130.72700500    4.90999985    2.46000004
   18.23722267  135.33599854    4.90999985    2.44000006
   18.23999977  133.99299622    4.90999985    2.44000006
   18.24083328  133.51499939    4.90999985    2.44000006
   18.24416733  135.45100403    4.90999985    2.40000010
   18.24722290  144.69000244    4.90999985    2.44000006
   18.25055504  137.86700439    4.90999985    2.44000006
   18.25638962  137.86700439    4.90999985    2.42000008
   18.26055527  154.60099792    4.90999985    2.36999989
   18.26388931  157.60899353    4.90999985    2.32999992
   18.26722145  155.75900269    4.90999985    2.28999996
   18.27027702  179.51199341    4.90999985    2.19000006
   18.27333260  150.18400574    4.90999985    2.25000000
   18.27388954  180.88099670    4.90999985    2.25000000
   18.27722168  161.30200195    4.90999985    2.25000000
   18.28027725  153.33000183    4.90999985    2.21000004
   18.28361130  392.38101196    4.90999985    2.07999992
   18.28666687   -1.00000000   -1.00000000   -1.00000000
   18.28999901   56.78839874    4.90999985    1.38000000
   18.29333305  124.66300201    4.90999985    1.60000002
   18.29944420  124.66300201    4.90999985    1.69000006
   18.30360985   -1.00000000    4.90999985    1.55999994
   18.30722237   -1.00000000    4.90999985    1.33000004
   18.31027794   -1.00000000    4.90999985    1.07000005
   18.31361008   -1.00000000    4.90999985    1.01999998
   18.31666756   -1.00000000    4.90999985    1.07000005
   18.32000160   -1.00000000    4.90999985    1.30999994
   18.32333374   -1.00000000    4.90999985    1.33000004
   18.32638931   -1.00000000    4.90999985    1.25000000
   18.32972336   -1.00000000    4.90999985    1.30999994
   18.33305550   -1.00000000    4.90999985    1.28999996
   18.33611107   -1.00000000    4.90999985    0.92000002
   18.34611130   -1.00000000    4.90999985    1.05999994
   18.34944534   -1.00000000    4.90999985    0.88000000
   18.35277748   -1.00000000    4.90999985    0.81999999
   18.35583305   -1.00000000    4.90999985    1.11000001
   18.35916710   -1.00000000    4.90999985    1.16999996
   18.36250114   -1.00000000    4.90999985    1.07000005
   18.36555672   -1.00000000    4.90999985    1.13000000
   18.36888885   -1.00000000    4.90999985    1.25000000
   18.37194443   -1.00000000    4.90999985    1.25000000
   18.37555504   -1.00000000    4.90999985    1.30999994
   18.37861061   -1.00000000    4.90999985    1.30999994
   18.38916588   -1.00000000    4.90999985    1.23000002
   18.39222145   -1.00000000    4.90999985    1.01999998
   18.39555550   -1.00000000    4.90999985    1.28999996
   18.39888954   -1.00000000    4.90999985    1.30999994
   18.40194321   -1.00000000    4.90999985    1.11000001
   18.40527725   -1.00000000    4.90999985    1.14999998
   18.40888786   -1.00000000    4.90999985    1.01999998
   18.41194344   -1.00000000    4.90999985    0.89999998
   18.41527748   -1.00000000    4.90999985    1.00000000
   18.41860962   -1.00000000    4.90999985    0.89999998
   18.42166519   -1.00000000    4.90999985    0.69000000
   18.43194389   -1.00000000    4.90999985    0.67000002
   18.43527603   -1.00000000    4.90999985    0.98000002
   18.43833160   -1.00000000    4.90999985    1.05999994
   18.44194412   -1.00000000    4.90999985    1.30999994
   18.44527626   -1.00000000    4.90999985    1.07000005
   18.44861031   -1.00000000    4.90999985    1.16999996
   18.45166779   -1.00000000    4.90999985    1.00000000
   18.45499992   -1.00000000    4.90999985    1.03999996
   18.45833397   -1.00000000    4.90999985    1.19000006
   18.46138954   -1.00000000    4.90999985    1.05999994
   18.46472359   -1.00000000    4.90999985    1.38000000
   18.47083473   -1.00000000    4.90999985    1.23000002
   18.47500038   23.57019997    4.90999985    1.64999998
   18.47805595  112.64199829    4.90999985    1.46000004
   18.48139000   86.62110138    4.90999985    1.69000006
   18.48444557  293.51901245    4.90999985    1.50000000
   18.48777771  259.80099487    4.90999985    1.85000002
   18.49111176  201.01499939    4.90999985    1.96000004
   18.49416733  215.41999817    4.90999985    2.03999996
   18.49749947  195.02699280    4.90999985    2.00000000
   18.50083351  246.83500671    4.90999985    2.07999992
   18.50388908  179.51400757    4.90999985    1.98000002
   18.50694466  166.57400513    4.90999985    2.17000008
   18.50777817  168.46299744    4.90999985    2.17000008
   18.51361084  168.46299744    4.90999985    2.28999996
   18.51777840  224.37600708    4.90999985    1.73000002
   18.52083397  162.19200134    4.90999985    1.94000006
   18.52416611  157.05099487    4.90999985    2.19000006
   18.52750015  152.74000549    4.90999985    2.26999998
   18.53055573  156.88499451    4.90999985    2.19000006
   18.53388786  160.53300476    4.90999985    2.21000004
   18.53722191  155.49800110    4.90999985    2.21000004
   18.54027748  157.02000427    4.90999985    2.32999992
   18.54083252  147.67300415    4.90999985    2.32999992
   18.54388809  148.37699890    4.90999985    2.42000008
   18.54722214  142.57299805    4.90999985    2.46000004
   18.55055428  139.77900696    4.90999985    2.46000004
   18.55638885  139.77900696    4.90999985    2.28999996
   18.56055450  157.40100098    4.90999985    2.15000010
   18.56388855  163.07099915    4.90999985    2.34999990
   18.56694603  154.15600586    4.90999985    2.32999992
   18.57027817  145.19400024    4.90999985    2.42000008
   18.57361221  138.53999329    4.90999985    2.25000000
   18.57416725  226.52099609    4.90999985    2.25000000
   18.57722282  169.27400208    4.90999985    2.05999994
   18.58055687  192.29499817    4.90999985    2.00000000
   18.58361244  163.80900574    4.90999985    2.26999998
   18.58694458   98.29599762    4.90999985    1.94000006
   18.59027863  357.85400391    4.90999985    1.66999996
   18.59333420  143.02299500    4.90999985    1.85000002
   18.59916687  143.02299500    4.90999985    2.05999994
   18.60333443  188.68699646    4.90999985    2.21000004
   18.60666656  167.73699951    4.90999985    2.25000000
   18.60750008  174.54600525    4.90999985    2.32999992
   18.61027908  148.20700073    4.90999985    2.03999996
   18.61361122   -1.00000000   -1.00000000   -1.00000000
   18.61666679  341.24398804    4.90999985    1.61000001
   18.62000084  170.52600098    4.90999985    2.19000006
   18.62333298  166.99000549    4.90999985    2.51999998
   18.62638855  148.54499817    4.90999985    2.40000010
   18.62972260  138.49099731    4.90999985    2.66000009
   18.63305473  134.42900085    2.40000010    2.64000010
   18.63611031  133.88800049    4.84999990    2.64000010
   18.64222145  133.88800049    4.90999985    2.32999992
   18.64611053  212.69099426    4.90999985    2.21000004
   18.64944458  142.98100281    4.90999985    2.26999998
   18.65277672  129.57099915    4.90999985    2.34999990
   18.65583229  130.30900574    4.90999985    2.61999989
   18.65916634  129.66499329    1.41999996    2.66000009
   18.66250038  134.67199707    1.28999996    2.64000010
   18.66555595  126.64600372    1.30999994    2.64000010
   18.66888809  129.01100159    1.33000004    2.64000010
   18.67194366  127.10900116    1.39999998    2.61999989
   18.67416573  139.28100586    1.50000000    2.64000010
   18.67555428  123.38400269    1.69000006    2.61999989
   18.67888832  127.03099823    2.19000006    2.61999989
   18.68499947  127.03099823    1.96000004    2.61999989
   18.68916512  130.11099243    1.73000002    2.64000010
   18.69222069  139.63400269    1.48000002    2.64000010
   18.69555473  129.27000427    1.46000004    2.64000010
   18.69888878  125.14299774    2.73000002    2.61999989
   18.70194435  131.07000732    3.18000007    2.55999994
   18.70527840  134.99499512    3.59999990    2.64000010
   18.70750046  129.33599854    1.30999994    2.64000010
   18.70888901  125.25499725    1.26999998    2.61999989
   18.71222305  130.86000061    1.26999998    2.64000010
   18.71527863  126.64099884    1.25000000    2.64000010
   18.71861076  125.19499969    1.23000002    2.64000010
   18.72194481  122.77400208    1.23000002    2.64000010
   18.72777748  122.77400208    1.21000004    2.64000010
   18.73194504  122.19899750    1.21000004    2.64000010
   18.73527718  128.09800720    1.23000002    2.64000010
   18.73833275  121.72299957    1.25000000    2.64000010
   18.75555611  126.36000061    1.19000006    2.64000010
   18.75833321  123.60199738    1.41999996    2.64000010
   18.76166725  121.15399933    1.94000006    2.64000010
   18.76472282  208.83299255    4.90999985    2.48000002
   18.77083397  208.83299255    4.90999985    2.40000010
   18.77499962  123.58399963    4.90999985    2.57999992
   18.77805519  120.89800262    3.97000003    2.59999990
   18.78138924  119.69599915    3.50000000    2.59999990
   18.78472137  124.62100220    4.30999994    2.57999992
   18.78777695  131.07600403    4.90999985    2.64000010
   18.78888893  139.28700256    4.90999985    2.42000008
   18.79166603  213.73199463    4.90999985    1.88000000
   18.79472160  287.48001099    4.90999985    2.01999998
   18.79805565  160.48599243    4.90999985    2.15000010
   18.80138779  120.05699921    4.90999985    2.17000008
   18.80444336  116.19799805    4.90999985    2.66000009
   18.80777740  122.86299896    2.44000006    2.64000010
   18.81361008  122.86299896    4.90999985    2.55999994
   18.81777954  128.05999756    4.90999985    2.55999994
   18.82111168  124.61499786    4.90999985    2.51999998
   18.82222366  127.78199768    4.90999985    2.50000000
   18.82472229  123.99800110    4.90999985    2.50000000
   18.82777786  184.07499695    4.90999985    2.44000006
   18.83111191  152.59800720    4.90999985    1.96000004
   18.83444595  131.40400696    4.90999985    2.39000010
   18.83750153  124.20400238    4.90999985    2.53999996
   18.84083366  124.69400024    4.71999979    2.55999994
   18.84388924  124.38700104    4.01999998    2.57999992
   18.84722328  123.54799652    3.39000010    2.59999990
   18.85055542  120.87999725    2.84999990    2.59999990
   18.85639000  120.87999725    2.40000010    2.61999989
   18.86055565  119.66000366    2.13000011    2.61999989
   18.86388969  118.87300110    2.03999996    2.61999989
   18.86722183  123.60299683    2.09999990    2.61999989
   18.87027740  118.69999695    2.32999992    2.61999989
   18.87361145  120.95500183    2.59999990    2.64000010
   18.87666702  123.55200195    2.89000010    2.59999990
   18.88000107  124.00800323    4.26000023    2.59999990
   18.88333321  120.50499725    4.90999985    2.55999994
   18.88638878  122.14900208    4.78000021    2.57999992
   18.88888931  118.08699799    4.28999996    2.59999990
   18.89027786  130.03599548    4.01999998    2.59999990
   18.89333344  119.68000031    2.91000009    2.61999989
   18.89944458  119.68000031    2.48000002    2.61999989
   18.90361023  126.37999725    4.00000000    2.64000010
   18.90666580  127.38400269    4.90999985    2.57999992
   18.90999985  124.01399994    4.90999985    2.59999990
   18.91305542  130.75000000    4.90999985    2.25000000
   18.91638756  143.41499329    4.90999985    2.21000004
   18.91972160  139.82499695    4.90999985    2.17000008
   18.92222214  162.86500549    4.90999985    2.25000000
   18.92333221  306.91598511    4.90999985    2.34999990
   18.92638779  137.47500610    4.90999985    1.61000001
   18.92972183   -1.00000000    4.90999985    1.85000002
   18.93305397   -1.00000000    4.90999985    1.66999996
   18.93610954   -1.00000000    4.90999985    1.34000003
   18.94222069   -1.00000000    4.90999985    1.09000003
   18.94638824  231.58599854    4.90999985    1.58000004
   18.94944382  133.88499451    4.90999985    2.11999989
   18.95277786  154.83900452    4.90999985    2.19000006
   18.95555687  125.52200317    4.90999985    2.01999998
   18.95639038  125.90000153    4.90999985    2.03999996
   18.95944595  115.96199799    4.90999985    2.50000000
   18.96277809  127.92900085    4.90999985    2.53999996
   18.96611214  114.44400024    4.90999985    2.53999996
   18.96916771  135.84899902    4.90999985    2.46000004
   18.97249985  190.22799683    4.90999985    2.23000002
   18.97583389  329.47399902    4.90999985    1.78999996
   18.97888947  133.23300171    4.90999985    2.13000011
   18.98500061  133.23300171    4.90999985    2.25000000
   18.98916626  127.50700378    4.90999985    2.30999994
   18.99250031  135.68800354    4.90999985    2.28999996
   18.99555588  121.86799622    4.90999985    2.51999998
   18.99888992  131.08299255    4.67999983    2.57999992
   19.00222206  121.39399719    3.61999989    2.59999990
   19.00527763  127.56500244    3.09999990    2.59999990
   19.00861168  121.96900177    2.55999994    2.61999989
   19.01166725  124.71499634    2.15000010    2.61999989
   19.01499939  123.25299835    2.44000006    2.64000010
   19.01833344  126.50499725    3.23000002    2.59999990
   19.02138901  124.96600342    4.80000019    2.57999992
   19.02222252  123.80799866    4.90999985    2.55999994
   19.02777672  123.80799866    4.90999985    2.44000006
   19.03194427  164.10000610    4.90999985    2.00000000
   19.03527641  189.51899719    4.90999985    1.94000006
   19.03861046   99.09660339    4.90999985    2.03999996
   19.04166603  202.23800659    4.90999985    1.76999998
   19.04500008  147.56900024    4.90999985    2.07999992
   19.04805565  144.65600586    4.90999985    2.32999992
   19.05138779  154.51300049    4.90999985    2.36999989
   19.05472183  173.64300537    4.90999985    2.11999989
   19.05555534  186.55900574    4.90999985    1.86000001
   19.05833244  113.73899841    4.90999985    1.63000000
   19.06138802  221.87199402    4.90999985    1.85000002
   19.06472206  146.02999878    4.90999985    2.09999990
   19.07083511  146.02999878    4.90999985    2.07999992
   19.07500076  117.96499634    4.90999985    2.42000008
   19.07805634  124.92500305    4.90999985    2.64000010
   19.08139038  132.55400085    4.90999985    2.39000010
   19.08444595  144.41200256    4.90999985    2.25000000
   19.08777809  150.62100220    4.90999985    2.51999998
   19.08889008  129.92500305    4.90999985    2.32999992
   19.09138870  151.36000061    4.90999985    2.48000002
   19.09444427  260.15100098    4.90999985    2.11999989
   19.09777832  226.36099243    4.90999985    1.86000001
   19.10111237  153.14500427    4.90999985    2.36999989
   19.10416794  140.72900391    4.90999985    2.36999989
   19.10750008  210.04200745    4.90999985    2.25000000
   19.11361122  210.04200745    4.90999985    2.46000004
   19.11777878  125.68299866    4.90999985    2.39000010
   19.12083435  122.91100311    4.90999985    2.51999998
   19.12222290  122.01599884    4.90999985    2.57999992
   19.12472153  128.19799805    4.67999983    2.53999996
   19.12777710  121.09200287    4.07999992    2.59999990
   19.13111115  123.42099762    2.40000010    2.64000010
   19.13444519  120.01799774    2.36999989    2.61999989
   19.13750076  123.98300171    4.17999983    2.51999998
   19.14083290  123.60900116    4.90999985    2.53999996
   19.14416695  129.90499878    4.90999985    2.53999996
   19.14722252  120.40599823    3.84999990    2.51999998
   19.15055466  118.68199921    4.59999990    2.61999989
   19.15638924  118.68199921    4.90999985    2.39000010
   19.16055489  123.23400116    4.90999985    1.75000000
   19.16388893  208.82400513    4.90999985    1.78999996
   19.16694450  134.73500061    4.90999985    2.23000002
   19.17027664  123.33899689    4.90999985    2.51999998
   19.17361069  124.42199707    4.90999985    2.46000004
   19.17666626  118.78099823    4.59999990    2.57999992
   19.18000031  122.79199982    2.48000002    2.57999992
   19.18305397  119.30500031    1.28999996    2.53999996
   19.18638802  116.07700348    1.69000006    2.61999989
   19.18888855  126.04000092    1.85000002    2.61999989
   19.18999863  115.26499939    1.88000000    2.61999989
   19.19305420  125.57700348    1.25000000    2.61999989
   19.19916534  125.57700348    1.28999996    2.61999989
   19.20333481  129.07000732    1.33000004    2.61999989
   19.20666695  135.97300720    1.34000003    2.61999989
   19.21000099  135.38200378    1.36000001    2.59999990
   19.21305656  121.98400116    1.36000001    2.61999989
   19.21638870  132.69400024    1.38000000    2.59999990
   19.21944427  118.05599976    1.36000001    2.59999990
   19.22222328  111.20099640    1.36000001    2.59999990
   19.22333336  110.06199646    1.36000001    2.59999990
   19.22666740  121.67500305    1.58000004    2.59999990
   19.22972298  117.04499817    2.78999996    2.59999990
   19.23305511  149.62699890    2.26999998    2.57999992
   19.23611069  144.51300049    2.01999998    1.94000006
   19.24222183  144.51300049    4.90999985    2.64000010
   19.24638939  127.91600037    4.90999985    2.67000008
   19.24944496  127.61499786    4.90999985    2.69000006
   19.25277710  139.45199585    4.90999985    2.64000010
   19.25638962   -1.00000000    4.90999985    1.25000000
   19.25944519   -1.00000000    4.90999985    0.95999998
   19.26277733  155.85800171    4.90999985    1.36000001
   19.26583290  129.92900085    4.90999985    2.36999989
   19.26916695  125.37100220    4.78000021    2.64000010
   19.27249908  129.66299438    1.58000004    2.59999990
   19.27555466  128.18099976    1.28999996    2.61999989
   19.27888870  127.87699890    1.33000004    2.59999990
   19.28499985  127.87699890    1.33000004    2.59999990
   19.28944397  130.22599792    1.39999998    2.59999990
   19.29249954  126.87200165    1.41999996    2.59999990
   19.29583359  120.67900085    1.46000004    2.61999989
   19.29916573  120.32700348    1.50000000    2.61999989
   19.30222130  122.49299622    4.90999985    2.67000008
   19.30555534  118.56999969    4.90999985    2.67000008
   19.30888748  128.19599915    4.90999985    2.66000009
   19.31194305  148.70899963    4.90999985    2.21000004
   19.31527710  115.80999756    4.90999985    1.80999994
   19.31833458  177.94500732    4.90999985    2.36999989
   19.32166672  139.17100525    4.90999985    2.39000010
   19.32222366  128.81799316    4.90999985    2.55999994
   19.32777786  128.81799316    3.99000001    2.61999989
   19.33194542  123.70500183    1.60000002    2.59999990
   19.33527756  124.08100128    1.48000002    2.57999992
   19.33833313  125.81199646    1.48000002    2.59999990
   19.34166718  128.27600098    1.61000001    2.57999992
   19.34500122  123.68599701    1.89999998    2.57999992
   19.34805679  122.52300262    1.98000002    2.57999992
   19.35138893  125.45099640    1.66999996    2.59999990
   19.35444450  119.00199890    1.44000006    2.59999990
   19.35555649  121.53700256    1.44000006    2.57999992
   19.35833359  129.13299561    1.46000004    2.59999990
   19.36166763  131.39900208    1.48000002    2.59999990
   19.36472321  128.22900391    1.50000000    2.57999992
   19.37055588  128.22900391    1.80999994    2.59999990
   19.37472153  130.76300049    2.32999992    2.59999990
   19.37805557  121.58599854    2.36999989    2.59999990
   19.38138962  134.07400513    2.51999998    2.57999992
   19.38444519  129.39300537    3.03999996    2.57999992
   19.38777733  127.67600250    3.95000005    2.55999994
   19.38888931  127.76599884    3.97000003    2.55999994
   19.39138794  126.16600037    3.97000003    2.57999992
   19.39472198  140.71299744    4.26000023    2.51999998
   19.39805603  125.54499817    4.90999985    2.51999998
   19.40111160  129.49000549    4.90999985    2.55999994
   19.40444374  127.06400299    4.80999994    2.55999994
   19.40749931  128.88299561    4.48999977    2.53999996
   19.41361046  128.88299561    4.44999981    2.50000000
   19.41777802  128.39300537    3.76999998    2.55999994
   19.42083359  125.11900330    2.80999994    2.57999992
   19.42222214  130.86799622    2.69000006    2.57999992
   19.42444420  140.71600342    2.66000009    2.55999994
   19.42777634  130.42799377    3.09999990    2.57999992
   19.43083191  137.15499878    3.50000000    2.57999992
   19.43416595  135.70799255    4.90999985    2.51999998
   19.43750000  120.70099640    4.90999985    2.50000000
   19.44055557  126.49500275    4.90999985    2.46000004
   19.44388771  125.75299835    4.90999985    2.40000010
   19.44694328  140.65600586    4.90999985    2.40000010
   19.45027924  148.23699951    4.90999985    2.40000010
   19.45639038  148.23699951    4.90999985    2.23000002
   19.46055603  132.27400208    4.90999985    2.39000010
   19.46361160  129.85000610    4.90999985    2.39000010
   19.46694565  148.46899414    4.90999985    2.39000010
   19.47027779  151.91600037    4.90999985    2.21000004
   19.47333336  143.21099854    4.90999985    2.32999992
   19.47666740  146.20199585    4.90999985    2.23000002
   19.48000145  140.24600220    4.90999985    2.21000004
   19.48305511  200.45899963    4.90999985    2.11999989
   19.48638916  206.36399841    4.90999985    2.07999992
   19.48888969  261.19799805    4.90999985    2.00000000
   19.48999977  367.07000732    4.90999985    2.01999998
   19.49333382  155.76800537    4.90999985    1.94000006
   19.49916649  155.76800537    4.90999985    1.96000004
   19.50333405  257.67199707    4.90999985    2.00000000
   19.50666618  345.53601074    4.90999985    1.89999998
   19.50972176  342.63800049    4.90999985    1.86000001
   19.51305580  242.09800720    4.90999985    1.96000004
   19.51638794  276.40200806    4.90999985    2.00000000
   19.51944351  225.37500000    4.90999985    1.91999996
   19.52222252  109.27500153    4.90999985    2.01999998
   19.52305603  385.50201416    4.90999985    1.94000006
   19.52638817  239.91900635    4.90999985    1.83000004
   19.52944374  157.49899292    4.90999985    1.85000002
   19.53277779  438.32501221    4.90999985    1.78999996
   19.53472137  230.92799377    4.90999985    1.86000001
   19.53499985  239.91900635    4.90999985    1.83000004
   19.53499985  157.49899292    4.90999985    1.85000002
   19.53499985  438.32501221    4.90999985    1.78999996
   19.53527641  345.53601074    4.90999985    1.89999998
   19.53527641  342.63800049    4.90999985    1.86000001
   19.53527641  242.09800720    4.90999985    1.96000004
   19.53555489  276.40200806    4.90999985    2.00000000
   19.53555489  225.37500000    4.90999985    1.91999996
   19.53555489  385.50201416    4.90999985    1.94000006
   19.53750038  290.99301147    4.90999985    2.05999994
   19.54083252  213.45700073    4.90999985    1.91999996
   19.54416656  190.64100647    4.90999985    1.98000002
   19.54722214  234.99000549    4.90999985    2.13000011
   19.55055428  196.52200317    4.90999985    2.09999990
   19.55555534  196.52200317    4.90999985    2.09999990
   19.55999947  157.14300537    4.90999985    2.15000010
   19.56333351  191.84100342    4.90999985    1.98000002
   19.56638718  143.28999329    4.90999985    2.19000006
   19.56861115  132.19700623    4.90999985    2.23000002
   19.57027817  138.09700012    4.90999985    2.32999992
   19.57333374  130.99699402    4.90999985    2.53999996
   19.57666779  139.49200439    4.90999985    2.50000000
   19.58000183  148.12699890    4.90999985    2.42000008
   19.58305550  143.69799805    4.90999985    2.42000008
   19.58638954  131.33500671    4.90999985    2.44000006
   19.58972359  168.88699341    4.90999985    2.36999989
   19.59277916  145.26300049    4.90999985    2.11999989
   19.59833336  145.26300049    4.90999985    2.28999996
   19.60250092  143.53399658    4.90999985    2.30999994
   19.60583305  135.44400024    4.90999985    2.23000002
   19.60916710  185.37300110    4.90999985    2.13000011
   19.61222267  193.93899536    4.90999985    2.05999994
   19.61555672  148.21800232    4.90999985    2.07999992
   19.61861038  137.85699463    4.90999985    2.28999996
   19.62194443  154.16200256    4.90999985    2.44000006
   19.62527847  162.23100281    4.90999985    2.09999990
   19.62833405  163.63900757    4.90999985    2.03999996
   19.63166618  150.53599548    4.90999985    2.36999989
   19.63500023  151.68800354    4.90999985    2.32999992
   19.63527679  158.84199524    4.90999985    2.32999992
   19.64138794  158.84199524    4.90999985    2.51999998
   19.64555550  129.88800049    4.73999977    2.30999994
   19.64861107  131.54699707    4.90999985    2.48000002
   19.65194321  135.86900330    4.86999989    2.32999992
   19.65499878  134.87100220    4.90999985    2.46000004
   19.65833282  131.89999390    4.90999985    2.44000006
   19.66166687  148.10699463    4.90999985    2.39000010
   19.66472244  130.33200073    4.90999985    2.26999998
   19.66805458  124.69999695    4.90999985    2.50000000
   19.66860962  137.61000061    4.90999985    2.50000000
   19.67166519  123.19200134    4.90999985    2.46000004
   19.67499924  150.48399353    4.90999985    2.32999992
   19.67805481  141.38000488    4.90999985    2.28999996
   19.68416595  141.38000488    4.90999985    2.48000002
   19.68833160  149.40299988    4.90999985    2.34999990
   19.69138718  130.17900085    4.90999985    2.51999998
   19.69472122  135.32099915    3.84999990    2.53999996
   19.69805527  138.73899841    2.76999998    2.51999998
   19.70111275  134.77099609    3.09999990    2.53999996
   19.70222282  142.64999390    3.16000009    2.51999998
   19.70472336  130.19000244    3.26999998    2.48000002
   19.70805550  135.85699463    3.82999992    2.51999998
   19.71111107  136.28399658    4.03999996    2.46000004
   19.71444511  128.12899780    4.53000021    2.53999996
   19.71777916  133.47099304    3.41000009    2.50000000
   19.72083473  122.84400177    4.80999994    2.50000000
   19.72694588  122.84400177    4.90999985    2.30999994
   19.73111153  148.56199646    4.90999985    2.36999989
   19.73444557  173.01199341    4.90999985    2.13000011
   19.73555565  153.28999329    4.90999985    2.11999989
   19.73805618  147.05900574    4.90999985    2.19000006
   19.74138832  142.38800049    4.90999985    2.21000004
   19.74444389  143.25599670    4.90999985    2.46000004
   19.74777794  144.23300171    4.90999985    2.42000008
   19.75111198  141.50500488    4.90999985    2.36999989
   19.75416756  145.39599609    4.90999985    2.50000000
   19.77611160  145.39599609    1.58000004    2.53999996
   19.78027725  126.54299927    1.48000002    2.51999998
   19.78361130  144.14900208    1.41999996    2.53999996
   19.78666687  135.22399902    1.44000006    2.53999996
   19.78999901  135.99800110    1.51999998    2.53999996
   19.79333305  131.88800049    1.55999994    2.53999996
   19.79638863  133.62199402    1.60000002    2.53999996
   19.79972076  138.31300354    1.60000002    2.53999996
   19.80277634  142.45399475    1.66999996    2.53999996
   19.80611038  135.19999695    1.88000000    2.53999996
   19.80694389  148.54800415    1.94000006    2.53999996
   19.80972099  142.26699829    2.23000002    2.51999998
   19.81277657  128.55299377    2.53999996    2.53999996
   19.81888962  128.55299377    2.50000000    2.50000000
   19.82305717  144.48699951    2.23000002    2.53999996
   19.82638931  162.11199951    1.55999994    2.51999998
   19.82944489  142.21800232    1.55999994    2.51999998
   19.83277893  148.30499268    1.55999994    2.51999998
   19.83611107  137.24200439    1.61000001    2.51999998
   19.83916664  142.75199890    1.64999998    2.50000000
   19.84027863  144.56199646    1.64999998    2.50000000
   19.84277916  144.14799500    1.89999998    2.51999998
   19.84583473  137.50199890    2.19000006    2.50000000
   19.84916687  140.63400269    2.25000000    2.50000000
   19.85250092  137.84399414    2.26999998    2.50000000
   19.85555649  127.99700165    2.28999996    2.50000000
   19.86166763  127.99700165    2.05999994    2.50000000
   19.86583328  135.37600708    2.03999996    2.51999998
   19.86916733  135.49200439    2.78999996    2.50000000
   19.87249947  136.11399841    3.93000007    2.50000000
   19.87388992  137.52299500    3.91000009    2.50000000
   19.87611198  143.96299744    4.34999990    2.39000010
   19.87916756  139.16000366    4.90999985    2.51999998
   19.88249969  130.94200134    3.30999994    2.48000002
   19.88555527  137.57299805    3.53999996    2.46000004
   19.88972282  122.93099976    3.09999990    2.48000002
   19.89305496  143.97700500    3.01999998    2.48000002
   19.89638901  142.14900208    3.00000000    2.48000002
   19.89944458  135.94599915    2.98000002    2.48000002
   19.90472221  135.94599915    3.66000009    2.48000002
   19.90888786  145.48199463    4.34999990    2.40000010
   19.91194344  125.79399872    4.90999985    2.48000002
   19.91527748  135.99400330    4.28999996    2.46000004
   19.91833305  127.14800262    4.55999994    2.46000004
   19.92166519  131.58900452    4.61999989    2.48000002
   19.92499924  143.69200134    4.67999983    2.48000002
   19.92805481  133.00300598    4.90999985    2.46000004
   19.93138885  127.34200287    4.90999985    2.46000004
   19.93472099  164.82499695    4.90999985    2.39000010
   19.93777657  137.80999756    4.90999985    2.34999990
   19.94055557  163.87500000    4.90999985    2.28999996
   19.94166565  147.59399414    4.90999985    2.28999996
   19.94749832  147.59399414    4.90999985    2.34999990
   19.95166779  156.58299255    4.90999985    2.19000006
   19.95472336  140.00999451    4.90999985    2.25000000
   19.95805550  228.50000000    4.90999985    2.13000011
   19.96138954  194.75000000    4.90999985    2.00000000
   19.96472359  159.69700623    4.90999985    2.01999998
   19.96777916  155.38400269    4.90999985    2.11999989
   19.97111130  222.66000366    4.90999985    2.09999990
   19.97389030  219.13000488    4.90999985    1.98000002
   19.97472191  244.37300110    4.90999985    1.98000002
   19.97777748  180.01300049    4.90999985    1.98000002
   19.98111153  351.92098999    4.90999985    1.89999998
   19.98444557  240.89700317    4.90999985    1.80999994
   19.99027824  240.89700317    4.90999985    1.85000002
   19.99444389  208.98599243    4.90999985    1.91999996
   19.99777794  210.26199341    4.90999985    2.00000000
   20.00083351  179.18699646    4.90999985    2.09999990
   20.00416756  209.80499268    4.90999985    2.05999994
   20.00722313  303.89099121    4.90999985    2.03999996
   20.00777817  272.10998535    4.90999985    1.94000006
   20.01083374  272.10998535    4.90999985    1.88000000
   20.01416588  326.05099487    4.90999985    1.91999996
   20.01749992  359.16000366    4.90999985    1.86000001
   20.02055550  333.63101196    4.90999985    1.85000002
   20.02388954  246.96400452    4.90999985    1.89999998
   20.02694511  225.38200378    4.90999985    1.85000002
   20.03305435  225.38200378    4.90999985    1.78999996
   20.03722191  314.07501221    4.90999985    1.80999994
   20.04055595  351.51199341    4.90999985    1.85000002
   20.04111099  323.49700928    4.90999985    1.80999994
   20.04416656  289.63699341    4.90999985    1.89999998
   20.04749870  307.60699463    4.90999985    1.86000001
   20.05083275  198.08200073    4.90999985    1.88000000
   20.05388832  226.13800049    4.90999985    1.98000002
   20.05722237  260.04998779    4.90999985    1.94000006
   20.06027794  246.47799683    4.90999985    1.91999996
   20.06361008  197.50700378    4.90999985    2.00000000
   20.06694603  199.37600708    4.90999985    1.98000002
   20.07000160  286.56201172    4.90999985    1.91999996
   20.07611275  286.56201172    4.90999985    2.01999998
   20.08027840  185.14399719    4.90999985    2.13000011
   20.08333397  198.06700134    4.90999985    2.05999994
   20.08666801  263.35299683    4.90999985    1.98000002
   20.09083366  378.53698730    4.90999985    1.94000006
   20.09416771  330.78201294    4.90999985    2.01999998
   20.09722328  256.62701416    4.90999985    2.07999992
   20.10055542  205.72399902    4.90999985    2.13000011
   20.10388947  146.54100037    4.90999985    2.15000010
   20.10694504   -1.00000000    4.90999985    2.11999989
   20.11055565   -1.00000000    4.90999985    2.01999998
   20.11388969   -1.00000000    4.90999985    1.91999996
   20.12277794   -1.00000000    4.90999985    1.71000004
   20.12611198   -1.00000000    4.90999985    1.71000004
   20.12944412   -1.00000000    4.90999985    1.01999998
   20.13249969   -1.00000000    4.90999985    0.44000000
   20.13583374   -1.00000000    4.90999985    0.47999999
   20.13916588   -1.00000000    4.90999985    0.55000001
   20.14249992   -1.00000000    4.90999985    0.61000001
   20.14583397   -1.00000000    4.90999985    0.64999998
   20.14916611   -1.00000000    4.90999985    0.73000002
   20.15222168   -1.00000000    4.90999985    1.05999994
   20.15555573   -1.00000000    4.90999985    1.36000001
   20.16583252   -1.00000000    4.90999985    0.75000000
   20.16888809   -1.00000000    4.90999985    0.41999999
   20.17222214   -1.00000000    4.90999985    0.44000000
   20.17583275   -1.00000000    4.90999985    0.52999997
   20.17916679   -1.00000000    4.90999985    0.69000000
   20.18277740   -1.00000000    4.90999985    0.81999999
   20.18583298   -1.00000000    4.90999985    0.88000000
   20.18916512   -1.00000000    4.90999985    0.76999998
   20.19222069   -1.00000000    4.90999985    0.55000001
   20.19555473   -1.00000000    4.90999985    0.38000000
   20.19888878   -1.00000000    4.90999985    0.46000001
   20.20861244   -1.00000000    4.90999985    0.69000000
   20.21194458   -1.00000000    4.90999985    0.44000000
   20.21500015   -1.00000000    4.90999985    0.47999999
   20.21833420   -1.00000000    4.90999985    0.52999997
   20.22138977   -1.00000000    4.90999985    0.51999998
   20.22472191   -1.00000000    4.90999985    0.63000000
   20.22805595   -1.00000000    4.90999985    0.51999998
   20.23111153   -1.00000000    4.90999985    0.67000002
   20.23444557   -1.00000000    4.90999985    1.07000005
   20.23777771   -1.00000000    4.90999985    1.14999998
   20.24083328   -1.00000000    4.90999985    1.60000002
   20.25138855   -1.00000000    4.90999985    0.44000000
   20.25472260   -1.00000000    4.90999985    0.63000000
   20.25777817   -1.00000000    4.90999985    0.86000001
   20.26111031   -1.00000000    4.90999985    0.89999998
   20.26444435   -1.00000000    4.90999985    0.80000001
   20.26749992   -1.00000000    4.90999985    0.69000000
   20.27083397   -1.00000000    4.90999985    0.81999999
   20.27416611   -1.00000000    4.90999985    0.61000001
   20.27750015   -1.00000000    4.90999985    0.73000002
   20.28083229   -1.00000000    4.90999985    0.80000001
   20.28416634   -1.00000000    4.90999985    1.23000002
   20.29472160   -1.00000000    4.90999985    1.91999996
   20.29777718   -1.00000000    4.90999985    2.01999998
   20.30111122   -1.00000000    4.90999985    1.75000000
   20.30416679   -1.00000000    4.90999985    1.30999994
   20.30749893   -1.00000000    4.90999985    1.05999994
   20.31083298   -1.00000000    4.90999985    1.11000001
   20.31416512   -1.00000000    4.90999985    1.44000006
   20.31750107   -1.00000000    4.90999985    1.91999996
   20.32055664   -1.00000000    4.90999985    2.07999992
   20.32389069   -1.00000000    4.90999985    2.15000010
   20.32722282   -1.00000000    4.90999985    2.23000002
   20.33722305   -1.00000000    4.90999985    2.28999996
   20.34027863   -1.00000000    4.90999985    2.26999998
   20.34388924   -1.00000000    4.90999985    2.21000004
   20.34722328   -1.00000000    4.90999985    2.21000004
   20.35055542   -1.00000000    4.90999985    2.19000006
   20.35361099   -1.00000000    4.90999985    2.25000000
   20.35694504   -1.00000000    4.90999985    2.25000000
   20.36027908   -1.00000000    4.90999985    2.26999998
   20.36333466   -1.00000000    4.90999985    2.26999998
   20.36666679   -1.00000000    4.90999985    2.23000002
   20.36972237   -1.00000000    4.90999985    2.26999998
   20.38000107   -1.00000000    4.90999985    2.28999996
   20.38333321   -1.00000000    4.90999985    2.32999992
   20.38638878   -1.00000000    4.90999985    2.32999992
   20.38972282   -1.00000000    4.90999985    2.34999990
   20.39277840   -1.00000000    4.90999985    2.34999990
   20.39611053   -1.00000000    4.90999985    2.34999990
   20.39944458   -1.00000000    4.90999985    2.34999990
   20.40250015   -1.00000000    4.90999985    2.36999989
   20.40583229   -1.00000000    4.90999985    2.36999989
   20.40916634   -1.00000000    4.90999985    2.36999989
   20.41250038   -1.00000000    4.90999985    2.39000010
   20.42277718   -1.00000000    4.90999985    2.39000010
   20.42611122   -1.00000000    4.90999985    2.36999989
   20.42916679   -1.00000000    4.90999985    2.36999989
   20.43249893   -1.00000000    4.90999985    2.39000010
   20.43583298   -1.00000000    4.90999985    2.39000010
   20.43888855   -1.00000000    4.90999985    2.36999989
