    HOUR (UT)   FLARE FACTOR    SKY TESTER    SUN TESTER
   11.10361195   -1.00000000   -1.00000000   -1.00000000
   11.19444466  126.93399811    4.90999985    1.28999996
   11.19750023  118.81800079    4.90999985    1.28999996
   11.20083332  151.62199402    4.90999985    1.28999996
   11.20416641  144.16799927    4.90999985    1.28999996
   11.20722198  147.16400146    4.90999985    1.28999996
   11.21055508  175.75000000    4.90999985    1.30999994
   11.21472168  175.75000000    4.90999985    1.30999994
   11.21888828  184.63200378    4.90999985    1.30999994
   11.22194386  165.64700317    4.90999985    1.30999994
   11.22527695  162.51800537    4.90999985    1.30999994
   11.22777748  156.69900513    4.90999985    1.33000004
   11.22888851  148.19000244    4.90999985    1.33000004
   11.23222160  174.22000122    4.90999985    1.33000004
   11.23527813  152.24600220    4.90999985    1.33000004
   11.23861122  135.59500122    4.90999985    1.33000004
   11.24194431  140.15299988    4.90999985    1.33000004
   11.24499989  134.36900330    4.90999985    1.33000004
   11.24833393  129.93400574    4.90999985    1.33000004
   11.25166702  156.17100525    4.90999985    1.33000004
   11.25749969  156.17100525    4.90999985    1.33000004
   11.26166630  165.16000366    4.90999985    1.34000003
   11.26500034  187.63000488    4.90999985    1.34000003
   11.26805496  191.32000732    4.90999985    1.34000003
   11.27138901  174.55599976    4.90999985    1.34000003
   11.27444458  141.33500671    4.90999985    1.34000003
   11.27777767  105.94699860    4.90999985    1.28999996
   11.28111076   -1.00000000    4.90999985    1.16999996
   11.28416729   23.57019997    4.90999985    0.76999998
   11.28750038   91.06950378    4.90999985    0.86000001
   11.29083347   -1.00000000    4.90999985    1.13000000
   11.29388905   38.09999847    4.90999985    1.00000000
   11.29444504   73.81939697    4.90999985    1.00000000
   11.30027771   73.81939697    4.90999985    1.13000000
   11.30444431  144.36399841    4.90999985    1.30999994
   11.30916691  146.24000549    4.90999985    1.34000003
   11.31222248  174.12600708    4.90999985    1.34000003
   11.31555557  237.44999695    4.90999985    1.36000001
   11.31888866  247.47900391    4.90999985    1.38000000
   11.32194424  252.35400391    4.90999985    1.39999998
   11.32527733  305.78298950    4.90999985    1.39999998
   11.32777786  310.50601196    4.90999985    1.39999998
   11.32888889  322.80099487    4.90999985    1.41999996
   11.33194447  301.50100708    4.90999985    1.41999996
   11.33527756  241.99099731    4.90999985    1.39999998
   11.33861065  290.79598999    4.90999985    1.39999998
   11.34333324  290.79598999    4.90999985    1.39999998
   11.34722233  303.72000122    4.90999985    1.39999998
   11.35055637  281.36999512    4.90999985    1.39999998
   11.35388947  279.26501465    4.90999985    1.39999998
   11.35694504  316.75799561    4.90999985    1.38000000
   11.36027813  298.46701050    4.90999985    1.39999998
   11.36111164  333.73498535    4.90999985    1.39999998
   11.36388969  239.20899963    4.90999985    1.39999998
   11.36694431  305.70199585    4.90999985    1.39999998
   11.37027836  353.63400269    4.90999985    1.44000006
   11.37361145  345.89401245    4.90999985    1.46000004
   11.37666702  362.42800903    4.90999985    1.46000004
   11.38000011  400.91000366    4.90999985    1.46000004
   11.38194466  329.90899658    4.90999985    1.48000002
   11.38222218  353.63400269    4.90999985    1.44000006
   11.38222218  345.89401245    4.90999985    1.46000004
   11.38222218  362.42800903    4.90999985    1.46000004
   11.38249969  400.91000366    4.90999985    1.46000004
   11.38249969  279.26501465    4.90999985    1.39999998
   11.38249969  316.75799561    4.90999985    1.38000000
   11.38277817  298.46701050    4.90999985    1.39999998
   11.38277817  239.20899963    4.90999985    1.39999998
   11.38277817  305.70199585    4.90999985    1.39999998
   11.38722229  305.70199585    4.90999985    1.50000000
   11.39138889  332.24099731    4.90999985    1.48000002
   11.39444447  351.83599854    4.90999985    1.48000002
   11.39777756  276.38699341    4.90999985    1.44000006
   11.40111065  322.40399170    4.90999985    1.38000000
   11.40416622  308.30599976    4.90999985    1.44000006
   11.40749931  170.17700195    4.90999985    1.48000002
   11.41083336   95.53919983    4.90999985    1.14999998
   11.41388893   -1.00000000    4.90999985    1.16999996
   11.41750050   -1.00000000    4.90999985    1.01999998
   11.42055607   68.29229736    4.90999985    1.03999996
   11.42388916   -1.00000000    4.90999985    0.98000002
   11.43000031   -1.00000000    4.90999985    0.81999999
   11.43416691  339.30700684    4.90999985    1.21000004
   11.43722248  287.86199951    4.90999985    1.44000006
   11.44055557  265.38800049    4.90999985    1.58000004
   11.44361115  247.26800537    4.90999985    1.61000001
   11.44694424  252.09800720    4.90999985    1.63000000
   11.44916630  257.99398804    4.90999985    1.64999998
   11.45055580  233.46499634    4.90999985    1.64999998
   11.45361137  254.67199707    4.90999985    1.63000000
   11.45694447  270.76901245    4.90999985    1.63000000
   11.46027756  228.57600403    4.90999985    1.61000001
   11.46333313  305.42498779    4.90999985    1.55999994
   11.46666622  256.82998657    4.90999985    1.53999996
   11.47277737  256.82998657    4.90999985    1.55999994
   11.47694397  188.01499939    4.90999985    1.53999996
   11.47999954   -1.00000000    4.90999985    1.26999998
   11.48249912  202.98599243    4.90999985    1.36000001
   11.48388958  266.92898560    4.90999985    1.38000000
   11.49666691  269.45401001    0.00000000    0.00000000
   11.49972248  218.47099304    4.90999985    1.50000000
   11.50305557  237.57099915    4.90999985    1.63000000
   11.50638866  196.21000671    4.90999985    1.73000002
   11.50944424  238.78599548    4.90999985    1.66999996
   11.51277733  204.65800476    4.90999985    1.51999998
   11.51583290  205.44700623    4.90999985    1.71000004
   11.51638889  187.16700745    4.90999985    1.71000004
   11.51972198  178.94599915    4.90999985    1.76999998
   11.52416611  178.94599915    4.90999985    1.66999996
   11.52833271  185.02799988    4.90999985    1.76999998
   11.53166676  226.70199585    4.90999985    1.58000004
   11.53472233  224.30400085    4.90999985    1.63000000
   11.53805637  194.40400696    4.90999985    1.76999998
   11.54111195  194.56100464    4.90999985    1.75000000
   11.54444504  220.67799377    4.90999985    1.76999998
   11.54777813  195.29100037    4.90999985    1.73000002
   11.54916668  159.70700073    4.90999985    1.64999998
   11.55138874  219.92500305    4.90999985    1.28999996
   11.55472279   -1.00000000    4.90999985    1.16999996
   11.55777836  183.25399780    4.90999985    1.03999996
   11.56111145   -1.00000000    4.90999985    0.81999999
   11.56694412   -1.00000000    4.90999985    1.53999996
   11.57111073   -1.00000000    4.90999985    0.86000001
   11.57444477  138.16000366    4.90999985    0.92000002
   11.57750034  165.16499329    4.90999985    1.07000005
   11.58083344  251.20500183    4.90999985    1.41999996
   11.58277798  216.29600525    4.90999985    1.21000004
   11.58444405  153.58000183    4.90999985    1.41999996
   11.58777714  344.38198853    4.90999985    1.51999998
   11.59083271  159.68299866    4.90999985    1.39999998
   11.59416676  201.91999817    4.90999985    1.60000002
   11.59749985  343.24200439    4.90999985    1.33000004
   11.60055637  172.85899353    4.90999985    1.50000000
   11.60388947  174.78300476    4.90999985    1.58000004
   11.60972214  174.78300476    4.32999992    1.75000000
   11.61388969  160.91700745    4.05999994    1.76999998
   11.61611176  169.76400757    4.01999998    1.76999998
   11.61750031  171.66700745    4.01999998    1.76999998
   11.62083340  154.96400452    4.00000000    1.78999996
   11.62416649  160.88000488    3.99000001    1.76999998
   11.62722206  190.32299805    3.97000003    1.78999996
   11.63055611  164.84700012    3.95000005    1.76999998
   11.63361073  169.57299805    3.95000005    1.78999996
   11.63694477  161.92700195    3.93000007    1.78999996
   11.64027786  163.52699280    3.91000009    1.78999996
   11.64333344  195.48300171    3.91000009    1.78999996
   11.64666653  165.53599548    3.91000009    1.78999996
   11.65277767  165.53599548    3.89000010    1.78999996
   11.65694427  162.86500549    3.89000010    1.78999996
   11.65999985  177.71899414    3.89000010    1.78999996
   11.66333294  169.59199524    3.91000009    1.78999996
   11.66638851  183.27200317    3.89000010    1.78999996
   11.66972256  176.39399719    3.89000010    1.78999996
   11.67305565  171.00700378    3.89000010    1.78999996
   11.67611122  172.39999390    3.89000010    1.78999996
   11.67944431  154.83399963    3.89000010    1.78999996
   11.68277836  166.77900696    3.91000009    1.78999996
   11.68361092  156.77999878    3.91000009    1.78999996
   11.68638897  162.80900574    3.91000009    1.78999996
   11.68944454  166.62399292    3.93000007    1.78999996
   11.69583321  166.62399292    3.93000007    1.75000000
   11.69999981  169.45500183    3.95000005    1.75000000
   11.70333290  168.81799316    3.93000007    1.73000002
   11.70666695  167.50599670    3.93000007    1.73000002
   11.70972157  164.39199829    3.91000009    1.73000002
   11.71305561  172.06700134    3.91000009    1.73000002
   11.71611118  177.08000183    3.93000007    1.75000000
   11.71694374  174.69000244    3.93000007    1.75000000
   11.71999931  165.22799683    3.91000009    1.78999996
   11.72305489  168.78100586    3.91000009    1.78999996
   11.72638798  166.77900696    3.89000010    1.80999994
   11.72944355  162.22900391    3.86999989    1.80999994
   11.73277760  170.47000122    3.86999989    1.83000004
   11.73833370  170.47000122    3.93000007    1.85000002
   11.74250031  151.28700256    3.91000009    1.85000002
   11.74583340  155.05000305    3.93000007    1.86000001
   11.74888897  152.32400513    3.82999992    1.86000001
   11.75055599  157.38400269    3.80999994    1.86000001
   11.75249958  164.41099548    3.75000000    1.86000001
   11.75583363  156.63699341    3.72000003    1.86000001
   11.75916672  155.51300049    3.68000007    1.88000000
   11.76222229  152.19400024    3.68000007    1.88000000
   11.76555538  151.37100220    3.66000009    1.88000000
   11.76861095  154.14199829    3.64000010    1.88000000
   11.77194405  152.30299377    3.61999989    1.88000000
   11.77527714  149.40699768    3.59999990    1.88000000
   11.78111076  149.40699768    3.57999992    1.89999998
   11.78527832  146.83000183    3.57999992    1.89999998
   11.78861141  146.10699463    3.55999994    1.89999998
   11.79166698  140.44999695    3.53999996    1.89999998
   11.79500008  142.78700256    3.51999998    1.89999998
   11.79833412  140.26199341    3.51999998    1.89999998
   11.80138874  144.07800293    3.50000000    1.89999998
   11.80472279  147.65699768    3.50000000    1.89999998
   11.80805588  140.56399536    3.50000000    1.91999996
   11.81111145  146.08500671    3.48000002    1.91999996
   11.81444454  143.13900757    3.48000002    1.91999996
   11.81722260  148.48699951    3.48000002    1.91999996
   11.81805515  155.22799683    3.48000002    1.91999996
   11.82416630  155.22799683    3.48000002    1.91999996
   11.82805538  142.12699890    3.48000002    1.91999996
   11.83138847  145.84399414    3.48000002    1.91999996
   11.83472157  134.59500122    3.48000002    1.91999996
   11.83777714  153.46499634    3.48000002    1.91999996
   11.84111118  147.94599915    3.50000000    1.91999996
   11.84444427  156.37699890    3.50000000    1.91999996
   11.84749985  146.86999512    3.48000002    1.91999996
   11.85055637  149.07000732    3.48000002    1.91999996
   11.85111141  164.88000488    3.46000004    1.91999996
   11.85444450  140.82899475    3.46000004    1.91999996
   11.85777855  143.77099609    3.45000005    1.94000006
   11.86083412  155.52099609    3.45000005    1.94000006
   11.86694431  155.52099609    3.43000007    1.91999996
   11.87111092  162.56300354    3.43000007    1.91999996
   11.87444496  175.02799988    3.41000009    1.89999998
   11.87750053  168.75700378    3.43000007    1.88000000
   11.88083363  159.57899475    3.43000007    1.86000001
   11.88388920  195.21699524    3.41000009    1.86000001
   11.88416672  168.67199707    3.41000009    1.86000001
   11.88749981  150.50199890    3.45000005    1.88000000
   11.89083290  154.74899292    3.51999998    1.89999998
   11.89472198  146.84300232    3.43000007    1.91999996
   11.89805508  168.15299988    3.43000007    1.94000006
   11.90111065  145.06599426    3.43000007    1.96000004
   11.90444374  153.95300293    3.41000009    1.96000004
   11.90972137  153.95300293    3.41000009    1.98000002
   11.91388893  138.06599426    3.41000009    1.96000004
   11.91722298  139.46499634    3.45000005    1.96000004
   11.91750050  157.42900085    3.48000002    1.98000002
   11.92083359  144.71000671    3.57999992    1.96000004
   11.92416668  134.68499756    3.76999998    1.98000002
   11.92722225  139.91200256    3.84999990    2.00000000
   11.93055630  143.61300659    3.95000005    2.00000000
   11.93361092  144.99600220    4.32999992    2.01999998
   11.93694496  134.89900208    4.67999983    2.00000000
   11.94027805  133.73500061    4.90999985    2.01999998
   11.94333363  138.67900085    4.90999985    2.01999998
   11.94666672  136.32299805    4.26000023    2.01999998
   11.95249939  136.32299805    3.43000007    2.01999998
   11.95666695  138.88499451    3.45000005    2.00000000
   11.96000004  135.46899414    3.46000004    2.00000000
   11.96333313  130.23500061    3.46000004    2.00000000
   11.96638870  149.01499939    3.48000002    2.00000000
   11.96972179  137.80499268    3.45000005    1.98000002
   11.97305489  137.98899841    3.45000005    2.00000000
   11.97611046  139.57899475    3.45000005    2.00000000
   11.97944355  136.14799500    3.46000004    2.00000000
   11.98249912  128.07099915    3.59999990    2.01999998
   11.98388958  137.93899536    3.66000009    2.01999998
   11.98638916  129.68800354    3.70000005    2.03999996
   11.98944473  135.73300171    3.59999990    2.01999998
   11.99555588  135.73300171    3.34999990    2.01999998
   11.99972248  145.19999695    3.34999990    2.01999998
   12.00277805  168.00900269    3.36999989    2.03999996
   12.00611115  154.56500244    3.39000010    2.01999998
   12.00916672  143.97900391    3.41000009    2.03999996
   12.01249981  157.88200378    3.36999989    2.01999998
   12.01583290  152.13499451    3.36999989    2.03999996
   12.01722240  144.42599487    3.36999989    2.03999996
   12.01944447  147.12600708    3.41000009    2.03999996
   12.02250004  141.93499756    3.50000000    2.05999994
   12.02583313  142.47399902    3.61999989    2.05999994
   12.02888870  132.15499878    3.45000005    2.05999994
   12.03222179  150.83099365    3.41000009    2.05999994
   12.03833389  150.83099365    3.28999996    2.05999994
   12.04250050  129.27400208    3.30999994    2.05999994
   12.04555607  132.12600708    3.39000010    2.05999994
   12.04888916  129.75199890    3.78999996    2.07999992
   12.05083370  137.86999512    4.36999989    2.07999992
   12.05249977  137.13299561    4.36999989    2.07999992
   12.05583382  139.19799805    3.32999992    2.09999990
   12.05916691  149.63099670    3.36999989    2.05999994
   12.06222248  137.02900696    3.61999989    2.07999992
   12.06555557  137.11000061    3.51999998    2.07999992
   12.06861115  137.82899475    4.00000000    2.07999992
   12.07194424  138.88999939    4.32999992    2.07999992
   12.07527733  139.52799988    3.99000001    2.09999990
   12.08111095  139.52799988    4.21999979    2.11999989
   12.08527756  135.82099915    3.73000002    2.13000011
   12.08861065  132.33500671    3.68000007    2.11999989
   12.09166622  135.53500366    3.34999990    2.11999989
   12.09499931  132.87899780    3.21000004    2.13000011
   12.09805489  129.58799744    3.21000004    2.11999989
   12.10138893  132.78799438    3.20000005    2.13000011
   12.10472298  131.29899597    3.16000009    2.13000011
   12.10777855  127.78199768    3.16000009    2.11999989
   12.11111164  127.59400177    3.09999990    2.13000011
   12.11444473  134.20500183    3.07999992    2.11999989
   12.11750031  127.19300079    3.07999992    2.13000011
   12.11777782  131.94400024    3.07999992    2.11999989
   12.12388897  131.94400024    3.05999994    2.13000011
   12.12805557  124.34200287    3.05999994    2.13000011
   12.13138866  123.17900085    3.05999994    2.11999989
   12.13444424  122.37899780    3.07999992    2.11999989
   12.13777733  127.33100128    3.07999992    2.11999989
   12.14111137  132.97599792    3.11999989    2.11999989
   12.14416695  134.99400330    3.11999989    2.11999989
   12.14750004  136.41799927    3.18000007    2.11999989
   12.15083313  147.14300537    3.28999996    2.11999989
   12.15111065  126.38099670    3.28999996    2.11999989
   12.15444374  131.10400391    3.26999998    2.09999990
   12.15749931  144.44900513    3.18000007    2.11999989
   12.16083336  142.99000549    3.18000007    2.09999990
   12.16694450  142.99000549    3.23000002    2.07999992
   12.17083359  140.16900635    3.28999996    2.09999990
   12.17416668  132.22900391    3.30999994    2.09999990
   12.17750072  143.84800720    3.28999996    2.09999990
   12.18055630  133.41600037    3.32999992    2.09999990
   12.18388939  135.97300720    3.34999990    2.07999992
   12.18444443  135.46099854    3.34999990    2.09999990
   12.18777752  131.86099243    3.32999992    2.07999992
   12.19083309  147.34500122    3.32999992    2.11999989
   12.19416714  144.55299377    3.26999998    2.11999989
   12.21555519  144.55299377    4.90999985    2.01999998
   12.21944427  145.03700256    4.90999985    2.01999998
   12.22277737  151.38699341    4.90999985    2.05999994
   12.22611046   -1.00000000    4.90999985    1.66999996
   12.22916603  144.38999939    4.90999985    1.58000004
   12.23249912  224.08900452    4.90999985    1.91999996
   12.23583317  189.33999634    4.90999985    1.89999998
   12.23888874  147.99400330    4.90999985    1.91999996
   12.24222279  146.54100037    4.90999985    2.11999989
   12.24527836  157.85099792    4.90999985    2.11999989
   12.24861145  158.56700134    4.90999985    2.07999992
   12.25111103  183.34500122    4.90999985    1.94000006
   12.25222206  158.89900208    4.90999985    1.85000002
   12.25833321  158.89900208    4.90999985    1.75000000
   12.26222229  138.42199707    4.90999985    2.09999990
   12.26555538  145.49899292    4.90999985    2.07999992
   12.26888847  216.16000366    4.90999985    1.58000004
   12.27194405  146.48899841    4.90999985    1.69000006
   12.27527714  149.66499329    4.90999985    1.85000002
   12.27833271  127.71600342    4.90999985    1.98000002
   12.28166676   -1.00000000    4.90999985    1.58000004
   12.28527832   -1.00000000    4.90999985    0.61000001
   12.28833389   -1.00000000    4.90999985    0.69000000
   12.29166698   -1.00000000    4.90999985    0.98000002
   12.29472256   -1.00000000    4.90999985    0.55000001
   12.30500031   -1.00000000    4.90999985    0.55000001
   12.30833340   -1.00000000    4.90999985    0.58999997
   12.31138897   -1.00000000    4.90999985    0.41999999
   12.31472206   -1.00000000    4.90999985    0.40000001
   12.31833363   -1.00000000    4.90999985    0.79000002
   12.32138920   -1.00000000    4.90999985    0.63000000
   12.32472229   -1.00000000    4.90999985    1.16999996
   12.32777786   -1.00000000    4.90999985    1.07000005
   12.33111095  277.86898804    4.90999985    0.81999999
   12.33444405  277.63101196    4.90999985    1.53999996
   12.33749962  250.91799927    4.90999985    1.73000002
   12.34388828  250.91799927    4.90999985    2.07999992
   12.34805489  149.29600525    4.90999985    2.05999994
   12.35111141  134.06599426    4.90999985    2.01999998
   12.35166740  126.92900085    4.90999985    2.00000000
   12.35500050  156.91999817    4.90999985    2.05999994
   12.35805607   -1.00000000    4.90999985    1.53999996
   12.36138916  146.59500122    4.90999985    1.76999998
   12.36444473  141.97000122    4.90999985    2.01999998
   12.36777782  144.16799927    4.90999985    2.07999992
   12.37111092  142.61199951    4.90999985    1.83000004
   12.37416649   -1.00000000    4.90999985    1.71000004
   12.37750053  159.24699402    4.90999985    1.61000001
   12.38083363   -1.00000000    4.90999985    1.60000002
   12.39083290   -1.00000000    4.90999985    0.47999999
   12.39388847   -1.00000000    4.90999985    0.25999999
   12.39722252   -1.00000000    4.90999985    0.28000000
   12.40055561   -1.00000000    4.90999985    0.50000000
   12.40361118   -1.00000000    4.90999985    0.47999999
   12.40694427   -1.00000000    4.90999985    0.34000000
   12.41027737   -1.00000000    4.90999985    0.28000000
   12.41333294   -1.00000000    4.90999985    0.17000000
   12.41666698   -1.00000000    4.90999985    0.13000000
   12.42027855   -1.00000000    4.90999985    0.11000000
   12.42333412   -1.00000000    4.90999985    0.11000000
   12.43361092   -1.00000000    4.90999985    0.13000000
   12.43694496   -1.00000000    4.90999985    0.13000000
   12.44000053   -1.00000000    4.90999985    0.15000001
   12.44333363   -1.00000000    4.90999985    0.41999999
   12.44666672   -1.00000000    4.90999985    0.34000000
   12.44972229   -1.00000000    4.90999985    0.34000000
   12.45333290   -1.00000000    4.90999985    0.30000001
   12.45638847   -1.00000000    4.90999985    0.34000000
   12.45972157   -1.00000000    4.90999985    0.51999998
   12.46305561   -1.00000000    4.90999985    0.83999997
   12.46611118   -1.00000000    4.90999985    0.86000001
   12.47638798   -1.00000000    4.90999985    0.70999998
   12.47972202  167.28700256    4.90999985    1.26999998
   12.48305511   -1.00000000    4.90999985    1.51999998
   12.48666668   -1.00000000    4.90999985    0.75000000
   12.48972225   -1.00000000    4.90999985    0.81999999
   12.49305534   23.57019997    4.90999985    0.95999998
   12.49638939  179.69500732    4.90999985    1.34000003
   12.49944496  248.28399658    4.90999985    1.69000006
   12.50277805  139.29699707    4.90999985    1.75000000
   12.50611115  133.18200684    4.90999985    2.05999994
   12.50916672  144.14599609    4.90999985    2.11999989
   12.51527786  144.14599609    4.90999985    2.03999996
   12.51944447  177.02000427    4.90999985    1.98000002
   12.52277756  268.83599854    4.90999985    1.73000002
   12.52583313  243.48800659    4.90999985    1.50000000
   12.52916622  173.41200256    4.90999985    1.64999998
   12.53222179  184.17799377    4.90999985    1.76999998
   12.53555584  155.71400452    4.90999985    1.80999994
   12.53888893  246.63499451    4.90999985    1.96000004
   12.54194450  303.96301270    4.90999985    1.63000000
   12.54527855  297.03500366    4.90999985    1.51999998
   12.54861164  287.81600952    4.90999985    1.63000000
   12.55111122  232.98500061    4.90999985    1.63000000
   12.55222225  319.82699585    4.90999985    1.63000000
   12.55805588  319.82699585    4.90999985    1.61000001
   12.56222248  320.48999023    4.90999985    1.55999994
   12.56555557  120.90699768    4.90999985    1.41999996
   12.56861115  200.16600037    4.90999985    1.39999998
   12.57194424  124.27400208    4.90999985    1.50000000
   12.57527733  243.52900696    4.90999985    1.44000006
   12.57833290  246.43800354    4.90999985    1.75000000
   12.58166695  285.95901489    4.90999985    1.71000004
   12.58444405  228.05499268    4.90999985    1.75000000
   12.58527756  230.37800598    4.90999985    1.69000006
   12.58861065  354.20901489    4.90999985    1.75000000
   12.59166622   -1.00000000    4.90999985    1.51999998
   12.59499931   -1.00000000    4.90999985    1.05999994
   12.60500050   -1.00000000    4.90999985    0.34000000
   12.60833359   -1.00000000    4.90999985    0.17000000
   12.61138916   -1.00000000    4.90999985    0.19000000
   12.61472225   -1.00000000    4.90999985    0.23000000
   12.61833382   -1.00000000    4.90999985    0.23000000
   12.62138939   -1.00000000    4.90999985    0.11000000
   12.62472248   -1.00000000    4.90999985    0.11000000
   12.62805557   -1.00000000    4.90999985    0.13000000
   12.63111115   -1.00000000    4.90999985    0.13000000
   12.63444424   -1.00000000    4.90999985    0.13000000
   12.63749981   -1.00000000    4.90999985    0.15000001
   13.85249996   90.53659821    1.73000002    2.59999990
   13.85583401  109.80599976    1.73000002    2.59999990
   13.85888958  110.14900208    1.71000004    2.61999989
   13.86222267  108.41899872    1.69000006    2.59999990
   13.86555576  112.20800018    1.69000006    2.59999990
   13.86861134  109.09999847    1.71000004    2.59999990
   13.87277794  109.09999847    1.71000004    2.59999990
   13.87694454  109.71099854    1.71000004    2.59999990
   13.88027763  110.88400269    1.73000002    2.61999989
   13.88333321  109.31400299    1.73000002    2.59999990
   13.88583279  113.28500366    1.73000002    2.59999990
   13.88722229  111.20400238    1.73000002    2.59999990
   13.89055538  106.02400208    1.73000002    2.59999990
   13.89361095  108.41500092    1.75000000    2.59999990
   13.89694405  112.90899658    2.00000000    2.55999994
   13.89999962  106.90499878    2.03999996    2.55999994
   13.90333271  108.11399841    2.00000000    2.57999992
   13.90666676  107.91500092    1.80999994    2.59999990
   13.90972137  108.02899933    1.80999994    2.59999990
   13.91583252  108.02899933    3.45000005    2.61999989
   13.91972256  115.81500244    2.09999990    2.59999990
   13.92305565  106.12699890    4.90999985    2.64000010
   13.92638874  111.01999664    4.90999985    2.66000009
   13.92944431  116.42600250    4.90999985    2.66000009
   13.93277836  211.71499634    4.90999985    1.98000002
   13.93583298  118.19200134    4.90999985    1.96000004
   13.93916702  106.77799988    4.90999985    2.61999989
   13.94250011  108.74500275    2.67000008    2.61999989
   13.94555569  107.87100220    2.19000006    2.59999990
   13.94888878  109.07599640    2.17000008    2.59999990
   13.95222187  109.51899719    1.88000000    2.55999994
   13.95277786  110.97399902    1.88000000    2.55999994
   13.95861053  110.97399902    1.78999996    2.59999990
   13.96277714  105.80500031    1.78999996    2.59999990
   13.96583271  112.62100220    1.76999998    2.61999989
   13.96916580  106.98400116    1.76999998    2.59999990
   13.97222137  115.46099854    1.75000000    2.59999990
   13.97555542  109.48000336    1.75000000    2.61999989
   13.97888851  108.31199646    1.75000000    2.61999989
   13.98194408  106.87300110    1.76999998    2.59999990
   13.98527813  106.07900238    1.78999996    2.59999990
   13.98611164  113.46199799    1.80999994    2.59999990
   13.98888874  108.34200287    1.83000004    2.59999990
   13.99222279  104.70600128    1.86000001    2.57999992
   13.99527836  108.44100189    1.83000004    2.57999992
   14.00138855  108.44100189    1.80999994    2.59999990
   14.00555515  110.13999939    1.78999996    2.59999990
   14.00888920  109.36199951    1.76999998    2.59999990
   14.01194477  110.20200348    1.75000000    2.59999990
   14.01527786  110.89900208    1.75000000    2.59999990
   14.01833344  107.66699982    1.75000000    2.61999989
   14.01944447  107.66999817    1.73000002    2.61999989
   14.02194405  111.67600250    3.01999998    2.64000010
   14.02527714  108.71199799    4.90999985    2.64000010
   14.02833271  142.48199463    4.90999985    1.91999996
   14.03166676  138.14700317    4.90999985    1.61000001
   14.03500080  118.06099701    4.90999985    2.26999998
   14.03805637  110.57499695    4.90999985    2.61999989
   14.04666710  110.57499695    4.90999985    2.48000002
   14.05083370  134.01699829    4.90999985    2.67000008
   14.05277824  188.25799561    4.90999985    2.67000008
   14.05444431  145.33399963    4.90999985    1.75000000
   14.05777836  153.99600220    4.90999985    1.36000001
   14.06083393   -1.00000000    4.90999985    1.03999996
   14.06416702   -1.00000000    4.90999985    0.19000000
   14.06750011   -1.00000000    4.90999985    0.19000000
   14.07055569   -1.00000000    4.90999985    0.19000000
   14.07388878   -1.00000000    4.90999985    0.19000000
   14.07722187   -1.00000000    4.90999985    0.19000000
   14.08027744   -1.00000000    4.90999985    0.19000000
   14.09138870   -1.00000000    4.90999985    0.19000000
   14.09472179   -1.00000000    4.90999985    0.19000000
   14.09805489   -1.00000000    4.90999985    0.19000000
   14.10111141   -1.00000000    1.83000004    0.01000000
   14.10444450   -1.00000000    4.90999985    0.03000000
   14.10777855   -1.00000000    4.90999985    0.13000000
   14.11083412   -1.00000000    4.90999985    0.30000001
   14.11416721   -1.00000000    4.90999985    0.83999997
   14.11750031   95.84500122    4.90999985    0.69000000
   14.11944485  107.98899841    4.90999985    1.25000000
   14.12083340  113.16000366    4.90999985    1.44000006
   14.12416649  104.63800049    4.90999985    2.53999996
   14.13000011  104.63800049    2.44000006    2.57999992
   14.13416672  108.20999908    1.66999996    2.66000009
   14.13722229  108.11799622    1.66999996    2.64000010
   14.14055538  112.66999817    2.11999989    2.66000009
   14.14722252  114.92700195    4.90999985    2.73000002
   14.15055561  108.12000275    4.90999985    2.75000000
   14.15277767  141.66900635    4.90999985    2.73000002
   14.15416622  135.36199951    4.90999985    2.50000000
   14.15749931  111.43099976    4.90999985    2.21000004
   14.16083336  145.27900696    4.90999985    2.66000009
   14.16416645  109.29799652    4.90999985    2.28999996
   14.16722298  106.57700348    4.90999985    2.75000000
   14.17055607  112.13899994    4.90999985    2.76999998
   14.17527771  112.13899994    4.90999985    2.75000000
   14.17916679  109.80200195    4.23999977    2.67000008
   14.18249989  113.86599731    1.75000000    2.66000009
   14.18611145  112.29100037    1.66999996    2.64000010
   14.18666649  114.52400208    1.66999996    2.64000010
   14.18972206  112.55100250    1.71000004    2.64000010
   14.19305515  110.07700348    1.71000004    2.61999989
   14.19638920  102.16500092    1.73000002    2.64000010
   14.19944477  112.60800171    1.73000002    2.64000010
   14.20277786  111.05999756    1.73000002    2.61999989
   14.20583344  116.54699707    1.75000000    2.61999989
   14.20916653  108.51599884    1.75000000    2.61999989
   14.21249962  112.95500183    1.71000004    2.61999989
   14.21777725  112.95500183    1.71000004    2.61999989
   14.22194386  111.44599915    1.64999998    2.64000010
   14.22499943  109.82900238    1.64999998    2.64000010
   14.22833252  109.11599731    1.64999998    2.64000010
   14.23166656  111.92900085    1.63000000    2.64000010
   14.23472214  110.27600098    1.61000001    2.64000010
   14.23805618  114.33499908    1.60000002    2.64000010
   14.24138927  113.47000122    1.60000002    2.64000010
   14.24444485  108.43199921    1.60000002    2.64000010
   14.24777794  107.63899994    1.60000002    2.66000009
   14.25083351  108.55599976    1.58000004    2.66000009
   14.25472260  104.59700012    1.60000002    2.66000009
   14.25611115  110.32900238    1.58000004    2.66000009
   14.26055527  110.32900238    1.55999994    2.67000008
   14.26861095  107.52899933    1.58000004    2.66000009
   14.27166653  105.63400269    1.58000004    2.66000009
   14.27499962  108.83699799    1.58000004    2.66000009
   14.27805519  113.16000366    1.58000004    2.66000009
   14.28138828  108.08799744    1.58000004    2.66000009
   14.28472233  113.03199768    1.58000004    2.66000009
   14.28666687  111.81999969    1.58000004    2.66000009
   14.28833389  109.64499664    1.58000004    2.66000009
   14.29166698  115.69799805    1.58000004    2.66000009
   14.29500008  113.23799896    1.60000002    2.66000009
   14.29805565  110.01499939    1.60000002    2.66000009
   14.30333328  110.01499939    1.63000000    2.66000009
   14.30749989  108.00199890    1.64999998    2.64000010
   14.31083393  111.00399780    1.64999998    2.64000010
   14.31416702  110.83200073    1.63000000    2.64000010
   14.31750011  112.10800171    1.63000000    2.64000010
   14.31999969  111.93199921    1.66999996    2.64000010
   14.32111073  104.58499908    1.64999998    2.64000010
   14.32416630  111.89299774    1.64999998    2.61999989
   14.32750034  107.38899994    1.64999998    2.64000010
   14.33111095  108.57599640    1.64999998    2.64000010
   14.33444405  105.87799835    1.64999998    2.64000010
   14.33749962  105.06700134    1.64999998    2.64000010
   14.34083271  107.53099823    1.63000000    2.64000010
   14.35555553  107.53099823    1.60000002    2.64000010
   14.35972214  107.14499664    1.58000004    2.64000010
   14.36277771  112.29599762    1.55999994    2.66000009
   14.36611176  113.21299744    1.55999994    2.66000009
   14.36944485  112.14299774    1.46000004    2.67000008
   14.37250042  110.94300079    1.46000004    2.67000008
   14.37583351  111.58000183    1.46000004    2.67000008
   14.37916660  110.82399750    1.46000004    2.66000009
   14.38222218  106.08200073    1.46000004    2.66000009
   14.38916683  106.08200073    1.46000004    2.66000009
   14.39333344  107.60600281    1.48000002    2.67000008
   14.39638901  104.87899780    1.50000000    2.67000008
   14.39972210  106.76799774    1.73000002    2.67000008
   14.40305519  107.87300110    3.32999992    2.69000006
   14.40611076  106.01799774    4.90999985    2.71000004
   14.40944386  110.94100189    4.90999985    2.71000004
   14.41249943  108.18699646    4.90999985    2.71000004
   14.41583252  105.41300201    4.90999985    2.66000009
   14.41916656  124.06999969    4.90999985    2.64000010
   14.42222214  161.52900696    4.90999985    2.15000010
   14.42416668  143.45799255    4.90999985    2.28999996
   14.42611122  110.99500275    4.90999985    2.05999994
   14.43194485  110.99500275    4.90999985    2.51999998
   14.43611145  112.48400116    2.34999990    1.66999996
   14.43944454  113.41600037    1.88000000    2.59999990
   14.44250011  108.39099884    1.66999996    2.64000010
   14.44583321  111.12799835    1.48000002    2.64000010
   14.44888878   98.62889862    1.46000004    2.66000009
   14.45222187  109.45300293    1.46000004    2.66000009
   14.45555496  108.08100128    1.46000004    2.66000009
   14.45749950  107.45099640    1.46000004    2.67000008
   14.45916653  111.37999725    1.44000006    2.66000009
   14.46222210  112.89499664    1.44000006    2.67000008
   14.46555519  108.59400177    1.44000006    2.66000009
   14.46888828  108.57199860    1.44000006    2.66000009
   14.47472191  108.57199860    1.44000006    2.66000009
   14.47888851  115.50299835    1.41999996    2.66000009
   14.48222160  110.84899902    1.41999996    2.66000009
   14.48527813  108.25900269    1.39999998    2.67000008
   14.48861122  108.21800232    1.39999998    2.66000009
   14.49111176  107.84899902    1.39999998    2.67000008
   14.49222279  111.04299927    1.39999998    2.67000008
   14.49555588  111.58300018    1.39999998    2.66000009
   14.49888897  109.73000336    1.39999998    2.67000008
   14.50194454  104.68599701    1.38000000    2.66000009
   14.50527763  108.63200378    1.36000001    2.67000008
   14.50861073  109.89399719    1.36000001    2.66000009
   14.51166630  108.81999969    1.36000001    2.66000009
   14.51777744  108.81999969    1.34000003    2.67000008
   14.52166653  106.95999908    1.34000003    2.67000008
   14.52444458  106.12699890    1.34000003    2.67000008
   14.52527714  108.71399689    1.34000003    2.67000008
   14.52861118  108.03099823    1.34000003    2.67000008
   14.53194427  108.33300018    1.34000003    2.67000008
   14.53500080  106.71299744    1.34000003    2.67000008
   14.53833389  109.39700317    1.33000004    2.67000008
   14.54166698  113.23400116    1.33000004    2.67000008
   14.54472256  111.39700317    1.30999994    2.67000008
   14.54805565  102.92099762    1.30999994    2.67000008
   14.55138874  111.29799652    1.30999994    2.67000008
   14.55444431  106.62699890    1.30999994    2.67000008
   14.56055546  106.62699890    1.30999994    2.67000008
   14.56472206  112.57900238    1.28999996    2.67000008
   14.56777763  104.08000183    1.28999996    2.69000006
   14.57111073  112.12200165    1.28999996    2.69000006
   14.57444477  105.49099731    1.28999996    2.69000006
   14.57750034  106.50000000    1.28999996    2.67000008
   14.58083344  107.41799927    1.28999996    2.67000008
   14.58416653  107.62300110    1.28999996    2.67000008
   14.58722210  106.34899902    1.28999996    2.67000008
   14.59055519  104.80000305    1.28999996    2.67000008
   14.59138870  109.78199768    1.30999994    2.67000008
   14.59416676  102.33499908    1.30999994    2.67000008
   14.59722233  105.66799927    1.30999994    2.67000008
   14.60444450  105.66799927    1.28999996    2.67000008
   14.60833359  102.46499634    1.28999996    2.69000006
   14.61166668  101.96900177    1.28999996    2.69000006
   14.61500072  104.36299896    1.28999996    2.67000008
   14.61805534  105.54699707    1.26999998    2.67000008
   14.62138939  100.43299866    1.26999998    2.71000004
   14.62472248  107.16600037    1.26999998    2.69000006
   14.62527752  100.98899841    1.26999998    2.69000006
   14.62833309   99.58270264    1.26999998    2.69000006
   14.63166714  109.70600128    1.26999998    2.69000006
   14.63472176  105.89499664    1.26999998    2.69000006
   14.63805580  105.29699707    1.28999996    2.69000006
   14.64138889  105.56800079    1.28999996    2.69000006
   14.64611053  105.56800079    1.28999996    2.69000006
   14.65027714  104.21900177    1.26999998    2.69000006
   14.65361118  103.27799988    1.25000000    2.69000006
   14.65694427   99.12249756    1.25000000    2.69000006
   14.65861034  104.71499634    1.26999998    2.69000006
   14.66055489  102.48999786    1.26999998    2.69000006
   14.66361046  103.77600098    1.26999998    2.69000006
   14.66694450  105.02899933    1.25000000    2.69000006
   14.67027855  104.31300354    1.25000000    2.69000006
   14.67333412  104.33000183    1.23000002    2.69000006
   14.67666721  101.17800140    1.21000004    2.69000006
   14.68000031  105.90799713    1.23000002    2.69000006
   14.68305588  107.83699799    1.21000004    2.71000004
   14.68888855  107.83699799    1.23000002    2.69000006
   14.69305515  104.66999817    1.21000004    2.69000006
   14.69638920  103.09300232    1.21000004    2.69000006
   14.69972229  105.90200043    1.23000002    2.69000006
   14.70277786  104.52400208    1.25000000    2.67000008
   14.70611095  105.87500000    1.26999998    2.67000008
   14.70916653  105.60500336    1.26999998    2.67000008
   14.71249962   99.93789673    1.26999998    2.69000006
   14.71583271  104.94100189    1.26999998    2.67000008
   14.71888828  103.65699768    1.26999998    2.67000008
   14.72222137  103.78600311    1.26999998    2.67000008
   14.72527695  105.65399933    1.26999998    2.67000008
   14.72583294   99.31569672    1.28999996    2.67000008
   14.73194408   99.31569672    1.30999994    2.67000008
   14.73611164  107.14299774    1.30999994    2.66000009
   14.73916721  108.65499878    1.33000004    2.66000009
   14.74250031  107.07299805    1.36000001    2.66000009
   14.74583340  124.71800232    1.98000002    2.44000006
   14.74888897  195.42300415    4.90999985    1.48000002
   14.75222206  209.71499634    4.90999985    1.41999996
   14.75555515   -1.00000000    4.90999985    1.07000005
   14.75888920   -1.00000000    4.90999985    0.61000001
   14.76222229   -1.00000000    4.90999985    0.58999997
   14.76527786   -1.00000000    4.90999985    0.64999998
   14.76861095   -1.00000000    4.90999985    0.73000002
   14.77472210   -1.00000000    4.90999985    1.16999996
   14.77888870  138.83799744    4.90999985    1.85000002
   14.78194427  125.51599884    4.90999985    2.42000008
   14.78527832  118.65699768    2.76999998    2.61999989
   14.78861141  105.51699829    1.60000002    2.66000009
   14.79166698  109.34500122    1.28999996    2.67000008
   14.79222298  105.48799896    1.26999998    2.67000008
   14.79555607  110.34500122    1.23000002    2.67000008
   14.79888916  109.37000275    1.21000004    2.66000009
   14.80194473  113.41600037    1.21000004    2.67000008
   14.80527782  106.45600128    1.19000006    2.67000008
   14.80833340  108.68800354    1.21000004    2.67000008
   14.81166649  104.68099976    1.19000006    2.67000008
   14.81750011  104.68099976    1.19000006    2.69000006
   14.82166672  106.76399994    1.19000006    2.69000006
   14.82499981  106.46700287    1.19000006    2.67000008
   14.82555580  112.88400269    1.19000006    2.69000006
   14.82861137  109.78500366    1.19000006    2.69000006
   14.83194447  107.73500061    1.19000006    2.67000008
   14.83500004  107.07900238    1.19000006    2.69000006
   14.83833313  107.54699707    1.16999996    2.69000006
   14.84166622  108.39800262    1.16999996    2.67000008
   14.84472179  109.11100006    1.16999996    2.67000008
   14.84805489  111.17199707    1.16999996    2.69000006
   14.85111141  108.54199982    1.14999998    2.69000006
   14.87333393  108.54199982    1.19000006    2.67000008
   14.87722206  106.04399872    1.21000004    2.69000006
   14.88055611  110.32099915    1.21000004    2.67000008
   14.88388920  109.49099731    1.21000004    2.67000008
   14.88694477  112.41200256    1.21000004    2.67000008
   14.89027786  108.95099640    1.21000004    2.67000008
   14.89361095  104.16200256    1.21000004    2.67000008
   14.89666653  108.72899628    1.21000004    2.69000006
   14.89999962  106.45700073    1.19000006    2.67000008
   14.90305519  113.02700043    1.21000004    2.69000006
   14.90388870  107.91300201    1.21000004    2.69000006
   14.90666676  108.64900208    1.21000004    2.69000006
   14.90999985   99.82230377    1.21000004    2.67000008
   14.91583252   99.82230377    1.21000004    2.69000006
   14.92000008  105.23699951    1.21000004    2.67000008
   14.92333412  108.05300140    1.21000004    2.69000006
   14.92666721  109.01999664    1.21000004    2.69000006
   14.92972279  110.34200287    1.21000004    2.69000006
   14.93305588  105.96299744    1.21000004    2.71000004
   14.93611145  108.64600372    1.19000006    2.69000006
   14.93722248  109.79799652    1.19000006    2.71000004
   14.93972206  110.00700378    1.61000001    2.71000004
   14.94305515  112.44000244    1.61000001    2.73000002
   14.94611073  108.73500061    3.66000009    2.73000002
   14.94944477  111.08300018    3.57999992    2.75000000
   14.95277786  105.29799652    4.90999985    2.76999998
   14.95888901  105.29799652    4.90999985    2.78999996
   14.96305561  108.06900024    4.90999985    2.73000002
   14.96611118  104.77300262    4.90999985    2.82999992
   14.96944427  102.01100159    4.90999985    2.78999996
   14.97083282  107.09899902    4.90999985    2.78999996
   14.97305489  106.30899811    4.90999985    2.78999996
   14.97611046  108.95800018    4.90999985    2.75000000
   14.97944355  107.96600342    4.90999985    2.71000004
   14.98277760  106.47899628    4.90999985    2.67000008
   14.98583317  100.43499756    1.19000006    2.71000004
   14.98916721  112.12100220    1.07000005    2.71000004
   14.99250031  107.29699707    1.09000003    2.71000004
   14.99555588  107.98899841    1.09000003    2.69000006
   15.00166702  107.98899841    1.05999994    2.71000004
   15.00583363  113.23600006    1.03999996    2.71000004
   15.00888920  112.77899933    1.03999996    2.71000004
   15.01222229  107.30500031    1.03999996    2.71000004
   15.01555538  118.01799774    1.05999994    2.71000004
   15.01861095  109.35800171    1.03999996    2.71000004
   15.02194405  116.80799866    1.03999996    2.71000004
   15.02527714  110.17099762    1.03999996    2.71000004
   15.02833271  117.24199677    1.03999996    2.71000004
   15.03166676  124.53500366    1.03999996    2.71000004
   15.03472233  121.81199646    1.03999996    2.71000004
   15.03750038  118.97100067    1.03999996    2.71000004
   15.03861141  119.90499878    1.03999996    2.71000004
   15.04444504  119.90499878    1.03999996    2.71000004
   15.04861164  123.85800171    1.05999994    2.71000004
   15.05194473  124.23699951    1.05999994    2.71000004
   15.05500031  112.67199707    1.05999994    2.71000004
   15.05833340  123.65899658    1.05999994    2.69000006
   15.06138897  118.59200287    1.05999994    2.71000004
   15.06472206  127.55400085    1.05999994    2.71000004
   15.06805515  127.88800049    1.05999994    2.69000006
   15.07083321  135.86500549    1.07000005    2.71000004
   15.07166672  127.49600220    1.07000005    2.71000004
   15.07472229  131.57899475    1.07000005    2.71000004
   15.07805538  122.60099792    1.09000003    2.71000004
   15.08138847  123.30699921    1.07000005    2.71000004
   15.08722210  123.30699921    1.05999994    2.71000004
   15.09138870  147.38499451    1.05999994    2.71000004
   15.09499931  149.19500732    1.03999996    2.71000004
   15.09805489  155.02000427    1.03999996    2.71000004
   15.10138893  155.25799561    1.03999996    2.71000004
   15.10416698  153.92700195    1.03999996    2.71000004
   15.10500050  156.99800110    1.03999996    2.71000004
   15.10805607  171.01100159    1.03999996    2.71000004
   15.11138916  168.78900146    1.01999998    2.71000004
   15.11472225  183.37800598    1.01999998    2.71000004
   15.11777782  179.52999878    1.01999998    2.71000004
   15.12111092  202.31599426    1.01999998    2.71000004
   15.12444496  232.82299805    1.07000005    2.71000004
   15.13027763  232.82299805    1.09000003    2.69000006
   15.13444424  257.96398926    1.09000003    2.69000006
   15.13749981  304.23199463    1.09000003    2.71000004
   15.13805580  314.11199951    1.09000003    2.71000004
   15.14111137  338.86300659    1.11000001    2.69000006
   15.14444447  360.30700684    1.11000001    2.71000004
   15.14777756  317.80801392    1.11000001    2.71000004
   15.15083313  269.85998535    1.09000003    2.71000004
   15.15416622  214.58299255    1.13000000    2.71000004
   15.15749931  129.40600586    4.90999985    2.80999994
   15.16055489   -1.00000000    4.90999985    2.61999989
   15.16388893   -1.00000000    4.90999985    0.79000002
   15.16694450   -1.00000000    4.90999985    0.70999998
   15.17694473   -1.00000000    4.90999985    0.40000001
   15.18027782   -1.00000000    4.90999985    0.47999999
   15.18361092   -1.00000000    4.90999985    0.40000001
   15.18666649   -1.00000000    4.90999985    0.40000001
   15.19000053   -1.00000000    4.90999985    1.41999996
   15.20222187   -1.00000000    0.00000000    0.00000000
   15.20694447   -1.00000000    4.76000023    2.67000008
   15.21027756   -1.00000000    3.68000007    2.48000002
   15.21611118   -1.00000000    2.67000008    2.69000006
   15.22027779   -1.00000000    2.17000008    2.71000004
   15.22333336   -1.00000000    4.86999989    2.71000004
   15.22666645   -1.00000000    4.90999985    2.73000002
   15.22999954   -1.00000000    4.90999985    2.71000004
   15.23305511   -1.00000000    4.90999985    2.73000002
   15.23638916   -1.00000000    4.90999985    2.48000002
   15.24000072   -1.00000000    4.90999985    2.26999998
   15.24305534   -1.00000000    4.90999985    2.28999996
   15.24638939   -1.00000000    4.90999985    2.64000010
   15.25861073   -1.00000000    0.00000000    0.00000000
   15.26694393   -1.00000000    3.00000000    2.69000006
   15.27027798   -1.00000000    1.39999998    2.69000006
   15.27333355   -1.00000000    1.13000000    2.69000006
   15.27694416   -1.00000000    1.09000003    2.69000006
   15.28027725   -1.00000000    1.09000003    2.67000008
   15.38444424   -1.00000000   -1.00000000   -1.00000000
   15.57999992   -1.00000000   -1.00000000   -1.00000000
   15.75583363   -1.00000000   -1.00000000   -1.00000000
   15.79916668   81.22949982    0.88000000    2.75000000
   15.80249977  120.68299866    0.88000000    2.73000002
   15.80583382  115.41799927    0.88000000    2.75000000
   15.80888939  114.44200134    0.89999998    2.75000000
   15.81222248  113.67400360    0.92000002    2.73000002
   15.81555557  116.67500305    0.92000002    2.73000002
   15.81972218  116.67500305    0.92000002    2.75000000
   15.82388878  118.22000122    0.92000002    2.75000000
   15.82694435  114.56600189    0.92000002    2.75000000
   15.83027744  111.23000336    0.94000000    2.75000000
   15.83277798  109.99099731    0.92000002    2.75000000
   15.83416653  115.08899689    0.92000002    2.75000000
   15.83722210  112.55799866    0.92000002    2.75000000
   15.84055519  115.16100311    0.92000002    2.75000000
   15.84416676  116.13200378    0.92000002    2.75000000
   15.84722233  120.61499786    0.92000002    2.75000000
   15.85055637  115.27600098    0.89999998    2.75000000
   15.85388947  118.38200378    0.89999998    2.75000000
   15.85694504  114.63999939    0.89999998    2.75000000
   15.86250019  114.63999939    0.89999998    2.75000000
   15.86694431  107.65399933    0.89999998    2.73000002
   15.87027836  103.25099945    0.89999998    2.75000000
   15.87333393  111.66300201    0.89999998    2.75000000
   15.87666702  117.35800171    0.89999998    2.75000000
   15.88027763  111.19000244    0.89999998    2.75000000
   15.88361073  106.71800232    0.89999998    2.75000000
   15.88666630  109.33000183    0.88000000    2.75000000
   15.89888859  109.09799957    0.00000000    0.00000000
   15.89944458  105.70999908    0.86000001    2.75000000
   15.90249920  105.47200012    0.86000001    2.75000000
   15.90833282  105.47200012    0.86000001    2.76999998
   15.91249943  105.10199738    0.88000000    2.75000000
   15.91555500  103.48300171    0.88000000    2.75000000
   15.91888905  106.33200073    0.89999998    2.73000002
   15.92222214  106.31800079    0.92000002    2.73000002
   15.92527771  107.34799957    0.92000002    2.73000002
   15.92861176  104.97399902    0.92000002    2.75000000
   15.93166733  108.80699921    0.92000002    2.75000000
   15.93277836  104.43399811    0.92000002    2.75000000
   15.93555546  112.78299713    0.89999998    2.75000000
   15.93861103  113.01699829    0.89999998    2.75000000
   15.95416641  108.49500275    0.00000000    0.00000000
   15.95833302  108.49500275    0.88000000    2.75000000
   15.96222210  108.34799957    0.88000000    2.75000000
   15.96555519  108.99800110    0.89999998    2.73000002
   15.96888828  103.52899933    0.92000002    2.75000000
   15.96972179  103.14499664    0.92000002    2.75000000
   15.97249985  101.82199860    0.92000002    2.75000000
   15.97555542  103.55999756    0.92000002    2.75000000
   15.97888851  103.63700104    0.92000002    2.75000000
   15.98222160  104.08799744    0.92000002    2.75000000
   15.98527813  105.30799866    0.92000002    2.75000000
   15.98861122  107.01100159    0.89999998    2.75000000
   15.99194431  109.55999756    0.83999997    2.75000000
   15.99499989  104.93399811    0.83999997    2.75000000
   16.00111198  104.93399811    0.83999997    2.75000000
   16.00527763  105.24099731    0.83999997    2.75000000
   16.00833321  100.97499847    0.86000001    2.75000000
   16.01166725  104.56900024    0.86000001    2.75000000
   16.01472282  108.50599670    0.86000001    2.75000000
   16.01805496  107.16300201    0.86000001    2.75000000
   16.02138901  103.91000366    0.88000000    2.75000000
   16.02444458  102.17600250    0.88000000    2.75000000
   16.02777672  103.04799652    0.88000000    2.75000000
   16.03111076  101.44000244    0.88000000    2.75000000
   16.03416634  102.86499786    0.88000000    2.75000000
   16.03638840   96.98889923    0.88000000    2.75000000
   16.03805542  104.11000061    0.88000000    2.76999998
   16.04388809  104.11000061    0.88000000    2.75000000
   16.04805565   94.85500336    0.86000001    2.75000000
   16.05111122  104.72899628    0.86000001    2.76999998
   16.05499840  102.02500153    0.86000001    2.75000000
   16.05833244  104.86900330    0.86000001    2.75000000
   16.06222153  111.37599945    0.81999999    2.75000000
   16.06527710  102.20800018    0.83999997    2.75000000
   16.06861115  107.93099976    0.83999997    2.75000000
   16.06972313  108.97599792    0.81999999    2.76999998
   16.07222366  107.74299622    0.81999999    2.76999998
   16.07555580  104.78199768    0.83999997    2.75000000
   16.07888985  110.23300171    0.83999997    2.75000000
   16.08222389  107.58899689    0.86000001    2.75000000
   16.08666801  107.58899689    0.88000000    2.75000000
   16.09083366  104.81400299    0.88000000    2.75000000
   16.09416771  107.55999756    0.89999998    2.75000000
   16.09722328  106.59100342    0.89999998    2.75000000
   16.10055542  108.99900055    0.92000002    2.75000000
   16.10333443  107.74700165    0.92000002    2.75000000
   16.10444450  107.07199860    0.92000002    2.75000000
   16.10750008  105.81999969    0.89999998    2.75000000
   16.11083412  107.04100037    0.89999998    2.75000000
   16.11388969  105.56099701    0.89999998    2.75000000
   16.11722183  107.87200165    0.89999998    2.75000000
   16.12055588  105.22000122    0.88000000    2.75000000
   16.12361145  106.36499786    0.88000000    2.75000000
   16.12972260  106.36499786    0.86000001    2.75000000
   16.13361168  103.44699860    0.86000001    2.75000000
   16.13666725  114.95800018    0.86000001    2.75000000
   16.13750076  106.46099854    0.86000001    2.75000000
   16.14055634  103.90799713    0.86000001    2.75000000
   16.14388847  106.18900299    0.86000001    2.75000000
   16.14694405   98.66909790    0.86000001    2.75000000
   16.15027809  104.87899780    0.86000001    2.75000000
   16.15361023  104.84100342    0.86000001    2.75000000
   16.15694427   99.75710297    0.81999999    2.76999998
   16.15999985  103.25099945    0.83999997    2.76999998
   16.16333389  100.69599915    0.81999999    2.76999998
   16.16638756  107.28800201    0.81999999    2.75000000
   16.17249870  107.28800201    0.81999999    2.75000000
   16.17666626  101.38099670    0.83999997    2.75000000
   16.17972183  107.02700043    0.81999999    2.75000000
   16.18305397  107.95300293    0.83999997    2.75000000
   16.18610954  105.01499939    0.83999997    2.75000000
   16.18944359  103.93199921    0.83999997    2.75000000
   16.19277763  106.55799866    0.81999999    2.75000000
   16.19583321  108.64199829    0.81999999    2.75000000
   16.19916534  113.33999634    0.81999999    2.76999998
   16.20250130  108.58799744    0.81999999    2.76999998
   16.20333481  106.54000092    0.83999997    2.75000000
   16.20611191  106.16799927    0.83999997    2.75000000
   16.20916748  102.35900116    0.83999997    2.75000000
   16.21527863  102.35900116    0.83999997    2.75000000
   16.21944427  111.51599884    0.83999997    2.76999998
   16.22249985  104.55200195    0.83999997    2.75000000
   16.22583389  109.73500061    0.83999997    2.75000000
   16.22972298  109.89700317    0.86000001    2.76999998
   16.23305511  109.83100128    0.83999997    2.75000000
   16.23611069  111.30899811    0.86000001    2.75000000
   16.23666763  104.35099792    0.86000001    2.75000000
   16.23972321  104.74700165    0.86000001    2.75000000
   16.24277878  103.55200195    0.86000001    2.75000000
   16.24611092  100.53399658    0.86000001    2.75000000
   16.24944496   98.99069977    0.83999997    2.75000000
   16.25250053  108.93099976    0.83999997    2.75000000
   16.25805473  108.93099976    0.83999997    2.75000000
   16.26222229  110.85500336    0.83999997    2.76999998
   16.26555634  108.12699890    0.83999997    2.76999998
   16.26861000  107.78199768    0.83999997    2.75000000
   16.27027702  104.09899902    0.83999997    2.75000000
   16.27305603  106.63200378    0.86000001    2.75000000
   16.27611160  106.43900299    0.86000001    2.75000000
   16.27944374  103.81600189    0.86000001    2.75000000
   16.28249931  109.28299713    0.86000001    2.75000000
   16.28583336  112.36599731    0.86000001    2.75000000
   16.28916550  107.59500122    0.88000000    2.76999998
   16.29222107  108.88600159    0.88000000    2.75000000
   16.29555511  105.51599884    0.88000000    2.75000000
   16.30111122  105.51599884    0.88000000    2.75000000
   16.30499840  103.29599762    0.89999998    2.75000000
   16.30833244  110.71600342    0.89999998    2.75000000
   16.31166649  104.85800171    0.89999998    2.75000000
   16.31472206  109.64299774    0.89999998    2.75000000
   16.31805611  106.01899719    0.89999998    2.75000000
   16.32111168  106.65699768    0.89999998    2.75000000
   16.32444572  104.33300018    0.88000000    2.75000000
   16.32777786  107.93599701    0.88000000    2.76999998
   16.33111191  110.02400208    0.88000000    2.75000000
   16.33444595  106.02999878    0.88000000    2.75000000
   16.33694458  112.63899994    0.86000001    2.76999998
   16.33805656  105.33100128    0.86000001    2.76999998
   16.34388924  105.33100128    0.83999997    2.76999998
   16.34805679  103.75099945    0.86000001    2.75000000
   16.35111237  107.78299713    0.86000001    2.75000000
   16.35444450  104.78299713    0.86000001    2.75000000
   16.35750008  103.44400024    0.86000001    2.75000000
   16.36083412  105.52700043    0.86000001    2.75000000
   16.36416626  104.91400146    0.86000001    2.75000000
   16.36722183  106.89499664    0.86000001    2.76999998
   16.37027740  105.43499756    0.83999997    2.75000000
   16.37083435  110.16999817    0.83999997    2.75000000
   16.37416649  106.47899628    0.86000001    2.73000002
   16.37750053  107.03800201    0.83999997    2.78999996
   16.38055611  103.94699860    0.86000001    2.75000000
   16.38666725  103.94699860    0.86000001    2.76999998
   16.39083290  106.58300018    0.86000001    2.75000000
   16.39388847  105.45600128    0.86000001    2.76999998
   16.39722252  103.44799805    0.86000001    2.75000000
   16.40055466  105.48100281    0.88000000    2.76999998
   16.40361023  101.22499847    0.86000001    2.75000000
   16.40388870  103.53900146    0.86000001    2.75000000
   16.40722275  104.44000244    0.88000000    2.75000000
   16.41055489  105.13800049    0.88000000    2.75000000
   16.41361046  101.72100067    0.89999998    2.75000000
   16.41694450  104.32399750    0.89999998    2.75000000
   16.42027664  106.70500183    0.88000000    2.75000000
   16.42333221  104.45200348    0.88000000    2.76999998
   16.43027687  104.45200348    0.88000000    2.76999998
   16.43444443  106.11799622    0.88000000    2.75000000
   16.43694305  103.82099915    0.88000000    2.75000000
   16.43833160  106.29900360    0.88000000    2.75000000
   16.44138718  108.47899628    0.88000000    2.76999998
   16.44472122  106.26599884    0.89999998    2.75000000
   16.44777679  105.80699921    0.92000002    2.76999998
   16.45111275  103.09400177    0.92000002    2.75000000
   16.45444489  103.86299896    0.89999998    2.75000000
   16.45750046  103.53800201    0.92000002    2.75000000
   16.46083450  107.68699646    0.92000002    2.75000000
   16.46416664  101.96499634    0.89999998    2.75000000
   16.46722221  108.56600189    0.89999998    2.75000000
   16.47222328  108.56600189    0.88000000    2.75000000
   16.47638893  108.41699982    0.88000000    2.75000000
   16.47972298  105.96900177    0.86000001    2.75000000
   16.48305511  107.81800079    0.86000001    2.76999998
   16.48611069  107.73000336    0.86000001    2.76999998
   16.48944473  105.04499817    0.83999997    2.76999998
   16.49277878  109.39800262    0.83999997    2.75000000
   16.49583435  107.52400208    0.81999999    2.76999998
   16.49916649  110.34100342    0.81999999    2.76999998
   16.50222206  108.36100006    0.81999999    2.75000000
   16.50361061  107.89600372    0.83999997    2.76999998
   16.50611115  105.27100372    0.83999997    2.75000000
   16.50916672  106.23100281    0.83999997    2.76999998
   16.51527786  106.23100281    0.83999997    2.75000000
   16.51944351  108.05899811    0.83999997    2.75000000
   16.52249908  105.11699677    0.83999997    2.75000000
   16.52583313  106.75399780    0.81999999    2.75000000
   16.52888870  105.10099792    0.83999997    2.76999998
   16.53222275  102.31900024    0.81999999    2.75000000
   16.53555489  107.55100250    0.81999999    2.76999998
   16.53694344  101.36399841    0.81999999    2.76999998
   16.53916550  103.87899780    0.81999999    2.75000000
   16.54222107  107.88099670    0.81999999    2.75000000
   16.54555511  105.31999969    0.83999997    2.76999998
   16.54861069  104.90200043    0.86000001    2.75000000
   16.55194283  103.02899933    0.86000001    2.75000000
   16.55805397  103.02899933    0.86000001    2.75000000
   16.56222153  103.29000092    0.83999997    2.76999998
   16.56555557  103.82599640    0.86000001    2.75000000
   16.56888962  105.98400116    0.83999997    2.76999998
   16.57055664  103.73899841    0.83999997    2.76999998
   16.57250023  105.14700317    0.86000001    2.76999998
   16.57583427  109.00399780    0.86000001    2.76999998
   16.57916832  105.11000061    0.83999997    2.76999998
   16.58222389  106.49600220    0.83999997    2.76999998
   16.58555603  109.86100006    0.81999999    2.75000000
   16.58889008  102.93599701    0.81999999    2.78999996
   16.59194565  109.93699646    0.81999999    2.75000000
   16.59527779  105.60299683    0.83999997    2.76999998
   16.60083389  105.60299683    0.81999999    2.75000000
   16.60499954  111.18099976    0.80000001    2.76999998
   16.60833359  108.50099945    0.80000001    2.76999998
   16.61277771  107.55500031    0.80000001    2.76999998
   16.61583328  107.60399628    0.79000002    2.75000000
   16.61916733  108.89700317    0.80000001    2.76999998
   16.62222290  106.68000031    0.79000002    2.76999998
   16.62555504  106.89700317    0.80000001    2.75000000
   16.62888908  110.91000366    0.80000001    2.76999998
   16.63194466  107.24800110    0.80000001    2.76999998
   16.63527679  106.73300171    0.80000001    2.76999998
   16.63722229  102.35399628    0.80000001    2.76999998
   16.63888931   98.16750336    0.80000001    2.76999998
   16.64361191   98.16750336    0.80000001    2.76999998
   16.64777756  107.57800293    0.80000001    2.76999998
   16.65111160  104.87400055    0.80000001    2.76999998
   16.65444374  105.81400299    0.80000001    2.75000000
   16.65749931  107.64900208    0.80000001    2.76999998
   16.66083336  104.74199677    0.80000001    2.76999998
   16.66388893  114.63500214    0.80000001    2.76999998
   16.66722107  105.87000275    0.80000001    2.76999998
   16.67055511  107.85099792    0.79000002    2.75000000
   16.67083359  103.69799805    0.79000002    2.75000000
   16.67416573  106.56500244    0.76999998    2.76999998
   16.67749977  107.41600037    0.76999998    2.75000000
   16.68055534  106.82299805    0.76999998    2.76999998
   16.68666649  106.82299805    0.76999998    2.76999998
   16.69083214  103.04799652    0.76999998    2.76999998
   16.69388771  103.02799988    0.79000002    2.76999998
   16.69722176  109.11499786    0.79000002    2.75000000
   16.70027924  109.93900299    0.80000001    2.76999998
   16.70361137  109.40499878    0.80000001    2.75000000
   16.70416832  106.66899872    0.80000001    2.75000000
   16.70750046  107.88099670    0.81999999    2.75000000
   16.71055603  105.55100250    0.81999999    2.75000000
   16.71389008  101.33799744    0.81999999    2.75000000
   16.71722221  103.78099823    0.81999999    2.75000000
   16.72027779  105.78900146    0.80000001    2.76999998
   16.72361183  102.95200348    0.80000001    2.75000000
   16.72944450  102.95200348    0.80000001    2.75000000
   16.73361206  103.23100281    0.81999999    2.75000000
   16.73666763  105.83799744    0.81999999    2.76999998
   16.73750114  101.07800293    0.81999999    2.75000000
   16.74055672  107.97699738    0.81999999    2.75000000
   16.74361229  103.26999664    0.83999997    2.75000000
   16.74694443  107.39600372    0.86000001    2.75000000
   16.75027847  107.09500122    0.88000000    2.73000002
   16.75333405  101.42299652    0.88000000    2.75000000
   16.75666618  105.45999908    0.88000000    2.75000000
   16.75972176   99.35720062    0.88000000    2.75000000
   16.76305580  109.08100128    0.88000000    2.75000000
   16.76638794  101.33499908    0.88000000    2.75000000
   16.77222252  101.33499908    0.86000001    2.75000000
   16.77638817  110.00000000    0.88000000    2.75000000
   16.77972221  100.12799835    0.88000000    2.75000000
   16.78277779  100.53800201    0.86000001    2.75000000
   16.78610992  103.18099976    0.86000001    2.75000000
   16.78916550  103.23200226    0.86000001    2.75000000
   16.79249954   99.23320007    0.86000001    2.75000000
   16.79583359   99.57289886    0.86000001    2.75000000
   16.79888916   99.05919647    0.86000001    2.75000000
   16.80222130  101.80699921    0.83999997    2.76999998
   16.80416679  105.05400085    0.83999997    2.75000000
   16.80583191  100.32900238    0.83999997    2.76999998
   16.80888748  101.40299988    0.83999997    2.76999998
   16.82972336  101.40299988    0.81999999    2.75000000
   16.83361244  103.21900177    0.80000001    2.76999998
   16.83944511  103.07099915    0.80000001    2.76999998
   16.84000015  101.71499634    0.80000001    2.76999998
   16.84305573  105.26200104    0.80000001    2.76999998
   16.84611130  100.48100281    0.80000001    2.75000000
   16.84944534   98.17680359    0.79000002    2.75000000
   16.85277748  104.13899994    0.79000002    2.76999998
   16.85583305  101.14099884    0.79000002    2.75000000
   16.85916710  104.04000092    0.79000002    2.75000000
   16.86250114  101.39099884    0.79000002    2.75000000
   16.86555672  102.75299835    0.79000002    2.75000000
   16.87222290  102.75299835    0.79000002    2.76999998
   16.87638855  106.76399994    0.79000002    2.76999998
   16.87972260  106.86000061    0.76999998    2.75000000
   16.88305473  105.07099915    0.79000002    2.76999998
   16.88611031  109.58000183    0.79000002    2.76999998
   16.88944435  103.29699707    0.76999998    2.75000000
   16.89249992  103.06500244    0.79000002    2.76999998
   16.89583397   95.39790344    0.79000002    2.75000000
   16.89916611  101.03900146    0.79000002    2.76999998
   16.90222168  106.61900330    0.79000002    2.76999998
   16.90555573  102.27300262    0.79000002    2.76999998
   16.90749931  102.36199951    0.79000002    2.76999998
   16.90916634  104.08200073    0.79000002    2.76999998
   16.91527748  104.08200073    0.79000002    2.75000000
   16.91944313  104.18099976    0.79000002    2.78999996
   16.92249870  105.55599976    0.79000002    2.75000000
   16.92583275  105.65599823    0.76999998    2.75000000
   16.92916679  109.36699677    0.76999998    2.76999998
   16.93222237  107.02400208    0.76999998    2.76999998
   16.93555450   99.29380035    0.76999998    2.76999998
   16.93861008  104.21399689    0.76999998    2.76999998
   16.94083214  108.86900330    0.75000000    2.75000000
   16.94222069  109.71800232    0.75000000    2.75000000
   16.94555473  104.07499695    0.75000000    2.76999998
   16.94888878  110.11699677    0.75000000    2.75000000
   16.95194435  104.78900146    0.75000000    2.76999998
   16.95805550  104.78900146    0.75000000    2.76999998
   16.96222305  107.74800110    0.75000000    2.76999998
   16.96555710  109.82700348    0.75000000    2.75000000
   16.96861076  112.09799957    0.75000000    2.75000000
   16.97194481  107.55100250    0.75000000    2.75000000
   16.97444534  105.18199921    0.75000000    2.76999998
   16.97555542  108.67700195    0.75000000    2.75000000
   16.97888947  107.14299774    0.75000000    2.75000000
   16.98194504  106.14299774    0.75000000    2.75000000
   16.98527718  109.12799835    0.75000000    2.76999998
   16.98861122  104.81500244    0.76999998    2.75000000
   17.00000000  101.29599762    0.00000000    0.00000000
   17.00416756  101.29599762    0.76999998    2.76999998
   17.00833321  110.28299713    0.75000000    2.76999998
   17.01138878  107.14800262    0.75000000    2.75000000
   17.01472282  110.20500183    0.75000000    2.76999998
   17.01555634  111.07299805    0.75000000    2.76999998
   17.01833344  113.81900024    0.75000000    2.76999998
   17.02166557  105.27400208    0.75000000    2.76999998
   17.02472115  103.95899963    0.75000000    2.76999998
   17.02805519  107.38500214    0.75000000    2.75000000
   17.03111076  110.51000214    0.75000000    2.76999998
   17.03444481  108.61799622    0.75000000    2.76999998
   17.03777695  111.52799988    0.75000000    2.76999998
   17.04083252  115.28900146    0.75000000    2.75000000
   17.04694366  115.28900146    0.75000000    2.75000000
   17.05111122  104.48000336    0.76999998    2.76999998
   17.05444336  106.36000061    0.76999998    2.76999998
   17.05749893  108.81900024    0.76999998    2.76999998
   17.06083298  114.68499756    0.76999998    2.76999998
   17.06388855  105.49099731    0.76999998    2.75000000
   17.06722260  105.28500366    0.76999998    2.76999998
   17.07055664  109.42700195    0.76999998    2.76999998
   17.07361221  102.62599945    0.76999998    2.76999998
   17.07694626  107.59100342    0.76999998    2.76999998
   17.08027840  105.84899902    0.76999998    2.76999998
   17.08222389  109.21800232    0.76999998    2.76999998
   17.08388901  112.56600189    0.76999998    2.76999998
   17.08972359  112.56600189    0.79000002    2.78999996
   17.09388924  115.10199738    0.79000002    2.76999998
   17.09722328  108.20500183    0.80000001    2.75000000
   17.10027885  109.14099884    0.80000001    2.75000000
   17.10361099  114.52500153    0.81999999    2.75000000
   17.10694504  106.21800232    0.80000001    2.75000000
   17.11000061  109.47299957    0.81999999    2.75000000
   17.11333466  114.24700165    0.80000001    2.75000000
   17.11555672  114.67600250    0.80000001    2.75000000
   17.11694527  115.81400299    0.80000001    2.75000000
   17.12027740  120.94999695    0.81999999    2.75000000
   17.12333298  111.58200073    0.81999999    2.75000000
   17.12666702  121.01100159    0.81999999    2.75000000
   17.13249969  121.01100159    0.81999999    2.75000000
   17.13666725  117.98899841    0.80000001    2.75000000
   17.13999939  117.09100342    0.79000002    2.75000000
   17.14333344  109.49700165    0.79000002    2.75000000
   17.14638901  108.41799927    0.79000002    2.76999998
   17.14916611  111.91600037    0.79000002    2.76999998
   17.15027809  108.33999634    0.79000002    2.76999998
   17.15333366  122.74199677    0.79000002    2.76999998
   17.15666580  121.12799835    0.79000002    2.75000000
   17.15999985  117.51799774    0.79000002    2.75000000
   17.16305542  111.54199982    0.79000002    2.75000000
   17.16638756  114.64299774    0.79000002    2.76999998
   17.16972160  108.72699738    0.79000002    2.75000000
   17.17555428  108.72699738    0.76999998    2.76999998
   17.17972183  116.30899811    0.76999998    2.76999998
   17.18249893  113.87599945    0.76999998    2.75000000
   17.18333244  116.33899689    0.76999998    2.75000000
   17.18666649  120.40599823    0.76999998    2.76999998
   17.18999863  120.46700287    0.76999998    2.75000000
   17.19305420  119.04799652    0.76999998    2.75000000
   17.19638824  120.78800201    0.76999998    2.76999998
   17.19972038  121.63099670    0.75000000    2.76999998
   17.20277786  124.56500244    0.75000000    2.76999998
   17.20611191  122.57800293    0.75000000    2.78999996
   17.20916748  114.11399841    0.76999998    2.75000000
   17.21250153  117.67299652    0.79000002    2.76999998
   17.21833420  117.67299652    0.79000002    2.75000000
   17.22249985  116.41999817    0.79000002    2.75000000
   17.22555542  130.50199890    0.79000002    2.76999998
   17.22888947  109.58300018    0.79000002    2.76999998
   17.23222351  118.31800079    0.79000002    2.75000000
   17.23527718  120.66000366    0.79000002    2.75000000
   17.23861122  115.96600342    0.80000001    2.78999996
   17.24194527  115.22200012    0.80000001    2.75000000
   17.24500084  117.33499908    0.80000001    2.76999998
   17.24833298  121.34500122    0.80000001    2.76999998
   17.24916649  116.43199921    0.80000001    2.76999998
   17.25194359  118.44699860    0.80000001    2.76999998
   17.25527763  116.37500000    0.80000001    2.75000000
   17.26138878  116.37500000    0.79000002    2.75000000
   17.26555634  119.99400330    0.76999998    2.78999996
   17.26861000  119.01999664    0.79000002    2.75000000
   17.27194405  122.48400116    0.79000002    2.76999998
   17.27527809  116.16999817    0.79000002    2.76999998
   17.27833366  114.58399963    0.76999998    2.76999998
   17.28166580  119.50399780    0.75000000    2.76999998
   17.28249931  113.41200256    0.76999998    2.76999998
   17.28527641  114.74500275    0.76999998    2.76999998
   17.28861046  114.42199707    0.76999998    2.76999998
   17.29166603  121.05400085    0.76999998    2.76999998
   17.29500008  116.52700043    0.75000000    2.76999998
   17.30749893  109.67199707    0.00000000    0.00000000
   17.31166649  109.67199707    0.76999998    2.76999998
   17.31583214  115.79299927    0.76999998    2.76999998
   17.31916809  111.67900085    0.76999998    2.76999998
   17.32222366  112.88899994    0.76999998    2.75000000
   17.32333374  117.20700073    0.76999998    2.75000000
   17.32583427  116.64299774    0.76999998    2.76999998
   17.32916832  120.23899841    0.75000000    2.76999998
   17.33250046  113.80899811    0.75000000    2.75000000
   17.33555603  117.12500000    0.75000000    2.76999998
   17.33889008  116.73400116    0.75000000    2.76999998
   17.34222221  116.48300171    0.73000002    2.76999998
   17.34527779  121.10600281    0.73000002    2.76999998
   17.34861183  115.74400330    0.73000002    2.76999998
   17.35472298  115.74400330    0.73000002    2.76999998
   17.35861206  116.46900177    0.73000002    2.76999998
   17.36194420  117.23400116    0.75000000    2.76999998
   17.36527824  117.74299622    0.75000000    2.76999998
   17.36916733  116.68900299    0.76999998    2.75000000
   17.37249947  113.52700043    0.76999998    2.75000000
   17.37555504  117.99900055    0.76999998    2.76999998
   17.37888908  116.31700134    0.76999998    2.76999998
   17.38222313  111.98000336    0.76999998    2.76999998
   17.38527679  114.93599701    0.76999998    2.76999998
   17.38861084  117.06600189    0.79000002    2.76999998
   17.38999939  115.92400360    0.79000002    2.76999998
   17.39194489  113.92900085    0.79000002    2.76999998
   17.39749908  113.92900085    0.76999998    2.76999998
   17.40166664  118.52300262    0.79000002    2.75000000
   17.40472221  111.64700317    0.79000002    2.75000000
   17.40805435  113.05300140    0.79000002    2.75000000
   17.41138840  112.24099731    0.79000002    2.76999998
   17.41444397  113.61100006    0.79000002    2.75000000
   17.41777802  115.34600067    0.79000002    2.76999998
   17.42083359  113.55300140    0.79000002    2.76999998
   17.42333221  117.80200195    0.79000002    2.76999998
   17.42472076  117.39600372    0.79000002    2.76999998
   17.42777634  114.52500153    0.79000002    2.75000000
   17.43111038  107.46499634    0.79000002    2.76999998
   17.43416595  115.33100128    0.79000002    2.76999998
   17.44027710  115.33100128    0.79000002    2.76999998
   17.44444275  111.67900085    0.80000001    2.76999998
   17.44777679  114.68000031    0.80000001    2.76999998
   17.45083427  104.85500336    0.80000001    2.76999998
   17.45416832  112.49900055    0.80000001    2.75000000
   17.45694542  110.38800049    0.80000001    2.76999998
   17.45777893  115.66500092    0.80000001    2.76999998
   17.46111107  116.44300079    0.80000001    2.76999998
   17.46444511  115.22299957    0.83999997    2.75000000
   17.46750069  106.94899750    0.81999999    2.75000000
   17.47083473  113.81099701    0.81999999    2.76999998
   17.47389030  113.89499664    0.83999997    2.76999998
   17.47722244  112.43199921    0.83999997    2.75000000
   17.48305511  112.43199921    0.83999997    2.76999998
   17.48722267  110.62000275    0.81999999    2.75000000
   17.49027824  116.74199677    0.81999999    2.76999998
   17.49083328  111.08599854    0.81999999    2.76999998
   17.49416733  112.76399994    0.81999999    2.76999998
   17.49749947  110.41100311    0.80000001    2.78999996
   17.50055504  113.44100189    0.81999999    2.76999998
   17.50388908  117.52999878    0.81999999    2.75000000
   17.50694466  113.30899811    0.83999997    2.76999998
   17.51027870  108.86000061    0.83999997    2.76999998
   17.51361084  113.94899750    0.83999997    2.76999998
   17.51666641  110.97200012    0.81999999    2.75000000
   17.52000046  113.88700104    0.83999997    2.75000000
   17.52611160  113.88700104    0.83999997    2.75000000
   17.53000069  105.18499756    0.81999999    2.76999998
   17.53333282  106.08599854    0.81999999    2.76999998
   17.53666687  108.52700043    0.83999997    2.76999998
   17.53972244  106.84200287    0.83999997    2.76999998
   17.54305458  105.42299652    0.86000001    2.76999998
   17.54638863  102.65599823    0.83999997    2.75000000
   17.54972076  105.12799835    0.83999997    2.76999998
   17.55305481  103.19999695    0.83999997    2.76999998
   17.55611038  105.35800171    0.86000001    2.75000000
   17.55694389  100.46800232    0.83999997    2.76999998
   17.55972099  109.70400238    0.83999997    2.76999998
   17.56305504  106.13300323    0.83999997    2.76999998
   17.56888962  106.13300323    0.83999997    2.76999998
   17.57305717  106.77500153    0.83999997    2.76999998
   17.57611275  110.08699799    0.83999997    2.75000000
   17.57944489  109.44400024    0.83999997    2.75000000
   17.58277893  109.01200104    0.83999997    2.75000000
   17.58583450  107.86399841    0.83999997    2.76999998
   17.58916664  107.50000000    0.86000001    2.75000000
   17.59027863  108.37000275    0.83999997    2.76999998
   17.59250069  108.09899902    0.83999997    2.76999998
   17.59583473  107.42700195    0.86000001    2.75000000
   17.59916687  103.32199860    0.83999997    2.76999998
   17.60222244  111.55000305    0.83999997    2.75000000
   17.60555649  113.71099854    0.83999997    2.75000000
   17.61166763  113.71099854    0.83999997    2.75000000
   17.61583328  112.75499725    0.83999997    2.75000000
   17.61916733  113.16200256    0.83999997    2.75000000
   17.62222290  101.25199890    0.83999997    2.75000000
   17.62388992  108.15100098    0.83999997    2.75000000
   17.62583351  111.20500183    0.83999997    2.75000000
   17.62916756  118.23300171    0.83999997    2.75000000
   17.63249969  109.45300293    0.83999997    2.76999998
   17.63555527  111.25199890    0.83999997    2.76999998
   17.63888931  113.48699951    0.83999997    2.75000000
   17.64194489  111.98899841    0.83999997    2.76999998
   17.64527702  105.19599915    0.83999997    2.75000000
   17.64861107  110.94100189    0.83999997    2.76999998
   17.65444374  110.94100189    0.83999997    2.75000000
   17.65861130  110.37300110    0.83999997    2.75000000
   17.66194344  106.73999786    0.83999997    2.75000000
   17.66527748  112.79100037    0.83999997    2.75000000
   17.66833305  112.93399811    0.83999997    2.75000000
   17.67166519  112.43399811    0.83999997    2.75000000
   17.67472076  102.92099762    0.83999997    2.75000000
   17.67805481  107.39199829    0.83999997    2.75000000
   17.68138885  102.91400146    0.86000001    2.76999998
   17.68444443  106.15399933    0.86000001    2.75000000
   17.68777657  105.80200195    0.86000001    2.75000000
   17.69055557  106.42400360    0.86000001    2.75000000
   17.69138718  103.44300079    0.88000000    2.75000000
   17.69749832  103.44300079    0.86000001    2.75000000
   17.70166779  103.74299622    0.86000001    2.75000000
   17.70472336  101.90799713    0.86000001    2.75000000
   17.70805550  103.25900269    0.88000000    2.75000000
   17.71138954  104.65799713    0.88000000    2.75000000
   17.71444511  108.86499786    0.86000001    2.75000000
   17.71777916  102.77799988    0.86000001    2.75000000
   17.72083473  108.77400208    0.86000001    2.75000000
   17.72389030  102.80799866    0.86000001    2.75000000
   17.72444534  110.69100189    0.86000001    2.75000000
   17.72777748  107.77700043    0.86000001    2.75000000
   17.73111153  105.48999786    0.86000001    2.75000000
   17.73416710  104.31300354    0.86000001    2.75000000
   17.74027824  104.31300354    0.86000001    2.75000000
   17.74444389  104.19599915    0.86000001    2.75000000
   17.74749947  106.96399689    0.86000001    2.75000000
   17.75083351  112.89099884    0.86000001    2.75000000
   17.75416756  103.73999786    0.86000001    2.75000000
   17.75722313  107.32700348    0.83999997    2.75000000
   17.75749969  110.48500061    0.83999997    2.76999998
   17.76083374  107.32599640    0.81999999    2.76999998
   17.76388931  108.90499878    0.81999999    2.76999998
   17.76722145  109.53399658    0.81999999    2.75000000
   17.77055550  109.12500000    0.86000001    2.75000000
   17.77361107  112.94999695    0.89999998    2.75000000
   17.77694511  106.78800201    0.89999998    2.76999998
   17.78305435  106.78800201    0.89999998    2.75000000
   17.78722191  105.41400146    0.89999998    2.75000000
   17.79055595  107.65799713    0.89999998    2.75000000
   17.79083252  104.22899628    0.89999998    2.75000000
   17.79416656  105.81999969    0.89999998    2.75000000
   17.79749870  102.65100098    0.89999998    2.75000000
   17.80055428  101.85700226    0.89999998    2.75000000
   17.80388832  106.05599976    0.92000002    2.75000000
   17.80694389  104.64199829    0.89999998    2.75000000
   17.81027794  103.11100006    0.89999998    2.75000000
   17.81361008  103.72699738    0.89999998    2.75000000
   17.81666756  107.04699707    0.88000000    2.75000000
   17.82000160  103.36499786    0.88000000    2.75000000
   17.82583427  103.36499786    0.88000000    2.76999998
   17.83000183  105.26599884    0.88000000    2.75000000
   17.83333397  104.31500244    0.88000000    2.75000000
   17.85277748  102.04100037    0.89999998    2.76999998
   17.85639000  104.52300262    0.89999998    2.76999998
   17.85722351  105.72100067    0.89999998    2.76999998
   17.86000061   99.18080139    0.92000002    2.75000000
   17.86333466  103.01799774    0.92000002    2.75000000
   17.86888885  103.01799774    0.94000000    2.76999998
   17.87305641  108.58000183    0.94000000    2.75000000
   17.87638855  107.33100128    0.92000002    2.75000000
   17.87944412  105.66500092    0.92000002    2.75000000
   17.88277817  107.34700012    0.92000002    2.75000000
   17.88611031  108.31300354    0.89999998    2.75000000
   17.88916588  108.90899658    0.92000002    2.75000000
   17.89055634  109.13099670    0.94000000    2.75000000
   17.89305496  108.94100189    0.94000000    2.75000000
   17.89638901  107.86199951    0.94000000    2.75000000
   17.89944458  109.01399994    0.94000000    2.75000000
   17.90277672  110.24099731    0.94000000    2.75000000
   17.90583229  112.75700378    0.94000000    2.75000000
   17.91194344  112.75700378    0.94000000    2.75000000
   17.91583252  114.35299683    0.95999998    2.75000000
   17.91916656  112.15000153    0.95999998    2.75000000
   17.92249870  116.95400238    0.94000000    2.75000000
   17.92416573  109.50000000    0.92000002    2.75000000
   17.92611122  117.36199951    0.92000002    2.75000000
   17.92944336  111.73899841    0.92000002    2.75000000
   17.93305397  110.59899902    0.89999998    2.75000000
   17.93610954  112.37000275    0.89999998    2.75000000
   17.93944359  106.07700348    0.89999998    2.75000000
   17.94249916  108.42800140    0.89999998    2.75000000
   17.94583321  111.40899658    0.89999998    2.75000000
   17.94916534  104.80599976    0.89999998    2.75000000
   17.95472336  104.80599976    0.88000000    2.75000000
   17.95888901  107.65200043    0.88000000    2.75000000
   17.96194458  108.38899994    0.88000000    2.75000000
   17.96527863  109.57800293    0.88000000    2.75000000
   17.96861076  112.34700012    0.89999998    2.75000000
   17.97166634  108.96800232    0.89999998    2.75000000
   17.97500038  111.86699677    0.89999998    2.75000000
   17.97833443  111.94300079    0.92000002    2.75000000
   17.98139000  113.57299805    0.94000000    2.75000000
   17.98472214  108.26999664    0.94000000    2.75000000
   17.98805618  115.23899841    0.94000000    2.75000000
   17.99083328  111.22699738    0.95999998    2.75000000
   17.99166679  108.56999969    0.95999998    2.75000000
   17.99749947  108.56999969    0.95999998    2.75000000
   18.00166702  112.29000092    0.95999998    2.75000000
   18.00499916  116.75299835    0.98000002    2.75000000
   18.00805473  116.01599884    0.98000002    2.75000000
   18.01138878  107.25700378    0.98000002    2.75000000
   18.01444435  109.85099792    0.98000002    2.75000000
   18.01777840  110.23100281    0.98000002    2.75000000
   18.02111053  106.48699951    0.98000002    2.75000000
   18.02416611  108.83999634    0.98000002    2.75000000
   18.02472115  115.02300262    1.00000000    2.75000000
   18.02805519  111.18599701    1.00000000    2.75000000
   18.03111076  110.75299835    0.98000002    2.75000000
   18.03444481  110.25599670    0.98000002    2.75000000
   18.04027748  110.25599670    1.00000000    2.75000000
   18.04444313  110.77799988    1.01999998    2.75000000
   18.04777718  114.71600342    1.00000000    2.75000000
   18.05083275  106.83100128    1.00000000    2.75000000
   18.05416679  107.30500031    1.00000000    2.76999998
   18.05749893  114.27300262    0.98000002    2.73000002
   18.05805397  106.20700073    0.98000002    2.73000002
   18.06110954  110.40399933    0.98000002    2.75000000
   18.06444359  111.97699738    0.98000002    2.75000000
   18.06777954  110.85399628    0.98000002    2.75000000
   18.07083511  108.93099976    0.98000002    2.75000000
   18.07416725  107.88200378    0.98000002    2.75000000
   18.07750130  112.78399658    0.98000002    2.75000000
   18.08333397  112.78399658    0.98000002    2.75000000
   18.08722305  110.26000214    0.98000002    2.75000000
   18.09055710  111.73699951    0.98000002    2.75000000
   18.09138870  109.82299805    1.00000000    2.75000000
   18.09416771  112.59999847    1.00000000    2.75000000
   18.09749985  113.50399780    0.98000002    2.75000000
   18.10083389  111.37300110    0.98000002    2.75000000
   18.10388947  107.08599854    0.98000002    2.75000000
   18.10722351  107.49199677    0.98000002    2.75000000
   18.11027908  106.09400177    0.98000002    2.75000000
   18.11361122  107.44999695    0.98000002    2.75000000
   18.11694527  107.31300354    0.98000002    2.75000000
   18.12000084  106.10700226    0.98000002    2.75000000
   18.12611198  106.10700226    0.98000002    2.75000000
   18.13027763  105.49800110    0.98000002    2.73000002
   18.13333321  110.54599762    1.00000000    2.75000000
   18.13666725  104.46600342    1.00000000    2.75000000
   18.13999939  107.24700165    1.00000000    2.75000000
   18.14305496  112.82499695    1.00000000    2.75000000
   18.14638901  105.02200317    1.00000000    2.75000000
   18.14944458  107.58300018    1.00000000    2.75000000
   18.15277672  106.51799774    1.00000000    2.75000000
   18.15611076  107.14199829    1.00000000    2.75000000
   18.15805435  107.23400116    1.00000000    2.75000000
   18.15972137  110.06199646    1.00000000    2.73000002
   18.16305542  112.92500305    1.00000000    2.75000000
   18.16888809  112.92500305    1.00000000    2.75000000
   18.17305565  104.72799683    1.01999998    2.75000000
   18.17638779  108.96600342    1.01999998    2.75000000
   18.17944336  106.69100189    1.01999998    2.75000000
   18.18277740  108.21199799    1.01999998    2.75000000
   18.18583298  105.81700134    1.01999998    2.75000000
   18.18916512  113.27100372    1.03999996    2.75000000
   18.19138718  106.30200195    1.03999996    2.76999998
   18.19277763  105.83599854    1.03999996    2.76999998
   18.19610977  113.13400269    1.01999998    2.75000000
   18.19944382  108.44699860    1.01999998    2.75000000
   18.20250130  109.16200256    1.00000000    2.75000000
   18.20583344  109.57399750    1.00000000    2.75000000
   18.21166801  109.57399750    1.00000000    2.75000000
   18.21583366  114.03500366    1.00000000    2.75000000
   18.21916771  114.60199738    0.98000002    2.75000000
   18.22249985   94.18029785    1.00000000    2.75000000
   18.22472191  110.35600281    1.00000000    2.75000000
   18.22583389  111.78500366    0.98000002    2.73000002
   18.22916794  110.71299744    1.00000000    2.75000000
   18.23250008  107.09999847    1.00000000    2.75000000
   18.23555565  103.10600281    1.00000000    2.75000000
   18.23888969  107.90100098    1.01999998    2.73000002
   18.24194527  109.10900116    1.01999998    2.73000002
   18.24527740  107.89800262    1.01999998    2.75000000
   18.24861145  105.64199829    1.01999998    2.75000000
   18.25472260  105.64199829    1.01999998    2.75000000
   18.25861168  107.11900330    1.01999998    2.75000000
   18.26194382  106.10500336    1.01999998    2.75000000
   18.26527786  108.59200287    1.03999996    2.75000000
   18.26833344   98.80809784    1.03999996    2.75000000
   18.27166557  114.32199860    1.05999994    2.73000002
   18.27499962  109.69400024    1.05999994    2.75000000
   18.27805519  107.39399719    1.03999996    2.75000000
   18.28138924  102.61499786    1.01999998    2.75000000
   18.28444481  110.60700226    1.00000000    2.75000000
   18.28777695  108.15499878    1.00000000    2.75000000
   18.29111099  107.22000122    0.98000002    2.75000000
   18.29166603  109.83599854    1.00000000    2.75000000
   18.29749870  109.83599854    1.00000000    2.75000000
   18.30166626  109.25399780    1.00000000    2.75000000
   18.30472183  105.84300232    0.98000002    2.75000000
   18.30805397  110.53800201    0.98000002    2.75000000
   18.31138802  107.76000214    0.95999998    2.75000000
   18.31444359  104.70800018    0.98000002    2.73000002
   18.31777954  110.24500275    0.98000002    2.75000000
   18.32111168  111.52799988    0.98000002    2.75000000
   18.32416725  103.88899994    0.98000002    2.75000000
   18.32500076  107.59100342    0.98000002    2.75000000
   18.32777786  108.94699860    0.98000002    2.75000000
   18.33111191  104.97599792    1.00000000    2.75000000
   18.33444595  112.01799774    1.01999998    2.73000002
   18.34027863  112.01799774    1.01999998    2.73000002
   18.34444427  110.52500153    1.05999994    2.75000000
   18.34777832  106.91999817    1.03999996    2.75000000
   18.35083389  108.29799652    1.03999996    2.75000000
   18.35416794  106.20200348    1.05999994    2.75000000
   18.35722351  114.71900177    1.05999994    2.75000000
   18.35833359  110.50499725    1.05999994    2.75000000
   18.36083412  110.45700073    1.05999994    2.73000002
   18.36416626  110.55699921    1.05999994    2.73000002
   18.36750031  105.32800293    1.07000005    2.75000000
   18.37055588  110.79100037    1.07000005    2.73000002
   18.37388992  110.22799683    1.07000005    2.73000002
   18.37722206  108.28299713    1.09000003    2.73000002
   18.38305473  108.28299713    1.09000003    2.73000002
   18.38722229  108.76499939    1.09000003    2.73000002
   18.39055634  112.26699829    1.09000003    2.75000000
   18.39166641  106.45300293    1.09000003    2.75000000
   18.39416695  109.49299622    1.09000003    2.73000002
   18.39749908  108.05500031    1.05999994    2.73000002
   18.40083313  109.50599670    1.05999994    2.75000000
   18.40388870  106.88500214    1.05999994    2.75000000
   18.40722275  105.65100098    1.05999994    2.75000000
   18.41027832  111.88500214    1.05999994    2.73000002
   18.41361046  111.36299896    1.05999994    2.75000000
   18.41694450  109.33100128    1.05999994    2.75000000
   18.42000008  106.79299927    1.05999994    2.73000002
   18.42583275  106.79299927    1.07000005    2.75000000
   18.43000031  103.14499664    1.07000005    2.75000000
   18.43333244   91.01550293    1.07000005    2.75000000
   18.43666649   98.28240204    1.07000005    2.75000000
   18.43972206  109.22200012    1.07000005    2.73000002
   18.44305420  104.21700287    1.07000005    2.73000002
   18.44638824  109.88999939    1.09000003    2.73000002
   18.44944382  103.05000305    1.09000003    2.75000000
   18.45277786  106.49900055    1.09000003    2.75000000
   18.45583344  106.05799866    1.11000001    2.73000002
   18.45833397  112.01399994    1.13000000    2.73000002
   18.45944595  107.30799866    1.13000000    2.73000002
   18.46277809  107.88700104    1.19000006    2.73000002
   18.46888924  107.88700104    1.23000002    2.73000002
   18.47305679  107.16999817    1.23000002    2.73000002
   18.47611237  100.83300018    1.19000006    2.73000002
   18.47944450  101.83699799    1.19000006    2.73000002
   18.48277855  103.89199829    1.19000006    2.73000002
   18.48583412  105.62899780    1.21000004    2.73000002
   18.48916626  108.06600189    1.14999998    2.73000002
   18.49166679  106.19000244    1.14999998    2.73000002
   18.49277878  105.41899872    1.14999998    2.73000002
   18.49611092  102.89099884    1.16999996    2.75000000
   18.49944496  102.76100159    1.16999996    2.75000000
   18.50250053  107.57499695    1.14999998    2.73000002
   18.50583267  106.10500336    1.14999998    2.75000000
   18.51166725  106.10500336    1.13000000    2.75000000
   18.51583290  111.00199890    1.13000000    2.73000002
   18.51916695  108.52600098    1.13000000    2.73000002
   18.52222252  106.92800140    1.11000001    2.73000002
   18.52499962  112.50000000    1.09000003    2.73000002
   18.52583313  107.10900116    1.09000003    2.73000002
   18.52916718  108.82599640    1.09000003    2.73000002
   18.53249931  111.75099945    1.09000003    2.73000002
   18.53555489  110.58799744    1.07000005    2.73000002
   18.53888893  106.17299652    1.07000005    2.73000002
   18.54222107  106.31700134    1.05999994    2.75000000
   18.54527664  105.98300171    1.05999994    2.75000000
   18.54861069  107.93900299    1.05999994    2.75000000
   18.55444336  107.93900299    1.03999996    2.73000002
   18.55861092  106.18299866    1.03999996    2.73000002
   18.56194305  106.48600006    1.03999996    2.73000002
   18.56499863  108.20800018    1.05999994    2.73000002
   18.56833458  108.25000000    1.05999994    2.75000000
   18.58000183  108.45899963    0.00000000    0.00000000
   18.58333397  108.19899750    1.07000005    2.73000002
   18.58638954  108.50399780    1.05999994    2.73000002
   18.58972359  104.61499786    1.07000005    2.73000002
   18.59305573  106.77600098    1.07000005    2.73000002
   18.59722328  106.77600098    1.09000003    2.73000002
   18.60138893  104.35099792    1.11000001    2.73000002
   18.61777878  107.24299622    0.00000000    0.00000000
   18.62111092  108.47000122    1.11000001    2.73000002
   18.62416649  106.24800110    1.11000001    2.73000002
   18.62750053  108.46700287    1.11000001    2.73000002
   18.63083267  109.70700073    1.09000003    2.73000002
   18.63333321  105.94100189    1.09000003    2.73000002
   18.63444519  111.11000061    1.09000003    2.73000002
   18.63777733  107.84899902    1.09000003    2.73000002
   18.64083290  102.39800262    1.09000003    2.73000002
   18.64666748  102.39800262    1.07000005    2.73000002
   18.65083313  103.61599731    1.07000005    2.75000000
   18.65388870  108.92800140    1.07000005    2.75000000
   18.65722275  109.75399780    1.07000005    2.71000004
   18.66055489  102.17900085    1.09000003    2.73000002
   18.66361046  103.95600128    1.11000001    2.71000004
   18.66666603  113.99099731    1.13000000    2.71000004
   18.66722107  107.09799957    1.13000000    2.71000004
   18.67055511  106.84500122    1.13000000    2.71000004
   18.67361069  109.39299774    1.13000000    2.71000004
   18.67694473  107.44999695    1.13000000    2.71000004
   18.68000031  102.57099915    1.13000000    2.71000004
   18.68333244  100.57499695    1.14999998    2.73000002
   18.68833160  100.57499695    1.14999998    2.71000004
   18.69222069   96.41259766    1.14999998    2.71000004
   18.69555473  103.32399750    1.16999996    2.71000004
   18.69888878  102.43499756    1.16999996    2.73000002
   18.70027924  100.14900208    1.16999996    2.73000002
   18.70250130  107.17900085    1.16999996    2.71000004
   18.70555687  105.61499786    1.16999996    2.71000004
   18.70888901  104.41699982    1.16999996    2.71000004
   18.71222305  103.21800232    1.16999996    2.71000004
   18.72444534  110.68000031    0.00000000    0.00000000
   18.72750092  106.29499817    1.19000006    2.73000002
   18.73388863  106.29499817    1.19000006    2.71000004
   18.73777771  110.47200012    1.16999996    2.71000004
   18.73999977  107.84600067    1.16999996    2.71000004
   18.74166679  104.31199646    1.16999996    2.71000004
   18.74472237  105.19599915    1.16999996    2.73000002
   18.74805641  105.79299927    1.14999998    2.71000004
   18.75138855  104.66200256    1.14999998    2.71000004
   18.75472260  108.84400177    1.13000000    2.73000002
   18.75777817  105.60700226    1.11000001    2.71000004
   18.76111031  105.86699677    1.11000001    2.73000002
   18.76444435  109.15000153    1.11000001    2.73000002
   18.76749992  104.09799957    1.11000001    2.73000002
   18.77083397  108.55400085    1.11000001    2.73000002
   18.77666664  108.55400085    1.11000001    2.71000004
   18.78083229  107.17900085    1.11000001    2.73000002
   18.78388786  106.66799927    1.11000001    2.73000002
   18.78722191  106.55300140    1.11000001    2.71000004
   18.79055595  105.22100067    1.11000001    2.71000004
   18.79361153  103.57299805    1.11000001    2.71000004
   18.79694366  108.81400299    1.11000001    2.71000004
   18.80027771  102.06900024    1.11000001    2.71000004
   18.80472183  103.89199829    1.11000001    2.71000004
   18.80749893  101.15000153    1.13000000    2.73000002
   18.80833244  105.82900238    1.13000000    2.73000002
   18.81138802  103.32099915    1.11000001    2.73000002
   18.81472206  104.67900085    1.11000001    2.73000002
   18.81944466  104.67900085    1.13000000    2.71000004
   18.82361221  103.36799622    1.14999998    2.71000004
   18.82694626  105.59100342    1.14999998    2.71000004
   18.83861160  102.46099854    0.00000000    0.00000000
   18.84083366  110.12899780    1.13000000    2.73000002
   18.84250069  106.17800140    1.13000000    2.71000004
   18.85444450  110.58899689    0.00000000    0.00000000
   18.87638855  110.58899689    1.13000000    2.71000004
   18.88083267  110.06900024    1.13000000    2.71000004
   18.88416672  108.71600342    1.13000000    2.71000004
   18.88750076  108.89900208    1.14999998    2.71000004
   18.89055634  110.09600067    1.14999998    2.71000004
   18.89388847  106.16000366    1.14999998    2.71000004
   18.89694405  104.16100311    1.13000000    2.71000004
   18.90027809  105.70800018    1.13000000    2.71000004
   18.90361023  109.44200134    1.14999998    2.71000004
   18.90666580  109.16300201    1.14999998    2.71000004
   18.90749931  105.43199921    1.14999998    2.71000004
   18.91860962  106.56300354    0.00000000    0.00000000
   18.92277718  106.56300354    1.13000000    2.71000004
   18.92694473  102.07499695    1.14999998    2.71000004
   18.93027687  107.11000061    1.13000000    2.71000004
   18.93361092  106.72100067    1.14999998    2.71000004
   18.94527626  106.92299652    0.00000000    0.00000000
   18.94583321  103.41500092    1.13000000    2.71000004
   18.94916534  102.36399841    1.13000000    2.71000004
   18.95222282  105.04399872    1.13000000    2.71000004
   18.96416664  102.04399872    0.00000000    0.00000000
   18.96750069  111.50000000    1.13000000    2.71000004
   18.97361183  111.50000000    1.13000000    2.71000004
   18.97777748  107.63300323    1.13000000    2.71000004
   18.98000145  106.37699890    1.13000000    2.71000004
   18.98139000  108.83399963    1.13000000    2.71000004
   18.98472214  111.05599976    1.13000000    2.71000004
   18.98805618  109.25000000    1.14999998    2.71000004
   18.99138832  105.37599945    1.14999998    2.69000006
   18.99444389  105.35399628    1.14999998    2.71000004
   18.99777794  103.99800110    1.14999998    2.71000004
   19.00083351  105.61499786    1.14999998    2.71000004
   19.00416756  105.72299957    1.14999998    2.69000006
   19.00749969  111.20500183    1.16999996    2.69000006
   19.01055527  106.60500336    1.16999996    2.71000004
   19.01638794  106.60500336    1.16999996    2.71000004
   19.02055550  114.09200287    1.16999996    2.69000006
   19.02388954  115.06900024    1.16999996    2.69000006
   19.02722168  108.92600250    1.16999996    2.69000006
   19.03027725  107.26599884    1.16999996    2.69000006
   19.03361130  108.98100281    1.16999996    2.71000004
   19.03666687  108.79199982    1.16999996    2.71000004
   19.03999901  109.12000275    1.16999996    2.71000004
   19.04333305  109.03199768    1.23000002    2.71000004
   19.04638863  107.28500366    1.23000002    2.71000004
   19.04749870  102.67900085    1.23000002    2.71000004
   19.04999924  112.86000061    1.25000000    2.71000004
   19.05333328  108.24099731    1.28999996    2.71000004
   19.05944443  108.24099731    1.28999996    2.71000004
   19.06361008  105.78600311    1.30999994    2.69000006
   19.06666756  107.70099640    1.28999996    2.69000006
   19.07000160  107.69599915    1.28999996    2.71000004
   19.07333374  111.74500275    1.26999998    2.71000004
   19.07638931  107.05300140    1.26999998    2.71000004
   19.07972336  105.72699738    1.26999998    2.71000004
   19.08083344  108.82900238    1.26999998    2.69000006
   19.08333397  106.94499969    1.26999998    2.69000006
   19.08666801  101.80200195    1.25000000    2.69000006
   19.09000015  104.74099731    1.25000000    2.69000006
   19.09305573  106.29399872    1.23000002    2.69000006
   19.09638977  105.28700256    1.23000002    2.69000006
   19.10222244  105.28700256    1.23000002    2.69000006
   19.10639000  109.47000122    1.21000004    2.69000006
   19.10944557  102.80300140    1.21000004    2.69000006
   19.11277771  109.16899872    1.19000006    2.71000004
   19.11416626  100.96099854    1.19000006    2.71000004
   19.11638832  109.43900299    1.21000004    2.69000006
   19.11972237  105.69899750    1.19000006    2.69000006
   19.12277794  102.56999969    1.19000006    2.69000006
   19.12611198  106.90200043    1.19000006    2.69000006
   19.12944412  105.30599976    1.19000006    2.69000006
   19.13249969  105.42199707    1.21000004    2.69000006
   19.13583374  104.14499664    1.21000004    2.69000006
   19.13888931  105.69499969    1.19000006    2.71000004
   19.14500046  105.69499969    1.19000006    2.69000006
   19.14916611  109.41100311    1.19000006    2.71000004
   19.15250015  107.82099915    1.19000006    2.71000004
   19.15555573  105.11100006    1.19000006    2.69000006
   19.15888786  108.82900238    1.19000006    2.69000006
   19.16194344  107.74299622    1.19000006    2.69000006
   19.16527748  102.29599762    1.19000006    2.69000006
   19.16860962  108.12699890    1.21000004    2.69000006
   19.17166519  107.08899689    1.21000004    2.69000006
   19.17499924  107.66200256    1.21000004    2.69000006
   19.17833328  106.36699677    1.21000004    2.71000004
   19.18083191  105.00499725    1.21000004    2.69000006
   19.18194389  105.75599670    1.21000004    2.69000006
   19.18777657  105.75599670    1.21000004    2.69000006
   19.19194412  105.67900085    1.21000004    2.69000006
   19.19527626  102.13500214    1.21000004    2.69000006
   19.19861031  104.28099823    1.21000004    2.69000006
   19.20166779  102.83799744    1.21000004    2.69000006
   19.20499992  105.13400269    1.21000004    2.69000006
   19.20805550  104.06999969    1.21000004    2.69000006
   19.21138954  106.64099884    1.21000004    2.69000006
   19.21416664  107.77500153    1.21000004    2.69000006
   19.21500015   99.64969635    1.21000004    2.69000006
   19.21833420  105.21600342    1.19000006    2.71000004
   19.22138977  103.90399933    1.19000006    2.71000004
   19.22472191  105.92500305    1.19000006    2.71000004
   19.23083305  105.92500305    1.19000006    2.69000006
   19.23472214  106.91500092    1.19000006    2.67000008
   19.23805618  106.02799988    1.16999996    2.69000006
   19.24138832  103.78199768    1.16999996    2.69000006
   19.24444389  106.00199890    1.19000006    2.69000006
   19.24777794  103.13200378    1.19000006    2.69000006
   19.24805641  107.56400299    1.19000006    2.69000006
   19.25138855  105.95500183    1.16999996    2.69000006
   19.25444412  110.42199707    1.16999996    2.69000006
   19.25777817  106.05200195    1.16999996    2.69000006
   19.26111031  106.76999664    1.16999996    2.69000006
   19.26416588  108.18000031    1.16999996    2.69000006
   19.26749992  106.02799988    1.16999996    2.69000006
   19.27361107  106.02799988    1.16999996    2.69000006
   19.27777672  106.59400177    1.16999996    2.69000006
   19.28111076  103.36299896    1.19000006    2.69000006
   19.28138924  104.69799805    1.19000006    2.69000006
   19.28472137  105.30899811    1.21000004    2.69000006
   19.28777695  106.28199768    1.21000004    2.69000006
   19.29111099  106.66999817    1.21000004    2.69000006
   19.29444313  105.34500122    1.23000002    2.69000006
   19.29749870  103.79100037    1.25000000    2.69000006
   19.30083275  102.62699890    1.26999998    2.67000008
   19.30416679  107.58300018    1.30999994    2.67000008
   19.30749893  100.60700226    1.34000003    2.67000008
   19.31055450  107.12799835    1.34000003    2.67000008
   19.31638718  107.12799835    1.36000001    2.67000008
   19.32055664  107.69000244    1.34000003    2.67000008
   19.32389069  110.08499908    1.34000003    2.67000008
   19.32694626  106.42900085    1.33000004    2.69000006
   19.33027840  106.44100189    1.33000004    2.69000006
   19.33361244  104.93399811    1.30999994    2.69000006
   19.33666801  107.05699921    1.30999994    2.67000008
   19.34000015  104.57199860    1.28999996    2.69000006
   19.34305573  100.72399902    1.28999996    2.71000004
   19.34638977  102.63200378    1.26999998    2.69000006
   19.34777832  100.87300110    1.26999998    2.69000006
   19.35000038  103.33399963    1.25000000    2.69000006
   19.35333443  108.79699707    1.25000000    2.69000006
   19.35916710  108.79699707    1.25000000    2.69000006
   19.36333466  104.05699921    1.25000000    2.67000008
   19.36666679  100.68800354    1.25000000    2.67000008
   19.37000084  103.96600342    1.26999998    2.69000006
   19.37305641  100.84899902    1.26999998    2.69000006
   19.37638855   98.51100159    1.26999998    2.67000008
   19.37944412  104.69300079    1.26999998    2.67000008
   19.38111115  103.45899963    1.26999998    2.67000008
   19.38305473  103.98500061    1.26999998    2.67000008
   19.38638878  105.16999817    1.28999996    2.67000008
   19.38944435  107.40299988    1.28999996    2.66000009
   19.39277840  105.47399902    1.28999996    2.67000008
   19.39611053  107.05200195    1.28999996    2.67000008
   19.40222168  107.05200195    1.28999996    2.67000008
   19.40611076  104.42299652    1.28999996    2.67000008
   19.40944481  102.81800079    1.28999996    2.67000008
   19.41277695  105.94100189    1.28999996    2.69000006
   19.41444397  104.99199677    1.28999996    2.67000008
   19.41638756  100.68000031    1.28999996    2.67000008
   19.41972160  103.02899933    1.30999994    2.67000008
   19.42277718  105.16999817    1.33000004    2.69000006
   19.42611122  100.82099915    1.34000003    2.67000008
   19.42944336  102.27400208    1.34000003    2.67000008
   19.43249893  105.25900269    1.34000003    2.67000008
   19.43583298  103.73500061    1.34000003    2.67000008
   19.43888855  104.83300018    1.36000001    2.67000008
   19.44499969  104.83300018    1.36000001    2.67000008
   19.44916534  103.75399780    1.46000004    2.67000008
   19.45222282  100.86699677    1.50000000    2.67000008
   19.45555687   99.96350098    1.41999996    2.67000008
   19.45888901  105.38200378    1.41999996    2.67000008
   19.46194458  101.99400330    1.38000000    2.66000009
   19.46527863  106.68199921    1.38000000    2.66000009
   19.46833420  107.34100342    1.38000000    2.67000008
   19.47166634  107.88400269    1.38000000    2.67000008
   19.47500038   99.81860352    1.36000001    2.67000008
   19.47805595  108.31199646    1.36000001    2.67000008
   19.48111153  107.47100067    1.36000001    2.67000008
   19.48194504  108.24500275    1.36000001    2.67000008
   19.48777771  108.24500275    1.36000001    2.67000008
   19.49194527  103.52400208    1.38000000    2.67000008
   19.49527740  105.63999939    1.38000000    2.67000008
   19.49833298  103.00000000    1.36000001    2.67000008
   19.50166702  103.75000000    1.36000001    2.66000009
   19.50472260  105.44100189    1.36000001    2.66000009
   19.50805473  105.37100220    1.36000001    2.67000008
   19.51138878  107.27799988    1.36000001    2.67000008
   19.51444435  105.30799866    1.34000003    2.66000009
   19.51499939  107.53600311    1.33000004    2.67000008
   19.51833344  106.31500244    1.33000004    2.67000008
   19.52138901  100.23400116    1.33000004    2.67000008
   19.52472115  102.11299896    1.33000004    2.67000008
   19.53055573  102.11299896    1.30999994    2.69000006
   19.53499985  108.19400024    1.33000004    2.67000008
   19.53805542  102.96900177    1.30999994    2.67000008
   19.54138756  103.23600006    1.30999994    2.67000008
   19.54444313  102.84999847    1.30999994    2.67000008
   19.54777718  104.02799988    1.33000004    2.67000008
   19.54833221  103.34400177    1.33000004    2.67000008
   19.55166626  106.80400085    1.33000004    2.67000008
   19.55472183  105.51799774    1.30999994    2.67000008
   19.55805397  105.59500122    1.30999994    2.67000008
   19.56110954  103.98699951    1.33000004    2.67000008
   19.56444359  103.94899750    1.34000003    2.67000008
   19.56777954  107.47499847    1.36000001    2.67000008
   19.57361221  107.47499847    1.38000000    2.66000009
   19.57750130  106.17099762    1.41999996    2.66000009
   19.58083344  107.24299622    1.44000006    2.66000009
   19.58139038  105.13700104    1.44000006    2.66000009
   19.58472252  102.14700317    1.44000006    2.66000009
   19.58777809   99.96219635    1.44000006    2.66000009
   19.59111214  104.00499725    1.44000006    2.66000009
   19.59444427  104.14900208    1.46000004    2.66000009
   19.59749985  102.15499878    1.44000006    2.67000008
   19.60083389  101.86799622    1.44000006    2.66000009
   19.60388947  106.73999786    1.46000004    2.66000009
   19.60722351  106.69000244    1.46000004    2.66000009
   19.61055565  105.39700317    1.44000006    2.66000009
   19.61638832  105.39700317    1.44000006    2.66000009
   19.62055588  110.01200104    1.44000006    2.66000009
   19.62361145  105.32800293    1.46000004    2.66000009
   19.62694550  105.68699646    1.46000004    2.66000009
   19.63027763  106.70099640    1.46000004    2.66000009
   19.65111160  109.92700195    0.00000000    0.00000000
   19.65166664  108.04900360    1.48000002    2.66000009
   19.65444374  104.50900269    1.48000002    2.66000009
   19.66055489  104.50900269    1.51999998    2.64000010
   19.66499901  102.82499695    1.53999996    2.64000010
   19.66833305  101.49500275    1.53999996    2.64000010
   19.67166519  103.62000275    1.53999996    2.64000010
   19.67499924  106.30799866    1.53999996    2.64000010
   19.67833328  100.77899933    1.55999994    2.64000010
   19.68138885  104.16799927    1.55999994    2.64000010
   19.69333267  104.25499725    0.00000000    0.00000000
   19.69388771  103.72299957    1.55999994    2.64000010
   19.69722176  105.20400238    1.55999994    2.64000010
   19.70333481  105.20400238    1.58000004    2.64000010
   19.71638870  108.22499847    0.00000000    0.00000000
   19.71972275  111.60900116    1.60000002    2.64000010
   19.72277832  107.17500305    1.58000004    2.64000010
   19.72611237  106.43000031    1.58000004    2.64000010
   19.72944450  102.79100037    1.58000004    2.64000010
   19.73222351  107.61499786    1.58000004    2.64000010
   19.73305511  109.14700317    1.58000004    2.64000010
   19.73638916  108.80000305    1.60000002    2.64000010
   19.73972321  106.90599823    1.58000004    2.64000010
   19.76499939  106.90599823    1.61000001    2.64000010
   19.76888847  103.60099792    1.60000002    2.64000010
   19.77222252  109.37799835    1.60000002    2.64000010
   19.77555466  106.86000061    1.58000004    2.64000010
   19.77861023  103.44300079    1.58000004    2.64000010
   19.78055573  106.34400177    1.60000002    2.64000010
   19.78249931  107.26599884    1.58000004    2.64000010
   19.78555489  109.14199829    1.58000004    2.64000010
   19.79277802  109.14199829    1.58000004    2.64000010
   19.79694366  101.47200012    1.58000004    2.64000010
   19.80027771  100.96600342    1.58000004    2.64000010
   19.80333328  107.09300232    1.58000004    2.64000010
   19.80666542  102.37100220    1.58000004    2.64000010
   19.80999947  104.98500061    1.58000004    2.64000010
   19.81305504  103.31199646    1.61000001    2.64000010
   19.81388855  105.84799957    1.61000001    2.64000010
   19.81694603  102.20800018    1.63000000    2.64000010
   19.82000160  101.16100311    1.63000000    2.64000010
   19.82389069  102.66100311    1.64999998    2.64000010
   19.82722282  100.78800201    1.64999998    2.64000010
   19.83055687  102.70700073    1.64999998    2.64000010
   19.84444427  102.70700073    1.51999998    2.64000010
   19.84861183  103.81900024    1.51999998    2.64000010
   19.85194397  104.09300232    1.53999996    2.64000010
   19.85527802  108.45999908    1.53999996    2.64000010
   19.85861206  106.00000000    1.53999996    2.64000010
   19.86166763  108.48000336    1.53999996    2.64000010
   19.86499977   99.76419830    1.53999996    2.64000010
   19.86833382  103.33799744    1.55999994    2.64000010
   19.87138939  108.96600342    1.55999994    2.64000010
   19.87805557  108.96600342    1.60000002    2.64000010
   19.88222313  105.36299896    1.61000001    2.61999989
   19.88555527  101.88800049    1.63000000    2.61999989
   19.88888931  105.45899963    1.63000000    2.61999989
   19.89194489  102.88600159    1.63000000    2.61999989
   19.89527702  113.70500183    1.66999996    2.61999989
   19.89833260  104.91999817    1.75000000    2.61999989
   19.90166664  108.83999634    1.75000000    2.61999989
   19.90499878  105.45200348    1.76999998    2.61999989
   19.90805435  106.41400146    1.76999998    2.61999989
   19.91138840  106.86000061    1.75000000    2.61999989
   19.91416550  111.45099640    1.78999996    2.61999989
   19.91499901  110.03299713    1.80999994    2.61999989
   19.93666649  110.03299713    1.83000004    2.61999989
   19.94083214  104.58899689    1.88000000    2.59999990
   19.94388771  102.79000092    2.07999992    2.59999990
   19.94833183  104.43399811    2.05999994    2.61999989
   19.94888878  102.81300354    2.05999994    2.61999989
   19.95222282  104.78900146    2.01999998    2.59999990
   19.95527840  113.99800110    2.00000000    2.59999990
   19.95861244  111.56300354    1.98000002    2.59999990
   19.96194458  108.73500061    1.96000004    2.59999990
   19.96500015  106.89800262    1.96000004    2.59999990
   19.96861076  108.02500153    1.91999996    2.61999989
   19.97166634  105.14600372    1.88000000    2.61999989
   19.97500038  104.52899933    1.83000004    2.61999989
   19.97944450  104.52899933    1.83000004    2.59999990
   19.98333359  108.47699738    1.83000004    2.59999990
   19.98666763  109.42299652    1.73000002    2.61999989
   19.98999977  110.65200043    1.73000002    2.59999990
   19.99305534  113.43699646    1.73000002    2.59999990
   19.99638939  111.00900269    1.73000002    2.59999990
   19.99972153  110.55100250    1.71000004    2.59999990
   20.00277710  106.38899994    1.71000004    2.59999990
   20.00611115  107.02100372    1.71000004    2.59999990
   20.00916672  107.63300323    1.71000004    2.59999990
   20.01250076  106.06400299    1.71000004    2.59999990
   20.01555634  112.05799866    1.71000004    2.59999990
   20.01638794  110.82099915    1.73000002    2.59999990
   20.02222252  110.82099915    1.71000004    2.59999990
   20.02638817  104.94999695    1.73000002    2.59999990
   20.02972221  112.05500031    1.71000004    2.59999990
   20.03305435  110.43199921    1.73000002    2.59999990
   20.03777695  100.99700165    1.73000002    2.59999990
   20.04111099  108.11900330    1.73000002    2.59999990
   20.04444313  106.80000305    1.75000000    2.59999990
   20.04749870  109.96299744    1.73000002    2.59999990
   20.04888916  106.64199829    1.73000002    2.59999990
   20.05138779  113.26799774    1.75000000    2.61999989
   20.05444336  108.64900208    1.75000000    2.59999990
   20.05805397  105.21600342    1.75000000    2.59999990
   20.06110954  107.61699677    1.75000000    2.59999990
   20.06555557  107.61699677    1.75000000    2.59999990
   20.06972313  110.80100250    1.75000000    2.59999990
   20.07277870  105.70899963    1.75000000    2.59999990
   20.07611275  111.28700256    1.75000000    2.59999990
   20.07944489  113.94799805    1.75000000    2.59999990
   20.08250046  106.96399689    1.76999998    2.59999990
   20.08305550  107.52600098    1.76999998    2.59999990
   20.08638954  116.57800293    1.76999998    2.59999990
   20.08944511  108.29299927    1.78999996    2.59999990
   20.09277916  107.86399841    1.78999996    2.59999990
   20.09611130  110.04599762    1.78999996    2.59999990
   20.09944534  108.19100189    1.78999996    2.57999992
   20.10277748  106.68099976    1.78999996    2.57999992
   20.10833359  106.68099976    1.76999998    2.59999990
   20.11250114  103.86000061    1.78999996    2.57999992
   20.12444496  106.16500092    1.75000000    2.59999990
   20.12472153  104.72599792    1.75000000    2.59999990
   20.12805557  103.73400116    1.75000000    2.59999990
   20.13138962  103.19599915    1.75000000    2.59999990
   20.13444519  107.53299713    1.75000000    2.59999990
   20.13833237  108.84200287    1.75000000    2.59999990
   20.14166641  108.93699646    1.76999998    2.57999992
   20.14472198  111.35800171    1.76999998    2.57999992
   20.14833260  109.68499756    1.76999998    2.59999990
   20.15250015  109.68499756    1.78999996    2.57999992
   20.15666580  103.98500061    1.78999996    2.57999992
   20.16860962  102.72699738    0.00000000    0.00000000
   20.17194366  105.44300079    1.78999996    2.57999992
   20.17527771  103.06400299    1.78999996    2.57999992
   20.17833328  103.96800232    1.78999996    2.57999992
   20.18166542  109.81400299    1.80999994    2.59999990
   20.19333267  104.73300171    1.80999994    2.57999992
   20.19416618  108.87799835    1.80999994    2.57999992
   20.19749832  106.49500275    1.80999994    2.57999992
   20.20277786  106.49500275    1.78999996    2.57999992
   20.20722389  103.65699768    1.80999994    2.57999992
   20.21055603  104.84300232    1.85000002    2.59999990
   20.21361160  103.10700226    1.85000002    2.57999992
   20.21694565  110.01100159    1.86000001    2.57999992
   20.21777916  107.52899933    1.86000001    2.57999992
   20.22055626  108.68800354    1.86000001    2.57999992
   20.22389030  109.21700287    1.86000001    2.55999994
   20.23638916  109.85399628    0.00000000    0.00000000
   20.23972321  104.92700195    1.85000002    2.57999992
   20.24583435  104.92700195    1.85000002    2.57999992
   20.25000000  100.97599792    1.86000001    2.57999992
   20.25222206  106.06500244    1.86000001    2.57999992
   20.25388908  106.29299927    1.86000001    2.57999992
   20.25722313  110.26300049    1.86000001    2.57999992
   20.26027870  110.66899872    1.88000000    2.57999992
   20.26416588  108.51999664    1.88000000    2.57999992
   20.26749992  107.08399963    1.88000000    2.57999992
   20.27083397  105.60700226    1.89999998    2.57999992
   20.27388954  107.04299927    1.89999998    2.57999992
   20.27722168  106.67800140    1.91999996    2.55999994
   20.28055573  109.00199890    1.91999996    2.55999994
   20.28361130  108.74700165    1.94000006    2.57999992
   20.28888893  108.74700165    2.00000000    2.55999994
   20.29277802  105.44300079    2.01999998    2.55999994
   20.29611015  109.35900116    2.00000000    2.55999994
   20.29944420  109.33799744    1.98000002    2.57999992
   20.30249977  114.41699982    1.98000002    2.55999994
   20.30583191  110.07599640    1.98000002    2.55999994
   20.30916595  108.39099884    1.98000002    2.55999994
   20.31222153   99.68430328    2.00000000    2.55999994
   20.31555557  108.89900208    2.00000000    2.55999994
   20.31861115  107.21099854    2.00000000    2.55999994
   20.31972313  108.62799835    2.00000000    2.55999994
   20.32222366  106.51699829    2.01999998    2.55999994
   20.32555580  104.80699921    2.03999996    2.55999994
   20.34111214  104.80699921    2.07999992    2.55999994
   20.34527779  108.15899658    2.07999992    2.53999996
   20.34833336  111.29199982    2.07999992    2.53999996
   20.35166740  105.56199646    2.07999992    2.53999996
   20.35472298  107.64700317    2.09999990    2.53999996
   20.35666656  104.12999725    2.07999992    2.53999996
   20.35861206  113.70999908    2.07999992    2.53999996
   20.36166763  107.13099670    2.09999990    2.53999996
   20.36555672  111.75199890    2.09999990    2.53999996
   20.36861038  112.03199768    2.11999989    2.53999996
   20.37527847  112.03199768    2.11999989    2.55999994
   20.37916756  107.22100067    2.11999989    2.53999996
   20.38249969  102.57499695    2.11999989    2.53999996
   20.38583374  102.02300262    2.13000011    2.53999996
   20.38888931  100.78900146    2.13000011    2.53999996
   20.38999939  104.38600159    2.13000011    2.51999998
   20.39277840  105.78900146    2.13000011    2.51999998
   20.39583397  100.60500336    2.11999989    2.53999996
   20.39916611  102.33100128    2.11999989    2.53999996
   20.40250015  105.59400177    2.11999989    2.53999996
   20.40555573  105.72599792    2.13000011    2.53999996
   20.40944481  105.10600281    2.11999989    2.53999996
   20.41277695  102.16799927    2.11999989    2.51999998
   20.41777802  102.16799927    2.11999989    2.53999996
   20.42194366  105.77600098    2.11999989    2.53999996
   20.42333221   99.99919891    2.11999989    2.51999998
   20.42555428  102.72200012    2.09999990    2.53999996
   20.42860985  112.37100220    2.09999990    2.53999996
   20.43194389  108.26399994    2.13000011    2.51999998
   20.43527603  105.56300354    2.15000010    2.53999996
   20.43833160  111.21800232    2.11999989    2.53999996
   20.44249916  103.24400330    2.07999992    2.53999996
   20.44555473  103.88700104    2.07999992    2.53999996
   20.44888878  107.45899963    2.07999992    2.53999996
   20.45333481  102.75000000    2.07999992    2.53999996
   20.45666695  102.99199677    2.09999990    2.53999996
   20.45722389  106.14700317    2.09999990    2.53999996
   20.46138954  106.14700317    2.11999989    2.51999998
   20.46555710  106.57800293    2.13000011    2.51999998
   20.46861076  103.12200165    2.13000011    2.51999998
   20.48083305  104.61499786    2.17000008    2.51999998
   20.48416710  108.38600159    2.15000010    2.51999998
   20.48722267  105.96600342    2.15000010    2.51999998
   20.49055672  103.02100372    2.15000010    2.51999998
   20.49388885  106.41500092    2.15000010    2.51999998
   20.49638939  107.93199921    2.15000010    2.51999998
   20.49749947  107.02700043    2.17000008    2.51999998
   20.50055504   98.39710236    2.15000010    2.51999998
   20.50388908  107.08000183    2.15000010    2.51999998
   20.50833321  107.08000183    2.15000010    2.51999998
   20.52111053  102.65899658    2.17000008    2.51999998
   20.52416611  107.55000305    2.17000008    2.51999998
   20.52750015  111.45899963    2.17000008    2.50000000
   20.53083229  110.61699677    2.17000008    2.51999998
   20.53388786  102.19499969    2.17000008    2.50000000
   20.53666687  108.08399963    2.17000008    2.50000000
   20.53777695  108.48999786    2.17000008    2.51999998
   20.54083252  108.07900238    2.17000008    2.50000000
   20.54416656  112.01699829    2.17000008    2.51999998
   20.54749870  106.82800293    2.17000008    2.51999998
   20.55166626  106.82800293    2.15000010    2.50000000
   20.55555534  104.05200195    2.15000010    2.51999998
   20.55888748  100.91699982    2.17000008    2.51999998
   20.56222153  110.46600342    2.15000010    2.51999998
   20.56527710  100.49600220    2.17000008    2.51999998
   20.56861115  105.31500244    2.17000008    2.51999998
   20.57000160  104.16500092    2.17000008    2.51999998
   20.57222366  103.78800201    2.17000008    2.50000000
   20.57527924  104.07199860    2.19000006    2.50000000
   20.57861137  105.42400360    2.19000006    2.51999998
   20.58194542  104.07900238    2.19000006    2.50000000
   20.58500099  105.21499634    2.21000004    2.50000000
   20.58833313  109.47899628    2.21000004    2.50000000
   20.59444427  109.47899628    2.23000002    2.50000000
   20.59889030  100.73500061    2.25000000    2.50000000
   20.60222244  104.25000000    2.25000000    2.50000000
   20.60333443  101.30799866    2.26999998    2.50000000
   20.60583305  113.19699860    2.25000000    2.50000000
   20.60944557  108.99700165    2.25000000    2.50000000
   20.61250114  106.18399811    2.26999998    2.50000000
   20.61583328   99.58010101    2.26999998    2.48000002
   20.61888885   89.56289673    2.26999998    2.50000000
   20.62222290  119.98799896    2.26999998    2.48000002
   20.62555504  134.93499756    2.26999998    2.48000002
   20.62861061  161.90699768    2.26999998    2.48000002
   20.63194466  175.94400024    2.28999996    2.48000002
   20.63722229  175.94400024    2.28999996    2.48000002
   20.64138794  318.37899780    2.28999996    2.48000002
   20.64472198  184.91700745    2.28999996    2.48000002
   20.64777756   -1.00000000    2.28999996    2.48000002
   20.65111160   -1.00000000    2.30999994    2.48000002
   20.65416718   -1.00000000    2.32999992    2.48000002
   20.65749931   -1.00000000    2.30999994    2.48000002
   20.66083336   -1.00000000    2.28999996    2.48000002
   20.66416550   -1.00000000    2.26999998    2.48000002
   20.66722107   -1.00000000    2.26999998    2.48000002
   20.67083359   -1.00000000    2.28999996    2.48000002
   20.67416573   -1.00000000    2.28999996    2.48000002
   20.68416595   -1.00000000    2.28999996    2.48000002
   20.68722153   -1.00000000    2.30999994    2.46000004
   20.69055557   -1.00000000    2.30999994    2.46000004
   20.69388771   -1.00000000    2.36999989    2.46000004
   20.69694328   -1.00000000    2.39000010    2.46000004
   20.70027924   -1.00000000    2.39000010    2.46000004
   20.70361137   -1.00000000    2.36999989    2.46000004
   20.70694542   -1.00000000    2.39000010    2.46000004
   20.71027946   -1.00000000    2.39000010    2.46000004
   20.71333504   -1.00000000    2.40000010    2.46000004
   20.71666718   -1.00000000    2.40000010    2.46000004
   20.72694588   -1.00000000    2.42000008    2.46000004
   20.73027802   -1.00000000    2.42000008    2.46000004
   20.73333359   -1.00000000    2.42000008    2.46000004
   20.73694420   -1.00000000    2.42000008    2.44000006
   20.74027824   -1.00000000    2.40000010    2.44000006
   20.74388885   -1.00000000    2.40000010    2.44000006
   20.74694443   -1.00000000    2.39000010    2.46000004
   20.75027847   -1.00000000    2.39000010    2.46000004
   20.75361061   -1.00000000    2.39000010    2.46000004
   20.75694466   -1.00000000    2.39000010    2.46000004
   20.76000023   -1.00000000    2.39000010    2.46000004
   20.77833366   -1.00000000    2.46000004    2.44000006
   20.78166580   -1.00000000    2.46000004    2.44000006
   20.78472137   -1.00000000    2.46000004    2.44000006
   20.78805542   -1.00000000    2.46000004    2.44000006
   20.79138756   -1.00000000    2.48000002    2.44000006
   20.79444313   -1.00000000    2.48000002    2.44000006
   20.79805565   -1.00000000    2.50000000    2.42000008
   20.80111122   -1.00000000    2.48000002    2.44000006
   20.80444336   -1.00000000    2.48000002    2.42000008
   20.81250000   -1.00000000    2.46000004    2.44000006
   20.81583214   -1.00000000    2.48000002    2.44000006
   20.81916809   -1.00000000    2.50000000    2.42000008
   20.82222366   -1.00000000    2.48000002    2.44000006
   20.82555580   -1.00000000    2.50000000    2.42000008
   20.82888985   -1.00000000    2.51999998    2.44000006
   20.83194542   -1.00000000    2.57999992    2.42000008
   20.83527756   -1.00000000    2.51999998    2.42000008
   20.83833313   -1.00000000    2.55999994    2.42000008
   20.85111237   -1.00000000    0.00000000    0.00000000
   20.85444450   -1.00000000    2.48000002    2.42000008
   20.86527824   -1.00000000    2.48000002    2.42000008
   20.86861038   -1.00000000    2.46000004    2.42000008
   20.87194443   -1.00000000    2.46000004    2.42000008
   20.87500000   -1.00000000    2.44000006    2.42000008
   20.87833405   -1.00000000    2.44000006    2.42000008
   20.88138962   -1.00000000    2.46000004    2.42000008
   20.88472176   -1.00000000    2.46000004    2.44000006
   20.88833237   -1.00000000    2.44000006    2.44000006
   20.89166641   -1.00000000    2.44000006    2.44000006
   20.89500046   -1.00000000    2.44000006    2.42000008
   20.89916611   -1.00000000    2.44000006    2.42000008
   20.90999985   -1.00000000    2.48000002    2.42000008
   20.91333389   -1.00000000    2.48000002    2.42000008
   20.91638756   -1.00000000    2.50000000    2.42000008
   20.92000008   -1.00000000    2.50000000    2.42000008
   20.92333221   -1.00000000    2.55999994    2.40000010
   20.92666626   -1.00000000    2.59999990    2.42000008
   20.92972183   -1.00000000    2.67000008    2.40000010
   20.93555450   -1.00000000    2.59999990    2.40000010
   20.93888855   -1.00000000    2.61999989    2.40000010
   20.94249916   -1.00000000    2.61999989    2.40000010
   20.95055580   -1.00000000    2.57999992    2.40000010
   20.95416832   -1.00000000    2.55999994    2.40000010
   20.95750046   -1.00000000    2.55999994    2.40000010
   20.97722244   -1.00000000    2.55999994    2.40000010
   20.98055649   -1.00000000    2.55999994    2.39000010
   20.98361206   -1.00000000    2.57999992    2.39000010
   20.99388885   -1.00000000    2.55999994    2.40000010
   20.99694443   -1.00000000    2.55999994    2.39000010
   21.00972176   -1.00000000    0.00000000    0.00000000
   21.01305580   -1.00000000    2.57999992    2.39000010
   21.01611137   -1.00000000    2.59999990    2.39000010
   21.01944351   -1.00000000    2.59999990    2.39000010
   21.02277756   -1.00000000    2.59999990    2.39000010
   21.03555489   -1.00000000    2.59999990    2.39000010
   21.03861046   -1.00000000    2.61999989    2.39000010
   21.04777718   -1.00000000    2.64000010    2.36999989
   21.05083275   -1.00000000    2.64000010    2.36999989
   21.05416679   -1.00000000    2.64000010    2.39000010
   21.05749893   -1.00000000    2.64000010    2.39000010
   21.06083298   -1.00000000    2.66000009    2.36999989
   21.06388855   -1.00000000    2.66000009    2.39000010
   21.06722260   -1.00000000    2.66000009    2.36999989
   21.07055664   -1.00000000    2.66000009    2.36999989
   21.07361221   -1.00000000    2.67000008    2.36999989
   21.07694626   -1.00000000    2.67000008    2.36999989
   21.08027840   -1.00000000    2.67000008    2.36999989
   21.09055710   -1.00000000    2.69000006    2.36999989
   21.09416771   -1.00000000    2.69000006    2.36999989
   21.09722328   -1.00000000    2.71000004    2.36999989
   21.10055542   -1.00000000    2.71000004    2.34999990
   21.10416794   -1.00000000    2.71000004    2.34999990
   21.10722351   -1.00000000    2.71000004    2.36999989
   21.11055565   -1.00000000    2.73000002    2.36999989
   21.11388969   -1.00000000    2.73000002    2.34999990
   21.12277794   -1.00000000    2.75000000    2.34999990
   21.12638855   -1.00000000    2.76999998    2.34999990
   21.13611031   -1.00000000    2.78999996    2.34999990
   21.13944435   -1.00000000    2.78999996    2.34999990
   21.14305496   -1.00000000    2.80999994    2.34999990
   21.14611053   -1.00000000    2.80999994    2.34999990
   21.14944458   -1.00000000    2.80999994    2.34999990
   21.16222191   -1.00000000    0.00000000    0.00000000
   21.16583252   -1.00000000    2.82999992    2.32999992
   21.16888809   -1.00000000    2.82999992    2.32999992
   21.17916679   -1.00000000    2.84999990    2.32999992
   21.18222237   -1.00000000    2.84999990    2.30999994
   21.18555450   -1.00000000    2.86999989    2.30999994
   21.18888855   -1.00000000    2.86999989    2.32999992
   21.19194412   -1.00000000    2.86999989    2.32999992
   21.19527626   -1.00000000    2.86999989    2.32999992
   21.19888878   -1.00000000    2.89000010    2.30999994
   21.20222282   -1.00000000    2.89000010    2.30999994
   21.20527840   -1.00000000    2.89000010    2.32999992
   21.20861244   -1.00000000    2.91000009    2.32999992
   21.21166801   -1.00000000    2.91000009    2.30999994
   21.22194481   -1.00000000    2.93000007    2.30999994
   21.22527885   -1.00000000    2.94000006    2.30999994
   21.22833443   -1.00000000    2.94000006    2.30999994
   21.23194504   -1.00000000    2.96000004    2.30999994
   21.23527718   -1.00000000    2.96000004    2.30999994
   21.23833275   -1.00000000    2.96000004    2.30999994
   21.24166679   -1.00000000    4.90999985    2.46000004
   21.24472237   -1.00000000    0.23000000    0.40000001
   21.24805641   -1.00000000    0.15000001    0.28000000
   21.25138855   -1.00000000    0.09000000    0.05000000
   21.25444412   -1.00000000    0.09000000    0.05000000
   21.26472282   -1.00000000    0.09000000    0.05000000
   21.26805496   -1.00000000    0.09000000    0.05000000
   21.27138901   -1.00000000    0.09000000    0.05000000
   21.27444458   -1.00000000    0.09000000    0.05000000
   21.27777672   -1.00000000    0.09000000    0.05000000
   21.28111076   -1.00000000    0.09000000    0.05000000
   21.28416634   -1.00000000    0.09000000    0.05000000
   21.28750038   -1.00000000    0.09000000    0.05000000
   21.29055595   -1.00000000    0.09000000    0.05000000
   21.29388809   -1.00000000    0.09000000    0.05000000
   21.29749870   -1.00000000    0.09000000    0.05000000
   21.30777740   -1.00000000    0.09000000    0.05000000
   21.31083298   -1.00000000    0.09000000    0.05000000
   21.31472206   -1.00000000    0.09000000    0.05000000
   21.31777954   -1.00000000    0.09000000    0.05000000
   21.32111168   -1.00000000    0.09000000    0.05000000
   21.32416725   -1.00000000    0.09000000    0.05000000
   21.32750130   -1.00000000    0.09000000    0.05000000
   21.33111191   -1.00000000    0.09000000    0.05000000
   21.33444595   -1.00000000    0.09000000    0.05000000
   21.33750153   -1.00000000    0.09000000    0.05000000
   21.34083366   -1.00000000    0.09000000    0.05000000
   21.35055542   -1.00000000    0.09000000    0.05000000
   21.35388947   -1.00000000    0.09000000    0.05000000
   21.35694504   -1.00000000    0.09000000    0.05000000
   21.36027908   -1.00000000    0.09000000    0.05000000
   21.36388969   -1.00000000    0.09000000    0.05000000
   21.36722183   -1.00000000    0.09000000    0.05000000
   21.37027740   -1.00000000    0.09000000    0.05000000
   21.37361145   -1.00000000    0.09000000    0.05000000
   21.37694550   -1.00000000    0.09000000    0.05000000
   21.38000107   -1.00000000    0.09000000    0.05000000
   21.38333321   -1.00000000    0.09000000    0.05000000
   21.39333344   -1.00000000    0.09000000    0.05000000
   21.39694405   -1.00000000    0.09000000    0.05000000
   21.40027809   -1.00000000    0.09000000    0.05000000
   21.40333366   -1.00000000    0.09000000    0.05000000
   21.40666580   -1.00000000    0.09000000    0.05000000
   21.40999985   -1.00000000    0.09000000    0.05000000
   21.41305542   -1.00000000    0.09000000    0.05000000
   21.41638756   -1.00000000    0.09000000    0.05000000
   21.41944313   -1.00000000    0.09000000    0.05000000
   21.42277718   -1.00000000    0.09000000    0.05000000
   21.42611122   -1.00000000    0.09000000    0.05000000
   21.43610954   -1.00000000    0.09000000    0.05000000
   21.43944359   -1.00000000    0.09000000    0.05000000
   21.44277763   -1.00000000    0.09000000    0.05000000
   21.44583321   -1.00000000    0.09000000    0.05000000
   21.44916534   -1.00000000    0.09000000    0.05000000
   21.45250130   -1.00000000    0.09000000    0.05000000
   21.45555687   -1.00000000    0.09000000    0.05000000
   21.45888901   -1.00000000    0.09000000    0.05000000
   21.46222305   -1.00000000    0.09000000    0.05000000
   21.46555710   -1.00000000    0.09000000    0.05000000
   21.46888924   -1.00000000    0.09000000    0.05000000
   21.47916794   -1.00000000    0.09000000    0.05000000
   21.48222351   -1.00000000    0.09000000    0.05000000
   21.48611069   -1.00000000    0.09000000    0.05000000
   21.48944473   -1.00000000    0.09000000    0.05000000
   21.49277878   -1.00000000    0.09000000    0.05000000
   21.49583435   -1.00000000    0.09000000    0.05000000
   21.49916649   -1.00000000    0.09000000    0.05000000
   21.50250053   -1.00000000    0.09000000    0.05000000
   21.50583267   -1.00000000    0.09000000    0.05000000
   21.50916672   -1.00000000    0.09000000    0.05000000
   21.51250076   -1.00000000    0.09000000    0.05000000
   21.52194405   -1.00000000    0.09000000    0.05000000
   21.52499962   -1.00000000    0.09000000    0.05000000
   21.52833366   -1.00000000    0.09000000    0.05000000
   21.53194427   -1.00000000    0.09000000    0.05000000
   21.53527641   -1.00000000    0.09000000    0.05000000
   21.53833199   -1.00000000    0.09000000    0.05000000
   21.54166603   -1.00000000    0.09000000    0.05000000
   21.54500008   -1.00000000    0.09000000    0.05000000
   21.54805565   -1.00000000    0.09000000    0.05000000
   21.55138779   -1.00000000    0.09000000    0.05000000
   21.55444336   -1.00000000    0.09000000    0.05000000
   21.56472206   -1.00000000    0.09000000    0.05000000
   21.56805611   -1.00000000    0.09000000    0.05000000
   21.57111168   -1.00000000    0.09000000    0.05000000
   21.57444572   -1.00000000    0.09000000    0.05000000
   21.57777786   -1.00000000    0.09000000    0.05000000
   21.58083344   -1.00000000    0.09000000    0.05000000
   21.58416748   -1.00000000    0.09000000    0.05000000
   21.58750153   -1.00000000    0.09000000    0.05000000
   21.59055710   -1.00000000    0.09000000    0.05000000
   21.59388924   -1.00000000    0.09000000    0.05000000
   21.59722328   -1.00000000    0.09000000    0.05000000
   21.60750008   -1.00000000    0.09000000    0.05000000
   21.61194420   -1.00000000    0.09000000    0.05000000
   21.61527824   -1.00000000    0.09000000    0.05000000
   21.61861038   -1.00000000    0.09000000    0.05000000
   21.62194443   -1.00000000    0.09000000    0.05000000
   21.62527847   -1.00000000    0.09000000    0.05000000
   21.62833405   -1.00000000    0.09000000    0.05000000
   21.63194466   -1.00000000    0.09000000    0.05000000
   21.63527679   -1.00000000    0.09000000    0.05000000
   21.63833237   -1.00000000    0.09000000    0.05000000
   21.64166641   -1.00000000    0.09000000    0.05000000
   21.65055466   -1.00000000    0.09000000    0.05000000
   21.65361023   -1.00000000    0.09000000    0.05000000
   21.65694427   -1.00000000    0.09000000    0.05000000
   21.66027832   -1.00000000    0.09000000    0.05000000
   21.66361046   -1.00000000    0.09000000    0.05000000
   21.66694450   -1.00000000    0.09000000    0.05000000
   21.67000008   -1.00000000    0.09000000    0.05000000
   21.67333221   -1.00000000    0.09000000    0.05000000
   21.67666626   -1.00000000    0.09000000    0.05000000
   21.67972183   -1.00000000    0.09000000    0.05000000
   21.68305397   -1.00000000    0.09000000    0.05000000
   21.69333267   -1.00000000    0.09000000    0.05000000
   21.69694328   -1.00000000    0.09000000    0.05000000
   21.70027924   -1.00000000    0.09000000    0.05000000
   21.70333481   -1.00000000    0.09000000    0.05000000
   21.70666695   -1.00000000    0.09000000    0.05000000
   21.71000099   -1.00000000    0.09000000    0.05000000
   21.71361160   -1.00000000    0.09000000    0.05000000
   21.71694565   -1.00000000    0.09000000    0.05000000
   21.72027779   -1.00000000    0.09000000    0.05000000
   21.72333336   -1.00000000    0.09000000    0.05000000
   21.72666740   -1.00000000    0.09000000    0.05000000
   21.74527740   -1.00000000    0.00000000    0.00000000
   21.74861145   -1.00000000    0.09000000    0.05000000
   21.75166702   -1.00000000    0.09000000    0.05000000
   21.75499916   -1.00000000    0.09000000    0.05000000
   21.75833321   -1.00000000    0.09000000    0.05000000
   21.76138878   -1.00000000    0.09000000    0.05000000
   21.76499939   -1.00000000    0.09000000    0.05000000
   21.76833344   -1.00000000    0.09000000    0.05000000
   21.77888870   -1.00000000    0.09000000    0.05000000
   21.79083252   -1.00000000    0.00000000    0.00000000
   21.79416656   -1.00000000    0.09000000    0.05000000
   21.79749870   -1.00000000    0.09000000    0.05000000
   21.80083275   -1.00000000    0.09000000    0.05000000
   21.80388832   -1.00000000    0.09000000    0.05000000
   21.81638718   -1.00000000    0.00000000    0.00000000
   21.81972313   -1.00000000    0.09000000    0.05000000
   21.83000183   -1.00000000    0.09000000    0.05000000
   21.84250069   -1.00000000    0.09000000    0.05000000
