    HOUR (UT)   FLARE FACTOR    SKY TESTER    SUN TESTER
   11.51000023   -1.00000000   -1.00000000   -1.00000000
   11.53333378  109.87000275    1.25000000    2.19000006
   11.53666687  113.79900360    1.25000000    2.19000006
   11.53972244  111.68699646    1.25000000    2.21000004
   11.54305553  120.88099670    1.23000002    2.21000004
   11.54638958  113.03199768    1.23000002    2.21000004
   11.54944515  109.09400177    1.23000002    2.21000004
   11.55388927  109.09400177    1.23000002    2.21000004
   11.55805588  115.99900055    1.23000002    2.23000002
   11.56111145  112.46700287    1.21000004    2.23000002
   11.56444454  108.76899719    1.21000004    2.23000002
   11.56638908  113.77500153    1.21000004    2.23000002
   11.56833363  116.08599854    1.21000004    2.23000002
   11.57138920  114.08399963    1.21000004    2.21000004
   11.57472229  109.57299805    1.19000006    2.21000004
   11.57805538  113.97399902    1.21000004    2.23000002
   11.58111095  112.01899719    1.19000006    2.23000002
   11.58444405  116.71700287    1.19000006    2.23000002
   11.58749962  115.46900177    1.19000006    2.23000002
   11.59083271  112.85399628    1.19000006    2.23000002
   11.59638882  112.85399628    1.16999996    2.25000000
   11.60055637  113.31700134    1.16999996    2.25000000
   11.60388947  111.17900085    1.16999996    2.25000000
   11.60722256  118.41999817    1.16999996    2.25000000
   11.61027813  119.61499786    1.16999996    2.25000000
   11.61361122  110.39700317    1.14999998    2.25000000
   11.61694431  111.98200226    1.14999998    2.25000000
   11.61999989  121.83300018    1.14999998    2.25000000
   11.62333393  111.75599670    1.14999998    2.25000000
   11.62666702  115.00399780    1.14999998    2.26999998
   11.62972260  113.05100250    1.14999998    2.25000000
   11.63305569  114.66200256    1.14999998    2.26999998
   11.63361073  109.66600037    1.14999998    2.26999998
   11.63944435  109.66600037    1.14999998    2.26999998
   11.64361095  111.11499786    1.14999998    2.26999998
   11.64666653  113.89199829    1.13000000    2.26999998
   11.64999962  110.27799988    1.13000000    2.26999998
   11.65305519  116.42099762    1.14999998    2.26999998
   11.65638828  114.45700073    1.13000000    2.28999996
   11.65972137  114.37799835    1.13000000    2.26999998
   11.66277695  106.55799866    1.13000000    2.26999998
   11.66611099  112.01300049    1.11000001    2.28999996
   11.66666698  106.83100128    1.11000001    2.28999996
   11.67000008  110.89199829    1.11000001    2.28999996
   11.67305565  110.90699768    1.11000001    2.28999996
   11.67750072  111.83100128    1.11000001    2.28999996
   11.68222237  111.83100128    1.11000001    2.28999996
   11.68638897  115.57599640    1.09000003    2.28999996
   11.68944454  164.51800537    1.09000003    2.28999996
   11.69277763  114.89199829    1.09000003    2.28999996
   11.69611073  109.15499878    1.09000003    2.28999996
   11.69916630  112.80000305    1.09000003    2.28999996
   11.69999981  116.72799683    1.09000003    2.28999996
   11.70305538  110.35800171    1.09000003    2.30999994
   11.70611095  106.23799896    1.09000003    2.30999994
   11.70944405  111.14399719    1.07000005    2.30999994
   11.71277714  109.61599731    1.05999994    2.30999994
   11.71583271  111.97000122    1.05999994    2.30999994
   11.71916580  107.78600311    1.05999994    2.30999994
   11.72499943  107.78600311    1.01999998    2.30999994
   11.72916603  103.34700012    1.01999998    2.30999994
   11.73249912  109.38400269    1.01999998    2.30999994
   11.73333359  108.55899811    1.01999998    2.30999994
   11.73611164  106.48000336    1.01999998    2.30999994
   11.73916721  107.06300354    1.01999998    2.32999992
   11.74250031  108.07099915    1.00000000    2.32999992
   11.74611092  106.93699646    1.00000000    2.32999992
   11.74944496  103.75299835    1.00000000    2.32999992
   11.75249958  104.82599640    1.01999998    2.32999992
   11.75583363  111.00299835    1.00000000    2.32999992
   11.75888920  100.32099915    1.00000000    2.32999992
   11.76222229  103.64700317    1.00000000    2.32999992
   11.76777744  103.64700317    1.00000000    2.32999992
   11.77194405  109.66500092    0.98000002    2.32999992
   11.77527714  106.26000214    0.98000002    2.32999992
   11.77861118  107.59300232    0.98000002    2.32999992
   11.78166676  112.58799744    0.98000002    2.34999990
   11.78500080  106.19200134    1.00000000    2.34999990
   11.78833389  111.04000092    0.98000002    2.34999990
   11.79138947  105.30500031    1.00000000    2.34999990
   11.79472256  110.16000366    0.98000002    2.34999990
   11.79777813  107.52500153    0.98000002    2.34999990
   11.80000019  111.68099976    0.98000002    2.36999989
   11.80166721  108.88200378    0.98000002    2.34999990
   11.80472279  105.26200104    0.95999998    2.36999989
   11.81083393  105.26200104    0.95999998    2.36999989
   11.81500053  110.01300049    0.95999998    2.34999990
   11.81805515  109.97000122    0.95999998    2.36999989
   11.82138920  107.97399902    0.95999998    2.34999990
   11.82444477  110.98600006    0.95999998    2.36999989
   11.82777786  109.30200195    0.95999998    2.36999989
   11.83111095  103.07800293    0.94000000    2.36999989
   11.83333302  108.36499786    0.94000000    2.36999989
   11.83472157  105.21700287    0.94000000    2.36999989
   11.83777714  102.32800293    0.95999998    2.36999989
   11.84111118  110.45300293    0.94000000    2.36999989
   11.84444427  111.85600281    0.94000000    2.36999989
   11.84749985   99.84539795    0.94000000    2.36999989
   11.85361195   99.84539795    0.92000002    2.39000010
   11.85777855  104.83100128    0.92000002    2.39000010
   11.86083412  104.95999908    0.92000002    2.39000010
   11.86416721  104.53199768    0.89999998    2.39000010
   11.86666679  110.80200195    0.89999998    2.39000010
   11.86777782  106.86799622    0.89999998    2.39000010
   11.87083340  107.13099670    0.89999998    2.39000010
   11.87416649  103.72799683    0.89999998    2.39000010
   11.87750053  102.83999634    0.88000000    2.39000010
   11.88083363  112.77700043    0.88000000    2.39000010
   11.88388920  102.83399963    0.88000000    2.39000010
   11.88722229  100.37899780    0.88000000    2.39000010
   11.89055538  106.95600128    0.88000000    2.39000010
   11.89638901  106.95600128    0.88000000    2.40000010
   11.90055561  105.58000183    0.88000000    2.39000010
   11.90388870  105.98500061    0.86000001    2.40000010
   11.90694427  100.51399994    0.86000001    2.40000010
   11.91027737  108.11399841    0.86000001    2.40000010
   11.91361046  102.78099823    0.86000001    2.40000010
   11.91666698  105.72599792    0.86000001    2.40000010
   11.92000008  100.81400299    0.83999997    2.40000010
   11.92333412  102.67800140    0.83999997    2.40000010
   11.92638874  103.89800262    0.83999997    2.40000010
   11.92972279  104.01999664    0.86000001    2.40000010
   11.93305588  103.86199951    0.86000001    2.42000008
   11.93361092  105.55699921    0.86000001    2.42000008
   11.93916702  105.55699921    0.86000001    2.42000008
   11.94333363  109.93299866    0.86000001    2.42000008
   11.94666672  109.46499634    0.83999997    2.42000008
   11.94999981  105.14299774    0.83999997    2.42000008
   11.95305538  101.78199768    0.83999997    2.42000008
   11.95638847  102.22499847    0.86000001    2.42000008
   11.95972157  104.04900360    0.83999997    2.42000008
   11.96277714  101.58399963    0.83999997    2.42000008
   11.96611118  100.20800018    0.83999997    2.42000008
   11.96694374  108.73000336    0.83999997    2.42000008
   11.96972179  100.98999786    0.83999997    2.44000006
   11.97277737   99.62220001    0.83999997    2.42000008
   11.97611046  106.02200317    0.81999999    2.44000006
   11.98222160  106.02200317    0.81999999    2.42000008
   11.98638916  102.01999664    0.81999999    2.42000008
   11.98944473  103.92900085    0.81999999    2.44000006
   11.99277782  107.06099701    0.81999999    2.44000006
   11.99583340  100.64499664    0.81999999    2.44000006
   11.99916649  103.21600342    0.81999999    2.44000006
   12.00027752  101.13899994    0.81999999    2.44000006
   12.00277805  104.62599945    0.80000001    2.42000008
   12.00583363  104.22599792    0.80000001    2.44000006
   12.00916672  107.95400238    0.80000001    2.44000006
   12.01249981  101.80599976    0.80000001    2.44000006
   12.01555538  106.49199677    0.80000001    2.44000006
   12.01888847  105.03700256    0.80000001    2.44000006
   12.02499962  105.03700256    0.80000001    2.44000006
   12.02916622   95.95809937    0.80000001    2.46000004
   12.03222179   98.27850342    0.80000001    2.46000004
   12.03361130  100.25000000    0.80000001    2.46000004
   12.03611183  104.02200317    0.81999999    2.46000004
   12.03916740  106.02999878    0.80000001    2.46000004
   12.04250050  102.22799683    0.80000001    2.46000004
   12.04583359   95.68679810    0.80000001    2.46000004
   12.04888916  102.33000183    0.81999999    2.46000004
   12.05222225  104.83499908    0.80000001    2.46000004
   12.05555534   99.64450073    0.80000001    2.46000004
   12.05861092   99.55809784    0.80000001    2.46000004
   12.06194496  104.39199829    0.80000001    2.46000004
   12.06777763  104.39199829    0.80000001    2.46000004
   12.07194424  100.44200134    0.80000001    2.46000004
   12.07527733  100.74400330    0.80000001    2.46000004
   12.07833290  100.84799957    0.80000001    2.46000004
   12.08166695   97.46540070    0.80000001    2.46000004
   12.08500004  100.03700256    0.80000001    2.48000002
   12.08833313   97.54470062    0.80000001    2.48000002
   12.09138870   96.48329926    0.80000001    2.48000002
   12.09472179  101.00099945    0.80000001    2.46000004
   12.09805489  104.12300110    0.80000001    2.46000004
   12.10027790  103.44400024    0.80000001    2.48000002
   12.10166740  105.28299713    0.80000001    2.48000002
   12.10472298  101.28099823    0.80000001    2.48000002
   12.11055565  101.28099823    0.80000001    2.48000002
   12.11472225   97.24019623    0.80000001    2.48000002
   12.11805534  100.03700256    0.80000001    2.48000002
   12.12111092   96.82499695    0.80000001    2.48000002
   12.12444496  107.90200043    0.80000001    2.48000002
   12.12777805  101.33799744    0.79000002    2.48000002
   12.13083363  105.72599792    0.79000002    2.48000002
   12.13361073  105.33100128    0.79000002    2.48000002
   12.13472176  102.47399902    0.79000002    2.48000002
   12.13777733  100.17800140    0.79000002    2.48000002
   12.14111137  101.84500122    0.79000002    2.50000000
   12.14444447  102.23500061    0.79000002    2.50000000
   12.14750004  102.46800232    0.80000001    2.48000002
   12.15361118  102.46800232    0.79000002    2.50000000
   12.15777779  103.44999695    0.79000002    2.50000000
   12.16083336  104.30300140    0.79000002    2.50000000
   12.16416645  100.98799896    0.79000002    2.50000000
   12.16694450   99.76930237    0.79000002    2.50000000
   12.16777802  100.43299866    0.79000002    2.50000000
   12.17111111   99.40850067    0.79000002    2.50000000
   12.17416668  103.40100098    0.79000002    2.51999998
   12.17750072  102.90699768    0.79000002    2.50000000
   12.18055630   98.92749786    0.79000002    2.50000000
   12.18388939   98.95749664    0.79000002    2.50000000
   12.18722248   97.79180145    0.79000002    2.50000000
   12.19027805  102.71399689    0.79000002    2.50000000
   12.19638920  102.71399689    0.79000002    2.51999998
   12.20055580   99.79290009    0.80000001    2.50000000
   12.20361137   94.55560303    0.80000001    2.50000000
   12.20694447   96.99890137    0.80000001    2.51999998
   12.21027756  100.12999725    0.80000001    2.51999998
   12.21333313   92.44819641    0.80000001    2.51999998
   12.21666622   96.56310272    0.80000001    2.50000000
   12.21999931   98.01399994    0.80000001    2.50000000
   12.22305489   98.08209991    0.80000001    2.50000000
   12.22638798  100.65799713    0.79000002    2.51999998
   12.22944355  101.18800354    0.79000002    2.51999998
   12.23277760  111.38400269    0.79000002    2.51999998
   12.23361111   99.29329681    0.79000002    2.51999998
   12.23916721   99.29329681    0.76999998    2.51999998
   12.24333382   96.27880096    0.76999998    2.51999998
   12.24666691  103.32399750    0.76999998    2.51999998
   12.24972248   97.83139801    0.76999998    2.51999998
   12.25305557   96.77050018    0.76999998    2.51999998
   12.25611115   99.79489899    0.76999998    2.51999998
   12.25944424  100.12999725    0.79000002    2.51999998
   12.26277733   95.75620270    0.79000002    2.51999998
   12.26583290   92.78160095    0.79000002    2.53999996
   12.26694393   97.54170227    0.79000002    2.53999996
   12.26972198   99.94989777    0.76999998    2.51999998
   12.27277756   97.33570099    0.75000000    2.53999996
   12.27638817   94.02459717    0.76999998    2.53999996
   12.28194427   94.02459717    0.76999998    2.53999996
   12.28611183   97.45290375    0.75000000    2.53999996
   12.28944492   99.76149750    0.75000000    2.53999996
   12.29250050   97.97229767    0.75000000    2.53999996
   12.29583359  102.33300018    0.75000000    2.53999996
   12.29916668   98.25730133    0.76999998    2.55999994
   12.30027771  103.45800018    0.76999998    2.53999996
   12.30277824   99.80670166    0.79000002    2.55999994
   12.30611134   99.09780121    0.79000002    2.55999994
   12.30916691   96.70860291    0.76999998    2.55999994
   12.31250000   98.07959747    0.79000002    2.55999994
   12.31555557  103.44400024    0.79000002    2.53999996
   12.31888866  108.28800201    0.79000002    2.53999996
   12.32499981  108.28800201    0.79000002    2.53999996
   12.32916641   96.81950378    0.79000002    2.53999996
   12.33222198  103.41200256    0.79000002    2.55999994
   12.33361053   98.08689880    0.79000002    2.55999994
   12.33583260   98.37310028    0.79000002    2.55999994
   12.33916664  105.85700226    0.79000002    2.55999994
   12.34222221  100.58499908    0.79000002    2.55999994
   12.34555531  100.89199829    0.80000001    2.55999994
   12.34861088   98.53910065    0.81999999    2.55999994
   12.35194492   99.16249847    0.81999999    2.55999994
   12.35527802  102.51699829    0.81999999    2.55999994
   12.35833359  100.73699951    0.81999999    2.55999994
   12.36166668   96.82029724    0.88000000    2.55999994
   12.36777782   96.82029724    0.88000000    2.55999994
   12.37194443   99.37879944    0.89999998    2.55999994
   12.37500000   99.98490143    0.88000000    2.55999994
   12.37833309  103.67199707    0.88000000    2.55999994
   12.38166714  104.33000183    0.88000000    2.55999994
   12.38472176  104.11900330    0.86000001    2.55999994
   12.38805580  101.69699860    0.83999997    2.55999994
   12.39138889  106.72699738    0.83999997    2.55999994
   12.39444447  105.22699738    0.81999999    2.55999994
   12.39777756  102.29299927    0.80000001    2.55999994
   12.40027714  103.42199707    0.80000001    2.57999992
   12.40138817   97.13480377    0.79000002    2.55999994
   12.40472221  104.95999908    0.79000002    2.55999994
   12.41055489  104.95999908    0.79000002    2.57999992
   12.41472149   99.50309753    0.79000002    2.57999992
   12.41805553  100.48200226    0.79000002    2.57999992
   12.42111111  102.12599945    0.76999998    2.57999992
   12.42444515   98.50350189    0.76999998    2.57999992
   12.42777824   98.95909882    0.76999998    2.57999992
   12.43083382   98.95719910    0.76999998    2.57999992
   12.43361092   98.47709656    0.76999998    2.57999992
   12.43444443   98.45359802    0.76999998    2.57999992
   12.43777752   96.36540222    0.76999998    2.57999992
   12.44083309   94.73290253    0.76999998    2.57999992
   12.44416714  100.80699921    0.76999998    2.57999992
   12.44722271  101.96600342    0.75000000    2.57999992
   12.45333290  101.96600342    0.76999998    2.57999992
   12.45749950  103.43800354    0.75000000    2.57999992
   12.46083355  100.41699982    0.75000000    2.57999992
   12.46388912   98.33910370    0.73000002    2.57999992
   12.46694374   97.04270172    0.73000002    2.57999992
   12.46777725  102.39499664    0.73000002    2.59999990
   12.47111034  105.75399780    0.73000002    2.59999990
   12.47416592  100.84300232    0.75000000    2.57999992
   12.47749996   98.59220123    0.73000002    2.57999992
   12.48055553   97.59089661    0.73000002    2.57999992
   12.48388958   99.58180237    0.73000002    2.57999992
   12.48722267   93.53369904    0.73000002    2.59999990
   12.49027824  102.86900330    0.70999998    2.59999990
   12.49638939  102.86900330    0.70999998    2.59999990
   12.50027752   99.20819855    0.69000000    2.59999990
   12.50361156   97.63110352    0.67000002    2.59999990
   12.50694466  104.58499908    0.67000002    2.59999990
   12.51000023   99.82150269    0.64999998    2.59999990
   12.51333332   98.45089722    0.64999998    2.59999990
   12.51666641  101.19100189    0.64999998    2.59999990
   12.51972198   97.58049774    0.64999998    2.59999990
   12.52305508  102.30400085    0.64999998    2.59999990
   12.52611065   97.74520111    0.64999998    2.59999990
   12.52944374   92.10600281    0.67000002    2.59999990
   12.53277779   96.32309723    0.67000002    2.59999990
   12.53361130   97.71140289    0.64999998    2.59999990
   12.55444431   97.71140289    0.67000002    2.59999990
   12.55861092  101.33999634    0.67000002    2.59999990
   12.56166649  100.59799957    0.67000002    2.59999990
   12.56500053  100.61499786    0.67000002    2.59999990
   12.56694412  103.44000244    0.67000002    2.59999990
   12.56861115   99.82050323    0.67000002    2.59999990
   12.57194424   99.10340118    0.67000002    2.61999989
   12.57499981   98.24829865    0.67000002    2.61999989
   12.57833290   96.25810242    0.67000002    2.59999990
   12.58166695  105.04799652    0.67000002    2.59999990
   12.58472157   97.17729950    0.67000002    2.59999990
   12.58805561   96.86250305    0.67000002    2.59999990
   12.59111118   96.31620026    0.64999998    2.59999990
   12.59722233   96.31620026    0.64999998    2.61999989
   12.60138893  101.98300171    0.64999998    2.61999989
   12.60444450   94.60399628    0.64999998    2.61999989
   12.60777855   93.96240234    0.64999998    2.61999989
   12.61111164   96.29940033    0.64999998    2.61999989
   12.61416721   97.05490112    0.64999998    2.61999989
   12.61750031   99.05390167    0.64999998    2.61999989
   12.62055588   99.07260132    0.64999998    2.61999989
   12.62388897   98.79560089    0.64999998    2.61999989
   12.62722206  101.39800262    0.64999998    2.61999989
   12.63027763   97.12259674    0.64999998    2.61999989
   12.63361073  101.16799927    0.64999998    2.61999989
   12.63416672   98.83740234    0.64999998    2.61999989
   12.64000034   98.83740234    0.64999998    2.61999989
   12.64416695   98.94580078    0.64999998    2.61999989
   12.64750004   96.01309967    0.64999998    2.61999989
   12.65055561   96.08650208    0.64999998    2.61999989
   12.65388870  102.57299805    0.63000000    2.61999989
   12.65694427   98.75389862    0.63000000    2.61999989
   12.66027737  100.66200256    0.63000000    2.64000010
   12.66361046   98.41580200    0.63000000    2.61999989
   12.66666698  101.92199707    0.63000000    2.61999989
   12.66722298   98.37539673    0.63000000    2.61999989
   12.67055607   96.87830353    0.63000000    2.61999989
   12.67361164   96.24800110    0.63000000    2.64000010
   12.67694473   96.67680359    0.61000001    2.64000010
   12.68277836   96.67680359    0.61000001    2.64000010
   12.68722248   96.95230103    0.61000001    2.64000010
   12.69027805   97.07890320    0.61000001    2.64000010
   12.69361115   96.20459747    0.58999997    2.64000010
   12.69694424   98.82330322    0.58999997    2.64000010
   12.69999981   95.90170288    0.61000001    2.64000010
   12.70055580   94.12560272    0.61000001    2.64000010
   12.70361137   98.20379639    0.61000001    2.61999989
   12.70694447   95.20059967    0.63000000    2.64000010
   12.71000004   98.32610321    0.63000000    2.64000010
   12.71333313  103.69300079    0.63000000    2.64000010
   12.71638870   98.38220215    0.63000000    2.64000010
   12.71972179   97.24839783    0.63000000    2.64000010
   12.72555542   97.24839783    0.63000000    2.64000010
   12.72972202   99.08159637    0.63000000    2.64000010
   12.73305511   95.15249634    0.63000000    2.64000010
   12.73388958   97.80200195    0.63000000    2.64000010
   12.73666668   98.48310089    0.63000000    2.64000010
   12.74000072   97.51679993    0.63000000    2.64000010
   12.74305534   96.13040161    0.63000000    2.64000010
   12.74638939   96.47149658    0.64999998    2.64000010
   12.74944496   98.78829956    0.64999998    2.64000010
   12.75277805   92.88079834    0.64999998    2.64000010
   12.75611115  100.50199890    0.64999998    2.64000010
   12.75916672   99.96320343    0.64999998    2.64000010
   12.76249981   96.53040314    0.64999998    2.64000010
   12.76861095   96.53040314    0.64999998    2.64000010
   12.77277756   99.71420288    0.64999998    2.64000010
   12.77583313   97.89710236    0.63000000    2.64000010
   12.77916622  101.53199768    0.63000000    2.64000010
   12.78222179   97.55169678    0.63000000    2.64000010
   12.78555584   97.65560150    0.63000000    2.66000009
   12.78888893   92.13800049    0.61000001    2.64000010
   12.79194450  103.46700287    0.61000001    2.64000010
   12.79527855   97.83419800    0.61000001    2.64000010
   12.79861164   96.10389709    0.61000001    2.64000010
   12.80055618   97.92569733    0.61000001    2.66000009
   12.80222225   96.74770355    0.61000001    2.66000009
   12.80555534   97.67250061    0.58999997    2.66000009
   12.81138897   97.67250061    0.58999997    2.66000009
   12.81555557   94.31430054    0.58999997    2.66000009
   12.81861115   97.26200104    0.58999997    2.66000009
   12.82194424   97.54090118    0.56999999    2.64000010
   12.82527733   95.65699768    0.56999999    2.66000009
   12.82833290   94.41790009    0.56999999    2.66000009
   12.83166695   95.33860016    0.56999999    2.66000009
   12.83388901   95.01339722    0.56999999    2.66000009
   12.83527756   94.26499939    0.56999999    2.66000009
   12.83861065   99.36660004    0.56999999    2.66000009
   12.84194374  102.33300018    0.56999999    2.66000009
   12.84499931  100.21900177    0.56999999    2.66000009
   12.84833336  100.00700378    0.56999999    2.66000009
   12.85416698  100.00700378    0.56999999    2.67000008
   12.85833359   97.14179993    0.56999999    2.67000008
   12.86166668  100.16400146    0.56999999    2.66000009
   12.86472225   98.16780090    0.56999999    2.66000009
   12.86722279  100.64499664    0.58999997    2.66000009
   12.86861134   95.61560059    0.56999999    2.66000009
   12.87194443  100.31300354    0.56999999    2.66000009
   12.87500000   96.05130005    0.56999999    2.66000009
   12.87861156   95.44799805    0.56999999    2.66000009
   12.88166714   96.06250000    0.55000001    2.66000009
   12.88500023   95.01509857    0.56999999    2.67000008
   12.88833332   91.84660339    0.55000001    2.67000008
   12.89138889   94.03910065    0.55000001    2.67000008
   12.89694405   94.03910065    0.55000001    2.67000008
   12.90111065   92.29149628    0.55000001    2.66000009
   12.90444374   95.76940155    0.55000001    2.67000008
   12.90777779   91.56020355    0.55000001    2.67000008
   12.91083336   99.98789978    0.55000001    2.67000008
   12.91416645   95.63860321    0.56999999    2.67000008
   12.91750050   95.77220154    0.56999999    2.67000008
   12.92055607   90.80819702    0.56999999    2.67000008
   12.92388916   96.22239685    0.56999999    2.67000008
   12.92694473   89.30110168    0.56999999    2.67000008
   12.93027782   97.98179626    0.56999999    2.67000008
   12.93361092   94.56670380    0.56999999    2.67000008
   12.93416691   99.53759766    0.56999999    2.67000008
   12.94000053   99.53759766    0.55000001    2.67000008
   12.94416714   95.35179901    0.56999999    2.67000008
   12.94722271   93.46179962    0.56999999    2.67000008
   12.95055580   97.32659912    0.56999999    2.67000008
   12.95361137   93.62519836    0.56999999    2.67000008
   12.95694447   97.22219849    0.56999999    2.67000008
   12.96027756   95.39769745    0.56999999    2.67000008
   12.96333313   90.87030029    0.56999999    2.67000008
   12.96666622   93.22309875    0.56999999    2.67000008
   12.96749973   92.55660248    0.56999999    2.67000008
   12.97027779   94.88240051    0.55000001    2.67000008
   12.97361088   92.03839874    0.55000001    2.69000006
   12.97694397   94.05339813    0.55000001    2.69000006
   12.98277760   94.05339813    0.52999997    2.67000008
   12.98694515   95.48079681    0.52999997    2.69000006
   12.99027824   97.80410004    0.51999998    2.69000006
   12.99333382   98.65779877    0.51999998    2.67000008
   12.99666691   93.25189972    0.52999997    2.67000008
   13.00000000   98.35350037    0.51999998    2.69000006
   13.00083351   91.50260162    0.51999998    2.69000006
   13.00333309   97.52210236    0.51999998    2.69000006
   13.00666714   99.26909637    0.51999998    2.69000006
   13.01000023   99.49980164    0.52999997    2.69000006
   13.01305580   95.05480194    0.52999997    2.69000006
   13.01638889   96.49089813    0.52999997    2.67000008
   13.01944447   99.04419708    0.52999997    2.67000008
   13.02555561   99.04419708    0.55000001    2.67000008
   13.02972221   97.21810150    0.55000001    2.69000006
   13.03305531   96.06279755    0.55000001    2.69000006
   13.03416729   99.51450348    0.55000001    2.69000006
   13.03638935   98.14289856    0.55000001    2.67000008
   13.03972244   98.99449921    0.55000001    2.69000006
   13.04305553   92.67870331    0.56999999    2.69000006
   13.04611111   96.43589783    0.56999999    2.67000008
   13.04944515   94.10929871    0.56999999    2.67000008
   13.05249977   91.33219910    0.56999999    2.67000008
   13.05583382   94.95600128    0.58999997    2.69000006
   13.05916691   92.96530151    0.58999997    2.67000008
   13.06222248   90.81569672    0.58999997    2.67000008
   13.06833363   90.81569672    0.61000001    2.69000006
   13.07250023   98.10440063    0.61000001    2.69000006
   13.07583332   92.99649811    0.61000001    2.69000006
   13.07916641  100.30300140    0.61000001    2.69000006
   13.08333302   99.51920319    0.61000001    2.71000004
   13.08666611  101.24299622    0.61000001    2.69000006
   13.09000015   97.56549835    0.61000001    2.67000008
   13.09305477   91.42320251    0.58999997    2.67000008
   13.09638882   95.32350159    0.58999997    2.67000008
   13.09972191   95.56510162    0.58999997    2.67000008
   13.10083389  100.63400269    0.58999997    2.67000008
   13.10305595   95.84770203    0.58999997    2.67000008
   13.10638905   94.70290375    0.58999997    2.69000006
   13.11138916   94.70290375    0.61000001    2.69000006
   13.11555576   96.98339844    0.61000001    2.67000008
   13.11861134   95.46050262    0.61000001    2.67000008
   13.12194443   91.81140137    0.58999997    2.69000006
   13.12500000   91.23320007    0.58999997    2.69000006
   13.12833309   98.01540375    0.58999997    2.69000006
   13.13166714   93.51550293    0.58999997    2.69000006
   13.13416672   96.44899750    0.58999997    2.69000006
   13.13500023   95.67279816    0.58999997    2.69000006
   13.13861084   95.01879883    0.58999997    2.67000008
   13.14166641   97.81670380    0.58999997    2.69000006
   13.14499950   96.98619843    0.58999997    2.69000006
   13.14833355  101.05699921    0.58999997    2.69000006
   13.15416622  101.05699921    0.61000001    2.69000006
   13.15833282   98.95030212    0.58999997    2.69000006
   13.16166592   94.69080353    0.58999997    2.69000006
   13.16472149   93.41780090    0.58999997    2.69000006
   13.16750050  101.00000000    0.58999997    2.69000006
   13.16833401   94.47360229    0.61000001    2.69000006
   13.17166710   98.76679993    0.58999997    2.69000006
   13.17500019   96.26429749    0.58999997    2.69000006
   13.17805576   93.54199982    0.58999997    2.69000006
   13.18138885   95.92630005    0.56999999    2.69000006
   13.18444443   97.66500092    0.55000001    2.71000004
   13.18777752   99.49700165    0.55000001    2.71000004
   13.19111156   99.74030304    0.55000001    2.69000006
   13.19694424   99.74030304    0.55000001    2.69000006
   13.20111084   99.67009735    0.55000001    2.69000006
   13.20444393  101.49299622    0.52999997    2.71000004
   13.20749950   96.07879639    0.55000001    2.69000006
   13.21083355   92.64430237    0.55000001    2.69000006
   13.21416664   99.33719635    0.52999997    2.69000006
   13.21722221   96.90399933    0.52999997    2.71000004
   13.22055531   95.50289917    0.55000001    2.69000006
   13.22388840   92.31600189    0.55000001    2.71000004
   13.22694397   93.90830231    0.52999997    2.71000004
   13.23027706   98.84259796    0.51999998    2.69000006
   13.23361111   97.51619720    0.52999997    2.71000004
   13.23416710   97.87799835    0.52999997    2.71000004
   13.24000072   97.87799835    0.51999998    2.71000004
   13.24416733   95.69100189    0.51999998    2.71000004
   13.24750042  100.56300354    0.50000000    2.73000002
   13.25055599  101.09600067    0.50000000    2.71000004
   13.25388908   99.32009888    0.50000000    2.71000004
   13.25694466   98.07849884    0.50000000    2.71000004
   13.26027775   97.18260193    0.50000000    2.73000002
   13.26361084   96.08820343    0.50000000    2.73000002
   13.26666641   98.20649719    0.47999999    2.71000004
   13.26749992   96.58100128    0.47999999    2.71000004
   13.27027798  101.30400085    0.47999999    2.71000004
   13.27361107   99.71869659    0.47999999    2.73000002
   13.27694416   95.91619873    0.47999999    2.73000002
   13.28277779   95.91619873    0.47999999    2.73000002
   13.28694534   95.85600281    0.47999999    2.73000002
   13.29000092   95.12039948    0.51999998    2.71000004
   13.29333401   94.59220123    0.50000000    2.73000002
   13.29638958   97.85459900    0.50000000    2.73000002
   13.29972267   96.58129883    0.51999998    2.71000004
   13.30083370   90.89720154    0.51999998    2.71000004
   13.30333328   98.24330139    0.51999998    2.73000002
   13.30666733  102.76899719    0.51999998    2.73000002
   13.31000042   94.11309814    0.51999998    2.73000002
   13.31305599   99.04029846    0.51999998    2.71000004
   13.31638908   89.17749786    0.51999998    2.71000004
   13.31944466  100.28800201    0.51999998    2.71000004
   13.32555580  100.28800201    0.51999998    2.71000004
   13.32972240   99.32849884    0.50000000    2.73000002
   13.33277798   98.00090027    0.50000000    2.73000002
   13.33416653   92.56659698    0.50000000    2.73000002
   13.33638859   94.42949677    0.50000000    2.73000002
   13.33972168   91.60949707    0.50000000    2.71000004
   13.34305477   98.25039673    0.50000000    2.71000004
   13.34611034   93.89250183    0.50000000    2.73000002
   13.34944439   99.57939911    0.50000000    2.73000002
   13.35249996  104.68199921    0.50000000    2.73000002
   13.35583401   95.21269989    0.50000000    2.73000002
   13.35916710   99.73529816    0.50000000    2.73000002
   13.36222267   99.37220001    0.50000000    2.73000002
   13.36833382   99.37220001    0.51999998    2.75000000
   13.37250042   92.26399994    0.51999998    2.73000002
   13.37583351   90.28820038    0.51999998    2.73000002
   13.37888908   94.55480194    0.51999998    2.73000002
   13.38222218   95.62840271    0.51999998    2.73000002
   13.38527775   97.24160004    0.52999997    2.75000000
   13.38861084   98.15299988    0.52999997    2.73000002
   13.39194393   93.03040314    0.52999997    2.73000002
   13.39499950   89.30380249    0.52999997    2.73000002
   13.39833355   94.46540070    0.52999997    2.73000002
   13.40083313   90.00299835    0.52999997    2.73000002
   13.40194416   92.56330109    0.52999997    2.73000002
   13.40527725   98.29160309    0.52999997    2.73000002
   13.41111088   98.29160309    0.55000001    2.73000002
   13.41527748  105.30300140    0.56999999    2.75000000
   13.41861153   96.40579987    0.56999999    2.73000002
   13.42194462   96.95510101    0.55000001    2.73000002
   13.42500019   95.94740295    0.55000001    2.73000002
   13.42833328   98.36599731    0.55000001    2.73000002
   13.43138885   94.67279816    0.55000001    2.73000002
   13.43416691   97.96990204    0.55000001    2.73000002
   13.43500042   94.77220154    0.55000001    2.73000002
   13.43833351   94.02410126    0.52999997    2.75000000
   13.44166660   97.81400299    0.52999997    2.75000000
   13.44472218   94.81359863    0.52999997    2.75000000
   13.44805527   95.27850342    0.51999998    2.73000002
   13.45416641   95.27850342    0.51999998    2.73000002
   13.45833302   92.57669830    0.50000000    2.75000000
   13.46138859   95.32589722    0.50000000    2.75000000
   13.46472168   95.22769928    0.47999999    2.75000000
   13.46749973   94.97100067    0.50000000    2.73000002
   13.46805477   93.85690308    0.50000000    2.73000002
   13.47138882   99.85130310    0.50000000    2.73000002
   13.47472191   94.75009918    0.47999999    2.75000000
   13.47777748   93.50340271    0.47999999    2.75000000
   13.48111057   97.62809753    0.47999999    2.75000000
   13.48444462   94.06729889    0.47999999    2.75000000
   13.48750019   97.97740173    0.47999999    2.75000000
   13.49083328   98.01399994    0.50000000    2.75000000
   13.49694443   98.01399994    0.47999999    2.75000000
   13.50111103   95.67590332    0.47999999    2.75000000
   13.50416660   96.25939941    0.47999999    2.75000000
   13.50749969   99.08529663    0.46000001    2.75000000
   13.51083374   93.79080200    0.46000001    2.75000000
   13.51388931   95.93240356    0.46000001    2.75000000
   13.51722240  100.00499725    0.44000000    2.75000000
   13.52027798   98.36380005    0.46000001    2.76999998
   13.52361107   94.20130157    0.46000001    2.75000000
   13.52694416   98.10720062    0.46000001    2.75000000
   13.52999973   97.82469940    0.46000001    2.76999998
   13.53333378   95.09590149    0.46000001    2.75000000
   13.53416729   93.89409637    0.46000001    2.75000000
   13.53972244   93.89409637    0.46000001    2.75000000
   13.54388905   98.50759888    0.46000001    2.75000000
   13.54722309   95.37069702    0.46000001    2.75000000
   13.55027771   91.90329742    0.44000000    2.75000000
   13.56805515   98.84100342    0.44000000    2.75000000
   13.57027817  105.62599945    0.44000000    2.75000000
   13.57361126   96.71080017    0.44000000    2.75000000
   13.57694435  100.88700104    0.46000001    2.75000000
   13.58277798  100.88700104    0.44000000    2.75000000
   13.58694458   94.11830139    0.44000000    2.76999998
   13.59027767   92.22409821    0.44000000    2.76999998
   13.59333324   97.21240234    0.44000000    2.75000000
   13.59666634   91.02690125    0.44000000    2.75000000
   13.60000038   96.20899963    0.44000000    2.75000000
   13.60111141   93.90779877    0.44000000    2.75000000
   13.60361195   99.69989777    0.41999999    2.75000000
   13.60694504   97.42179871    0.41999999    2.75000000
   13.61000061  100.61299896    0.41999999    2.75000000
   13.61333370   98.06420135    0.40000001    2.76999998
   13.61638927  111.65200043    0.40000001    2.76999998
   13.61972237   97.73870087    0.40000001    2.76999998
   13.62555599   97.73870087    0.41999999    2.75000000
   13.62972260  111.79199982    0.40000001    2.75000000
   13.63305569  108.87100220    0.41999999    2.76999998
   13.63444424  116.93900299    0.40000001    2.76999998
   13.63666630  110.10900116    0.40000001    2.76999998
   13.64000034  104.77700043    0.40000001    2.76999998
   13.64305496  101.32399750    0.44000000    2.75000000
   13.64638901  101.84100342    0.46000001    2.76999998
   13.64972210  107.15499878    0.46000001    2.75000000
   13.65277767  106.82199860    0.46000001    2.76999998
   13.65611076   92.08969879    0.46000001    2.76999998
   13.65916634  111.76499939    0.46000001    2.75000000
   13.66249943  109.97299957    0.46000001    2.76999998
   13.66861153  109.97299957    0.46000001    2.76999998
   13.67277813  101.98200226    0.46000001    2.76999998
   13.67583370  110.60800171    0.44000000    2.75000000
   13.67916679   94.48110199    0.44000000    2.75000000
   13.68222237   97.93720245    0.46000001    2.76999998
   13.68555546  106.43299866    0.44000000    2.76999998
   13.68888855  105.09999847    0.44000000    2.76999998
   13.69194412   98.53620148    0.41999999    2.76999998
   13.69527817  101.08799744    0.41999999    2.76999998
   13.69861126  106.08999634    0.44000000    2.78999996
   13.70111084  109.65399933    0.44000000    2.76999998
   13.70222187   98.95690155    0.44000000    2.76999998
   13.70555496   98.25550079    0.44000000    2.76999998
   13.71138859   98.25550079    0.44000000    2.76999998
   13.71555519  100.22100067    0.41999999    2.76999998
   13.71861076  108.25700378    0.44000000    2.76999998
   13.72194386   94.15969849    0.41999999    2.76999998
   13.72499943  108.02500153    0.44000000    2.76999998
   13.72833252  101.23799896    0.41999999    2.78999996
   13.73166656  104.92900085    0.44000000    2.78999996
   13.73444462  113.79799652    0.44000000    2.78999996
   13.73527813  109.27100372    0.44000000    2.76999998
   13.73861122  106.75099945    0.44000000    2.76999998
   13.74166679  105.38999939    0.44000000    2.76999998
   13.74499989  103.62699890    0.44000000    2.76999998
   13.74833393  102.12799835    0.41999999    2.76999998
   13.75416660  102.12799835    0.41999999    2.76999998
   13.75833321   96.10179901    0.44000000    2.76999998
   13.76138878  102.15599823    0.44000000    2.76999998
   13.76472187   90.34210205    0.44000000    2.76999998
   13.76777744   92.36920166    0.41999999    2.78999996
   13.76833344   92.43669891    0.41999999    2.78999996
   13.77166653   96.88760376    0.41999999    2.76999998
   13.77472210   94.87840271    0.41999999    2.78999996
   13.77805519  103.42199707    0.41999999    2.78999996
   13.78138828   92.39739990    0.41999999    2.76999998
   13.78444481   96.26770020    0.41999999    2.76999998
   13.78777790  111.56900024    0.41999999    2.78999996
   13.79111195   93.89379883    0.41999999    2.78999996
   13.79694462   93.89379883    0.41999999    2.76999998
   13.80111122   96.57289886    0.41999999    2.76999998
   13.80166721   93.63590240    0.41999999    2.76999998
   13.80500031   93.74680328    0.41999999    2.76999998
   13.80805588   99.84719849    0.44000000    2.76999998
   13.81138897  101.50399780    0.41999999    2.78999996
   13.81472206   94.54979706    0.41999999    2.78999996
   13.81777763   97.04199982    0.41999999    2.78999996
   13.82111073   92.12909698    0.41999999    2.78999996
   13.82444477   95.35269928    0.41999999    2.78999996
   13.82750034   95.09439850    0.50000000    2.76999998
   13.83083344  102.41300201    0.50000000    2.78999996
   13.83416653  100.63400269    0.50000000    2.76999998
   13.83500004   96.38009644    0.50000000    2.76999998
   13.84000015   96.38009644    0.50000000    2.78999996
   13.84388828   96.05780029    0.47999999    2.78999996
   13.84722233   97.41880035    0.41999999    2.78999996
   13.85055637   96.94000244    0.41999999    2.78999996
   13.85361195  101.56500244    0.44000000    2.78999996
   13.85694504   99.96029663    0.44000000    2.78999996
   13.86027813   97.85320282    0.44000000    2.78999996
   13.86333370   97.01580048    0.44000000    2.78999996
   13.86666679  102.76599884    0.44000000    2.78999996
   13.86833382   94.86150360    0.44000000    2.78999996
   13.87027836  104.83499908    0.44000000    2.78999996
   13.87333393   97.83470154    0.44000000    2.78999996
   13.87666702  103.42299652    0.41999999    2.78999996
   13.88277817  103.42299652    0.41999999    2.78999996
   13.88694477   91.39800262    0.41999999    2.78999996
   13.89000034   96.14119720    0.41999999    2.78999996
   13.89333344   93.49690247    0.44000000    2.78999996
   13.89638901   96.72560120    0.44000000    2.78999996
   13.89972210   97.67019653    0.41999999    2.78999996
   13.90166664   99.65480042    0.41999999    2.78999996
   13.90361118   93.78900146    0.44000000    2.78999996
   13.90666676   95.12300110    0.44000000    2.78999996
   13.90999985   97.58409882    0.46000001    2.80999994
   13.91333294   96.85520172    0.46000001    2.78999996
   13.91638851   96.29470062    0.46000001    2.78999996
   13.91972256   95.80699921    0.47999999    2.78999996
   13.92555618   95.80699921    0.47999999    2.78999996
   13.92972279  100.34500122    0.47999999    2.78999996
   13.93305588   98.62650299    0.47999999    2.78999996
   13.93500042   96.96279907    0.47999999    2.78999996
   13.93666649   97.69869995    0.51999998    2.78999996
   13.93972206   94.32240295    0.51999998    2.78999996
   13.94305515   97.68370056    0.50000000    2.76999998
   13.94638920   92.74819946    0.50000000    2.78999996
   13.94944477   96.56050110    0.46000001    2.78999996
   13.95277786   90.73500061    0.47999999    2.80999994
   13.95583344   93.21769714    0.46000001    2.78999996
   13.95916653   95.39379883    0.46000001    2.78999996
   13.96249962   91.48860168    0.46000001    2.78999996
   13.96833324   91.48860168    0.46000001    2.78999996
   13.97249985   94.58119965    0.46000001    2.78999996
   13.97583294   93.56410217    0.46000001    2.78999996
   13.97888851   94.99359894    0.46000001    2.78999996
   13.98222160   90.36849976    0.46000001    2.78999996
   13.98555565   91.84290314    0.44000000    2.78999996
   13.98861122   91.62650299    0.44000000    2.78999996
   13.99194431   91.77130127    0.46000001    2.78999996
   13.99527836   95.45960236    0.44000000    2.78999996
   13.99833393   98.46769714    0.44000000    2.78999996
   14.00166702   99.09329987    0.44000000    2.78999996
   14.00222206   93.37889862    0.44000000    2.78999996
   14.00527763  101.30899811    0.44000000    2.78999996
   14.01138878  101.30899811    0.41999999    2.78999996
   14.01527786   95.34549713    0.41999999    2.80999994
   14.01861095  101.87599945    0.44000000    2.78999996
   14.02194405   94.11699677    0.41999999    2.80999994
   14.02499962   93.68540192    0.41999999    2.78999996
   14.02833271   96.04599762    0.41999999    2.80999994
   14.03166676   89.44219971    0.41999999    2.80999994
   14.03472233   93.55829620    0.41999999    2.80999994
   14.03555584   90.92330170    0.41999999    2.78999996
   14.03833389   93.89710236    0.41999999    2.78999996
   14.04166698   90.81269836    0.41999999    2.78999996
   14.04500008   94.84600067    0.40000001    2.78999996
   14.04805565   96.09649658    0.40000001    2.78999996
   14.05416679   96.09649658    0.40000001    2.78999996
   14.05833340   93.60150146    0.41999999    2.78999996
   14.06138897   93.73239899    0.41999999    2.80999994
   14.06472206   94.98359680    0.40000001    2.78999996
   14.06777763   97.50520325    0.40000001    2.78999996
   14.06888866   96.85639954    0.40000001    2.78999996
   14.07166672   95.49060059    0.40000001    2.78999996
   14.07472229   93.79419708    0.40000001    2.78999996
   14.07805538   95.62920380    0.40000001    2.78999996
   14.08138847   95.11530304    0.40000001    2.78999996
   14.08472157   96.95639801    0.41999999    2.80999994
   14.08777714   91.94249725    0.41999999    2.78999996
   14.09111118   95.90950012    0.41999999    2.80999994
   14.09694386   95.90950012    0.44000000    2.78999996
   14.10111141   95.48179626    0.44000000    2.80999994
   14.10222244   95.85649872    0.44000000    2.80999994
   14.10472298   97.62960052    0.44000000    2.80999994
   14.10805607   95.52719879    0.46000001    2.80999994
   14.11138916   95.73850250    0.46000001    2.80999994
   14.11444473   92.79260254    0.47999999    2.78999996
   14.11777782   93.40360260    0.47999999    2.78999996
   14.12111092   97.62390137    0.46000001    2.80999994
   14.12416649   90.99639893    0.41999999    2.80999994
   14.12750053   91.09519958    0.41999999    2.80999994
   14.13055611   97.97200012    0.41999999    2.80999994
   14.13388920   95.85600281    0.40000001    2.80999994
   14.13555527   98.01799774    0.40000001    2.80999994
   14.13972187   98.01799774    0.40000001    2.80999994
   14.14388847   95.77940369    0.40000001    2.80999994
   14.14722252  101.23699951    0.40000001    2.80999994
   14.15027714   96.17199707    0.40000001    2.80999994
   14.15361118   95.24040222    0.40000001    2.80999994
   14.15694427   92.41929626    0.40000001    2.80999994
   14.16027737   92.09719849    0.40000001    2.80999994
   14.16333294   92.36679840    0.40000001    2.80999994
   14.16666698   92.16609955    0.40000001    2.80999994
   14.16888905   91.71600342    0.40000001    2.80999994
   14.17000008   95.08029938    0.40000001    2.80999994
   14.17333412   92.28659821    0.40000001    2.80999994
   14.17666721   94.36519623    0.40000001    2.80999994
   14.18249989   94.36519623    0.40000001    2.80999994
   14.18666649   90.68019867    0.40000001    2.80999994
   14.19000053   91.90589905    0.40000001    2.82999992
   14.19333363   95.94080353    0.40000001    2.80999994
   14.19638920   94.32510376    0.40000001    2.80999994
   14.19972229   95.82510376    0.40000001    2.80999994
   14.20222187   95.00109863    0.40000001    2.80999994
   14.20305538   91.59660339    0.40000001    2.80999994
   14.20638847   91.71990204    0.40000001    2.80999994
   14.20972157   92.29949951    0.38000000    2.82999992
   14.21277714   90.18550110    0.38000000    2.82999992
   14.21611118   91.83699799    0.38000000    2.82999992
   14.21944427   94.68240356    0.40000001    2.80999994
   14.22555542   94.68240356    0.38000000    2.80999994
   14.22972202   93.36049652    0.40000001    2.80999994
   14.23277760   93.79039764    0.40000001    2.80999994
   14.23555565   94.47070313    0.40000001    2.80999994
   14.23666668   91.51180267    0.40000001    2.80999994
   14.23972225   97.59159851    0.40000001    2.80999994
   14.24305534   92.00849915    0.40000001    2.80999994
   14.24611092   98.05580139    0.40000001    2.80999994
   14.24944496   93.22329712    0.40000001    2.80999994
   14.25277805   98.94850159    0.40000001    2.80999994
   14.25583363   97.49210358    0.40000001    2.80999994
   14.25916672   86.26509857    0.40000001    2.80999994
   14.26249981   92.31050110    0.38000000    2.80999994
   14.26833344   92.31050110    0.38000000    2.82999992
   14.27250004   88.14070129    0.44000000    2.82999992
   14.27583313   88.02680206    0.41999999    2.82999992
   14.27888870   88.52960205    0.38000000    2.82999992
   14.28222179   86.58779907    0.38000000    2.82999992
   14.28527832   88.84490204    0.38000000    2.82999992
   14.28861141   90.97679901    0.38000000    2.80999994
   14.29194450   90.89939880    0.38000000    2.82999992
   14.29500008   95.10240173    0.36000001    2.80999994
   14.29833412   92.11460114    0.36000001    2.80999994
   14.30166721   90.37190247    0.36000001    2.82999992
   14.30333328   92.40879822    0.36000001    2.80999994
   14.30527782   96.14119720    0.38000000    2.82999992
   14.31111145   96.14119720    0.38000000    2.82999992
   14.31527805   92.09130096    0.38000000    2.82999992
   14.31861115   91.74759674    0.36000001    2.82999992
   14.32166672   92.00279999    0.36000001    2.82999992
   14.32499981   98.35109711    0.36000001    2.82999992
   14.32833290   91.85649872    0.36000001    2.82999992
   14.33138847   92.83499908    0.36000001    2.82999992
   14.33472157   91.91439819    0.36000001    2.82999992
   14.33666611   93.64900208    0.36000001    2.82999992
   14.33833313   96.55660248    0.36000001    2.84999990
   14.34166622   93.48600006    0.36000001    2.80999994
   14.34472179   90.97840118    0.36000001    2.80999994
   14.34805489   95.37609863    0.38000000    2.82999992
   14.35416698   95.37609863    0.36000001    2.82999992
   14.35805607   95.48269653    0.36000001    2.82999992
   14.36138916   96.57910156    0.38000000    2.80999994
   14.36472225   95.89630127    0.36000001    2.82999992
   14.36777782   93.63110352    0.38000000    2.82999992
   14.37027836   92.33609772    0.38000000    2.82999992
   14.37166691   92.23680115    0.38000000    2.82999992
   14.37472248   93.89340210    0.38000000    2.82999992
   14.37805557   92.76580048    0.38000000    2.82999992
   14.38111115   92.59140015    0.38000000    2.82999992
   14.38444424   88.25330353    0.38000000    2.82999992
   14.38777733   91.25489807    0.44000000    2.82999992
   14.39083290   89.07409668    0.47999999    2.82999992
   14.39694405   89.07409668    0.44000000    2.82999992
   14.40111065   95.47859955    0.44000000    2.80999994
   14.40361118   86.08419800    0.44000000    2.80999994
   14.40472221   86.99389648    0.44000000    2.80999994
   14.40777779   92.67649841    0.41999999    2.82999992
   14.41111088   92.65820313    0.40000001    2.82999992
   14.41416645   92.51799774    0.40000001    2.80999994
   14.41750050   93.83090210    0.41999999    2.82999992
   14.42083359   93.51950073    0.41999999    2.82999992
   14.42388916   94.44319916    0.44000000    2.82999992
   14.42722225   94.48390198    0.41999999    2.82999992
   14.43055630   93.58779907    0.41999999    2.82999992
   14.43361092   87.85669708    0.41999999    2.82999992
   14.43972206   87.85669708    0.40000001    2.82999992
   14.44388866   92.92289734    0.40000001    2.86999989
   14.44694424   93.67209625    0.38000000    2.84999990
   14.45027733   91.81690216    0.40000001    2.82999992
   14.45361137   92.53079987    0.41999999    2.84999990
   14.45666695   90.03479767    0.40000001    2.84999990
   14.46000004   96.43299866    0.41999999    2.82999992
   14.46333313  103.35299683    0.40000001    2.84999990
   14.46638870   93.30889893    0.40000001    2.82999992
   14.46972179   87.97619629    0.40000001    2.82999992
   14.47055531   90.08830261    0.40000001    2.82999992
   14.47333336   89.91979980    0.40000001    2.82999992
   14.47638798   91.44909668    0.38000000    2.84999990
   14.48249912   91.44909668    0.38000000    2.84999990
   14.48666668  108.31500244    0.36000001    2.84999990
   14.49000072  102.96700287    0.36000001    2.84999990
   14.49305534  110.02799988    0.36000001    2.84999990
   14.49638939   94.44219971    0.36000001    2.84999990
   14.49972248   91.76190186    0.36000001    2.84999990
   14.50277805   95.09839630    0.36000001    2.82999992
   14.50388908   98.65090179    0.36000001    2.82999992
   14.50666714   94.32240295    0.36000001    2.84999990
   14.51000023  102.56900024    0.36000001    2.82999992
   14.51305580   96.09049988    0.34000000    2.84999990
   14.51638889   94.79209900    0.36000001    2.84999990
   14.51944447   92.98329926    0.36000001    2.84999990
   14.52527714   92.98329926    0.34000000    2.84999990
   14.52944374   90.27339935    0.36000001    2.84999990
   14.53277779   92.66629791    0.36000001    2.84999990
   14.53611183   94.03739929    0.36000001    2.82999992
   14.53750038   89.54720306    0.36000001    2.82999992
   14.53972244  102.10299683    0.36000001    2.82999992
   14.54277802   92.62010193    0.36000001    2.82999992
   14.54611111   97.14949799    0.36000001    2.84999990
   14.54916668   99.15450287    0.36000001    2.84999990
   14.55249977   92.71410370    0.38000000    2.84999990
   14.55583382   93.56950378    0.38000000    2.84999990
   14.55888939   94.39219666    0.38000000    2.84999990
   14.56222248   95.49780273    0.36000001    2.84999990
   14.56833363   95.49780273    0.38000000    2.82999992
   14.58666611   91.61519623    0.36000001    2.84999990
   14.59000015   94.00180054    0.36000001    2.84999990
   14.59305477   92.42690277    0.38000000    2.84999990
   14.59638882   96.05159760    0.38000000    2.84999990
   14.59944439   93.07820129    0.36000001    2.84999990
   14.60277843   95.46569824    0.36000001    2.82999992
   14.60611153   91.23570251    0.36000001    2.84999990
   14.61138916   91.23570251    0.34000000    2.84999990
   14.61555576   87.57830048    0.34000000    2.84999990
   14.61861134  102.08699799    0.34000000    2.84999990
   14.61972237   90.98030090    0.34000000    2.84999990
   14.62250042   91.79280090    0.36000001    2.84999990
   14.62555599  101.86399841    0.36000001    2.84999990
   14.62888908   92.32180023    0.36000001    2.84999990
   14.63194466   93.38069916    0.36000001    2.82999992
   14.63527775  104.04199982    0.36000001    2.84999990
   14.63861084   96.54070282    0.36000001    2.84999990
   14.64166641   98.14060211    0.36000001    2.84999990
   14.64499950   99.58920288    0.36000001    2.84999990
   14.64833355   97.07510376    0.36000001    2.84999990
   14.65416622   97.07510376    0.36000001    2.84999990
   14.65833282   93.61090088    0.36000001    2.86999989
   14.66166592   91.04149628    0.36000001    2.84999990
   14.66472149   94.11769867    0.36000001    2.84999990
   14.66805553   87.17870331    0.38000000    2.84999990
   14.67138958  100.72299957    0.44000000    2.84999990
   14.67444515   92.55650330    0.46000001    2.84999990
   14.67777824  100.01399994    0.44000000    2.84999990
   14.68111134   92.82219696    0.44000000    2.82999992
   14.68416691   88.76799774    0.44000000    2.84999990
   14.68638897  102.64199829    0.44000000    2.84999990
   14.68805599  102.96399689    0.44000000    2.86999989
   14.69111156   90.04119873    0.46000001    2.86999989
   14.69694424   90.04119873    0.46000001    2.84999990
   14.70111084   98.86209869    0.46000001    2.86999989
   14.70444393   96.81210327    0.47999999    2.86999989
   14.70749950   92.65339661    0.50000000    2.84999990
   14.71083355   95.64299774    0.47999999    2.84999990
   14.71416664   94.88539886    0.47999999    2.84999990
   14.71722221   91.39129639    0.47999999    2.86999989
   14.71972179  101.48600006    0.47999999    2.86999989
   14.72111034   91.90940094    0.47999999    2.86999989
   14.72416592  111.80899811    0.47999999    2.84999990
   14.72749996  100.87999725    0.47999999    2.84999990
   14.73055553   96.71389771    0.47999999    2.86999989
   14.73388958  105.30200195    0.46000001    2.84999990
   14.74000072  105.30200195    0.41999999    2.84999990
   14.74416733  111.42900085    0.41999999    2.84999990
   14.74722290   96.80899811    0.41999999    2.84999990
   14.75055599   95.22830200    0.44000000    2.84999990
   14.75305557  102.07199860    0.44000000    2.84999990
   14.75416660  114.65299988    0.44000000    2.86999989
   14.75722218  102.11399841    0.41999999    2.84999990
   14.76055527   98.95950317    0.44000000    2.86999989
   14.76388931  120.09500122    0.44000000    2.86999989
   14.76694393  102.13700104    0.44000000    2.84999990
   14.77027798   91.80169678    0.44000000    2.84999990
   14.77333355   93.51000214    0.44000000    2.86999989
   14.77666664   90.09870148    0.44000000    2.86999989
   14.78277779   90.09870148    0.44000000    2.86999989
   14.78694534  102.07800293    0.44000000    2.86999989
   14.79000092   95.72840118    0.44000000    2.84999990
   14.79333401  100.76499939    0.46000001    2.84999990
   14.79666710  110.40399933    0.46000001    2.84999990
   14.79972267  113.32299805    0.46000001    2.84999990
   14.80305576  110.47699738    0.41999999    2.86999989
   14.80638885   92.83380127    0.41999999    2.84999990
   14.80944443  102.71499634    0.41999999    2.84999990
   14.81277752  105.05899811    0.41999999    2.84999990
   14.81583309  111.89600372    0.41999999    2.84999990
   14.81916618  110.51300049    0.40000001    2.84999990
   14.81972218   98.67019653    0.41999999    2.84999990
   14.82583332   98.67019653    0.40000001    2.84999990
   14.82999992  111.00800323    0.40000001    2.84999990
   14.83305550  100.90000153    0.40000001    2.84999990
   14.83638859  116.22100067    0.41999999    2.86999989
   14.83972168   99.78769684    0.41999999    2.86999989
   14.84277725  101.20099640    0.41999999    2.86999989
   14.84611034  117.35299683    0.44000000    2.86999989
   14.84916592  105.37400055    0.41999999    2.86999989
   14.85249996  111.98699951    0.41999999    2.86999989
   14.85305595  101.35600281    0.41999999    2.86999989
   14.85611153  107.74900055    0.41999999    2.86999989
   14.85916710  114.80000305    0.44000000    2.86999989
   14.86250019   95.38050079    0.44000000    2.86999989
   14.86833382   95.38050079    0.44000000    2.84999990
   14.87250042  172.31500244    0.44000000    2.86999989
   14.87583351  113.22100067    0.44000000    2.86999989
   14.87916660   91.04630280    0.44000000    2.86999989
   14.88222218   98.49569702    0.44000000    2.84999990
   14.88555527   97.55290222    0.44000000    2.86999989
   14.88638878   91.88220215    0.44000000    2.86999989
   14.88916683  102.81400299    0.44000000    2.86999989
   14.89222240   96.89219666    0.44000000    2.86999989
   14.89555550   99.33619690    0.46000001    2.86999989
   14.89888859   96.91390228    0.44000000    2.84999990
   14.90194416   89.25009918    0.44000000    2.84999990
   14.90527725  108.79199982    0.44000000    2.84999990
   14.91138840  108.79199982    0.44000000    2.86999989
   14.91527748   99.85829926    0.44000000    2.84999990
   14.91861153   94.01460266    0.44000000    2.84999990
   14.91972256   89.77059937    0.46000001    2.86999989
   14.92222214   97.51629639    0.44000000    2.84999990
   14.92527771  100.67500305    0.44000000    2.84999990
   14.92861176  102.23500061    0.44000000    2.86999989
   14.93194485   98.45459747    0.44000000    2.86999989
   14.93500042  110.41300201    0.41999999    2.86999989
   14.93833351   89.69480133    0.41999999    2.86999989
   14.94138908  105.42700195    0.41999999    2.84999990
   14.94472218  102.00800323    0.44000000    2.86999989
   14.94805527   97.61979675    0.44000000    2.84999990
   14.95416641   97.61979675    0.44000000    2.86999989
   14.95833302  102.70400238    0.41999999    2.86999989
   14.96138859   90.43920135    0.44000000    2.86999989
   14.96472168   92.25749969    0.41999999    2.86999989
   14.96805477   97.86849976    0.41999999    2.86999989
   14.97111034  102.21900177    0.44000000    2.86999989
   14.97444439   96.48049927    0.44000000    2.86999989
   14.97749996   99.17279816    0.44000000    2.86999989
   14.98083305   96.15049744    0.41999999    2.86999989
   14.98416710  106.69000244    0.41999999    2.86999989
   14.98638916  104.19899750    0.41999999    2.86999989
   14.98777771  103.93499756    0.41999999    2.86999989
   14.99083328   96.31839752    0.41999999    2.86999989
   14.99694443   96.31839752    0.41999999    2.86999989
   15.00111103  103.59999847    0.41999999    2.84999990
   15.00444412   98.71549988    0.41999999    2.86999989
   15.00749969  109.21099854    0.41999999    2.86999989
   15.01083374  106.58000183    0.40000001    2.86999989
   15.01416683  109.00700378    0.41999999    2.86999989
   15.01722240  102.88400269    0.40000001    2.86999989
   15.01972198   99.87529755    0.40000001    2.86999989
   15.02083302  103.94200134    0.41999999    2.86999989
   15.02388859  104.99700165    0.40000001    2.86999989
   15.02722168  101.12599945    0.40000001    2.86999989
   15.03055573   99.84120178    0.40000001    2.86999989
   15.03361130   99.70390320    0.40000001    2.86999989
   15.03972244   99.70390320    0.40000001    2.86999989
   15.04388905  121.19599915    0.41999999    2.86999989
   15.04722309  106.33999634    0.41999999    2.86999989
   15.05055618   96.78369904    0.41999999    2.84999990
   15.05305576  100.50299835    0.41999999    2.86999989
   15.05416679  104.80000305    0.41999999    2.84999990
   15.05722237  103.36000061    0.41999999    2.86999989
   15.06055546   97.52719879    0.41999999    2.86999989
   15.06388950   99.88770294    0.41999999    2.86999989
   15.06694412  100.80400085    0.41999999    2.86999989
   15.07027817   98.19249725    0.41999999    2.86999989
   15.17194462   -1.00000000   -1.00000000   -1.00000000
   15.27916622   -1.00000000   -1.00000000   -1.00000000
   15.40388870   -1.00000000   -1.00000000   -1.00000000
   15.46083355  101.83000183    0.46000001    2.86999989
   15.46416664   96.30120087    0.44000000    2.86999989
   15.46749973   99.75240326    0.44000000    2.86999989
   15.47055531  108.96399689    0.44000000    2.86999989
   15.47527695  108.96399689    0.44000000    2.86999989
   15.47944355   97.48419952    0.44000000    2.86999989
   15.48277760   93.42070007    0.44000000    2.86999989
   15.48583317   92.21929932    0.41999999    2.86999989
   15.48833370  102.78199768    0.41999999    2.86999989
   15.48972225   89.80729675    0.41999999    2.86999989
   15.49305534   90.31479645    0.41999999    2.84999990
   15.49611092  101.80500031    0.41999999    2.84999990
   15.49944496   97.52809906    0.41999999    2.86999989
   15.50249958   90.41660309    0.46000001    2.84999990
   15.50583363   94.48690033    0.44000000    2.84999990
   15.50916672  103.43699646    0.41999999    2.86999989
   15.51222229   92.16979980    0.41999999    2.86999989
   15.51805496   92.16979980    0.40000001    2.86999989
   15.52222157  101.54100037    0.40000001    2.86999989
   15.52555561   97.97540283    0.40000001    2.86999989
   15.52888870   92.69619751    0.40000001    2.86999989
   15.53194427   90.96150208    0.40000001    2.86999989
   15.53527832   97.29979706    0.41999999    2.86999989
   15.53833389   93.60009766    0.41999999    2.86999989
   15.54166698   97.95529938    0.41999999    2.86999989
   15.54500008   91.39360046    0.44000000    2.86999989
   15.54805565   99.81210327    0.40000001    2.89000010
   15.55138874   91.88500214    0.38000000    2.86999989
   15.55472279   90.58339691    0.38000000    2.86999989
   15.55500031   93.17009735    0.38000000    2.86999989
   15.56111145   93.17009735    0.38000000    2.89000010
   15.56527805   98.57330322    0.38000000    2.86999989
   15.56833363   96.16049957    0.38000000    2.89000010
   15.57166672   94.12329865    0.36000001    2.86999989
   15.57472229   95.20210266    0.36000001    2.86999989
   15.57805538   93.81970215    0.34000000    2.89000010
   15.58138847   94.91960144    0.34000000    2.89000010
   15.58444405   96.91300201    0.36000001    2.86999989
   15.58777714   92.05509949    0.34000000    2.89000010
   15.58833313   91.66699982    0.34000000    2.89000010
   15.59138870   92.69989777    0.34000000    2.89000010
   15.59472179   96.83550262    0.38000000    2.89000010
   15.59777737   95.63539886    0.38000000    2.89000010
   15.60388947   95.63539886    0.36000001    2.86999989
   15.60805607   96.66190338    0.36000001    2.89000010
   15.61111164  102.27899933    0.36000001    2.89000010
   15.61444473   97.71880341    0.38000000    2.86999989
   15.61777782   89.48789978    0.38000000    2.89000010
   15.62083340   93.46060181    0.38000000    2.86999989
   15.62194443   91.07460022    0.38000000    2.86999989
   15.62444496   95.04759979    0.38000000    2.89000010
   15.62777805   87.74859619    0.38000000    2.89000010
   15.63083363   93.90440369    0.38000000    2.89000010
   15.63416672   92.06060028    0.38000000    2.89000010
   15.63749981   91.64479828    0.38000000    2.89000010
   15.64055538   89.99770355    0.38000000    2.89000010
   15.64666653   89.99770355    0.38000000    2.86999989
   15.65083313   90.24349976    0.40000001    2.86999989
   15.65416622   88.01950073    0.36000001    2.89000010
   15.65527725   88.76499939    0.36000001    2.89000010
   15.65777779   85.27519989    0.38000000    2.89000010
   15.66111088   90.53289795    0.38000000    2.89000010
   15.66416645   88.83309937    0.36000001    2.89000010
   15.66750050   90.84410095    0.36000001    2.86999989
   15.67083359   91.59339905    0.36000001    2.86999989
   15.67388916   95.37409973    0.36000001    2.89000010
   15.67722225   92.28869629    0.41999999    2.89000010
   15.68055630   91.25469971    0.41999999    2.89000010
   15.68361092   90.82029724    0.41999999    2.89000010
   15.68944454   90.82029724    0.41999999    2.89000010
   15.69361115   89.08789825    0.41999999    2.86999989
   15.69694424   90.37310028    0.44000000    2.89000010
   15.70027733   93.75530243    0.44000000    2.89000010
   15.70333290   88.64630127    0.41999999    2.89000010
   15.70666695   89.80410004    0.41999999    2.89000010
   15.71000004   88.70480347    0.41999999    2.89000010
   15.71305561   91.89959717    0.44000000    2.86999989
   15.71638870   86.82900238    0.44000000    2.86999989
   15.71944427   91.55950165    0.44000000    2.89000010
   15.72194386   89.65730286    0.41999999    2.89000010
   15.72305489   88.95539856    0.41999999    2.89000010
   15.72638798   90.05729675    0.41999999    2.89000010
   15.73249912   90.05729675    0.41999999    2.91000009
   15.74527836   97.86150360    0.00000000    0.00000000
   15.74861145   90.69570160    0.44000000    2.91000009
   15.75166702   87.31140137    0.40000001    2.89000010
   15.75500011   99.08550262    0.40000001    2.89000010
   15.75833321   89.71800232    0.36000001    2.89000010
   15.76138878   91.08329773    0.36000001    2.89000010
   15.76249981   92.86699677    0.38000000    2.89000010
   15.76555538   94.82730103    0.38000000    2.89000010
   15.76888847   90.06410217    0.36000001    2.89000010
   15.77527714   90.06410217    0.36000001    2.91000009
   15.77944374   89.47399902    0.34000000    2.89000010
   15.78249931   90.56120300    0.36000001    2.89000010
   15.78583336   91.80000305    0.34000000    2.89000010
   15.78916740   92.18679810    0.36000001    2.89000010
   15.79250050   86.73040009    0.34000000    2.89000010
   15.80333328   87.42279816    0.38000000    2.89000010
   15.80500031   89.02799988    0.38000000    2.86999989
   15.80833340   92.72109985    0.38000000    2.86999989
   15.81138897   99.05919647    0.36000001    2.89000010
   15.81805515   99.05919647    0.36000001    2.91000009
   15.82222176   92.54730225    0.40000001    2.89000010
   15.82555580   92.94680023    0.38000000    2.89000010
   15.82750034   93.67630005    0.40000001    2.89000010
   15.82916641   90.62460327    0.40000001    2.89000010
   15.83249950   93.00070190    0.36000001    2.89000010
   15.83583260   93.78630066    0.36000001    2.89000010
   15.83888817   86.20439911    0.38000000    2.86999989
   15.84222221   86.12830353    0.36000001    2.89000010
   15.84527779   92.62429810    0.34000000    2.89000010
   15.84861088   91.56449890    0.34000000    2.89000010
   15.85194492   93.22440338    0.34000000    2.89000010
   15.85500050   91.39440155    0.34000000    2.89000010
   15.86083412   91.39440155    0.34000000    2.91000009
   15.86500072   89.05840302    0.34000000    2.89000010
   15.86833382   90.81939697    0.34000000    2.89000010
   15.88083363   91.81520081    0.00000000    0.00000000
   15.88416672   89.88050079    0.36000001    2.89000010
   15.88722229   91.06250000    0.34000000    2.89000010
   15.89055538   87.88289642    0.34000000    2.89000010
   15.89388847   90.27200317    0.34000000    2.89000010
   15.89638901   89.75180054    0.34000000    2.89000010
   15.89750004   91.06430054    0.34000000    2.89000010
   15.90999985   89.21649933    0.00000000    0.00000000
   15.91388893   89.21649933    0.41999999    2.89000010
   15.91805553   90.88580322    0.40000001    2.89000010
   15.92138958   85.05979919    0.40000001    2.89000010
   15.92472267   86.29989624    0.40000001    2.91000009
   15.92777824   88.44879913    0.44000000    2.91000009
   15.93000031   91.51640320    0.40000001    2.89000010
   15.93166733   89.60289764    0.38000000    2.89000010
   15.93472195   89.20099640    0.36000001    2.89000010
   15.94638920   89.64769745    0.00000000    0.00000000
   15.94972229   92.89589691    0.36000001    2.89000010
   15.95277786   87.60900116    0.36000001    2.91000009
   15.95694447   87.60900116    0.40000001    2.89000010
   15.96111107   92.56970215    0.40000001    2.89000010
   15.96333313   94.09510040    0.40000001    2.89000010
   15.96500015   90.62300110    0.40000001    2.86999989
   15.96805477   93.54370117    0.38000000    2.89000010
   15.97138882   94.00939941    0.38000000    2.89000010
   15.97472191   91.69799805    0.36000001    2.86999989
   15.97777748   96.00520325    0.38000000    2.89000010
   15.98972225   90.97380066    0.00000000    0.00000000
   15.99305534   92.74890137    0.38000000    2.84999990
   15.99972248   92.74890137    0.40000001    2.89000010
   16.00388908   92.11350250    0.40000001    2.86999989
   16.00722313   90.15550232    0.40000001    2.86999989
   16.01055527   95.50489807    0.40000001    2.86999989
   16.01361084   88.08360291    0.40000001    2.86999989
   16.02527809   92.70549774    0.00000000    0.00000000
   16.02972221   91.71179962    0.40000001    2.86999989
   16.03083229   91.48809814    0.40000001    2.86999989
   16.03333282   90.61229706    0.40000001    2.86999989
   16.03666687   95.32080078    0.40000001    2.89000010
   16.05194283   95.32080078    0.40000001    2.89000010
   16.05611038   89.51399994    0.40000001    2.89000010
   16.05944443   93.22750092    0.40000001    2.89000010
   16.06277657  100.00099945    0.40000001    2.89000010
   16.06611061   88.84059906    0.40000001    2.91000009
   16.06777954   86.64219666    0.40000001    2.89000010
   16.06972313   83.24369812    0.40000001    2.89000010
   16.07305717   86.30560303    0.40000001    2.89000010
   16.08527756   82.87490082    0.00000000    0.00000000
   16.08944511   82.87490082    0.40000001    2.86999989
   16.09361267   81.53919983    0.44000000    2.89000010
   16.09694481   92.03630066    0.41999999    2.86999989
   16.10000038   82.15360260    0.41999999    2.89000010
   16.10194397   90.81230164    0.41999999    2.89000010
   16.10416794   85.21990204    0.41999999    2.89000010
   16.10750008   82.20159912    0.41999999    2.89000010
   16.11083412   85.18450165    0.41999999    2.89000010
   16.12111092   83.54709625    0.00000000    0.00000000
   16.12444496   86.31739807    0.44000000    2.89000010
   16.12750053   82.90229797    0.44000000    2.89000010
   16.13222313   82.90229797    0.46000001    2.91000009
   16.13694382   85.35189819    0.50000000    2.89000010
   16.13750076   87.98339844    0.51999998    2.89000010
   16.14055634   84.61579895    0.50000000    2.89000010
   16.14361191   84.86190033    0.50000000    2.89000010
   16.14694405   86.88099670    0.51999998    2.89000010
   16.14999962   84.48179626    0.50000000    2.89000010
   16.15333366   89.89620209    0.50000000    2.89000010
   16.15666580   86.22380066    0.51999998    2.89000010
   16.15972137   88.54010010    0.50000000    2.89000010
   16.16305542   81.60030365    0.50000000    2.89000010
   16.16638756   84.66049957    0.51999998    2.91000009
   16.16944313   85.84799957    0.50000000    2.89000010
   16.17083359   92.00879669    0.50000000    2.89000010
   16.17499924   92.00879669    0.51999998    2.89000010
   16.17916679   89.16259766    0.51999998    2.86999989
   16.18249893   84.72640228    0.55000001    2.89000010
   16.18583298   89.71589661    0.56999999    2.89000010
   16.18888855   91.36530304    0.55000001    2.89000010
   16.19222069   93.23390198    0.51999998    2.89000010
   16.19555473   88.14309692    0.51999998    2.89000010
   16.19861031   83.94360352    0.55000001    2.89000010
   16.20194435   82.48970032    0.55000001    2.89000010
   16.21305656   84.98750305    0.51999998    2.89000010
   16.21444511   87.24849701    0.51999998    2.89000010
   16.21777916   83.03350067    0.51999998    2.89000010
   16.22249985   83.03350067    0.51999998    2.89000010
   16.22722244   84.18879700    0.51999998    2.89000010
   16.23055649   85.70230103    0.50000000    2.89000010
   16.23361206   96.51830292    0.47999999    2.89000010
   16.23722267   91.26770020    0.46000001    2.89000010
   16.23750114   93.79309845    0.46000001    2.89000010
   16.24055672   88.76000214    0.46000001    2.89000010
   16.24388885   88.27459717    0.46000001    2.89000010
   16.24694443  115.92500305    0.46000001    2.86999989
   16.25027847   88.76820374    0.44000000    2.89000010
   16.25361061   82.66850281    0.46000001    2.89000010
   16.25666618   87.68180084    0.46000001    2.89000010
   16.26861000   80.61289978    0.00000000    0.00000000
   16.27277756   80.61289978    0.44000000    2.89000010
   16.27694511   89.24739838    0.44000000    2.91000009
   16.28000069   86.83679962    0.44000000    2.86999989
   16.28333282   89.71320343    0.41999999    2.89000010
   16.28666687   85.17530060    0.44000000    2.89000010
   16.28972244   82.79389954    0.44000000    2.89000010
   16.29305458   94.68009949    0.44000000    2.89000010
   16.30527687   87.62039948    0.00000000    0.00000000
   16.30583191   85.45829773    0.56999999    2.86999989
   16.30888748   85.01840210    0.50000000    2.86999989
   16.31555557   85.01840210    0.47999999    2.86999989
   16.31972313   87.46510315    0.47999999    2.86999989
   16.32305717   89.40090179    0.47999999    2.86999989
   16.32611275   90.80249786    0.47999999    2.89000010
   16.32944489   89.43720245    0.50000000    2.86999989
   16.33277893   91.40329742    0.50000000    2.86999989
   16.33583450   88.20469666    0.50000000    2.86999989
   16.33916664   86.23390198    0.47999999    2.86999989
   16.33972359   84.09310150    0.47999999    2.86999989
   16.34277916   89.81220245    0.47999999    2.86999989
   16.34611130   92.20880127    0.46000001    2.86999989
   16.34916687   86.35430145    0.46000001    2.89000010
   16.35250092   86.24310303    0.46000001    2.89000010
   16.35833359   86.24310303    0.46000001    2.86999989
   16.36277771   88.30319977    0.46000001    2.86999989
   16.36583328   88.38600159    0.46000001    2.86999989
   16.36916733   87.31310272    0.44000000    2.86999989
   16.37249947   89.42400360    0.44000000    2.89000010
   16.37277794   87.13009644    0.44000000    2.89000010
   16.38527679   85.58879852    0.00000000    0.00000000
   16.38861084   85.71600342    0.46000001    2.86999989
   16.39166641   86.22959900    0.44000000    2.89000010
   16.39500046   84.83039856    0.46000001    2.89000010
   16.40138817   84.83039856    0.46000001    2.86999989
   16.40555573   89.09329987    0.46000001    2.86999989
   16.40638924   88.87519836    0.46000001    2.86999989
   16.40916634   88.02839661    0.46000001    2.86999989
   16.41388893   90.11779785    0.47999999    2.86999989
   16.41722107   86.70069885    0.47999999    2.86999989
   16.42055511   92.05680084    0.47999999    2.89000010
   16.42361069   86.63790131    0.46000001    2.89000010
   16.42694473   87.00319672    0.46000001    2.86999989
   16.43027687   84.22319794    0.46000001    2.86999989
   16.43333244   84.96959686    0.46000001    2.89000010
   16.43666649   82.94360352    0.46000001    2.89000010
   16.43944359   88.48059845    0.46000001    2.86999989
   16.44027710   87.30930328    0.46000001    2.86999989
   16.44444275   87.30930328    0.46000001    2.86999989
   16.44861031   91.77469635    0.46000001    2.89000010
   16.45194435   89.87439728    0.46000001    2.89000010
   16.45499992   85.48519897    0.46000001    2.89000010
   16.45888901   87.97699738    0.46000001    2.89000010
   16.46222305   87.82740021    0.46000001    2.89000010
   16.46527863   91.80979919    0.46000001    2.86999989
   16.47027779   91.89649963    0.47999999    2.89000010
   16.47305679   91.49890137    0.47999999    2.86999989
   16.47389030   88.11949921    0.47999999    2.86999989
   16.49583435   88.11949921    0.47999999    2.89000010
   16.50000000   86.56269836    0.47999999    2.86999989
   16.50305557   83.02490234    0.47999999    2.86999989
   16.50638962   82.83119965    0.47999999    2.89000010
   16.50694466   82.43659973    0.50000000    2.89000010
   16.51000023   85.87010193    0.50000000    2.86999989
   16.51333427   85.26580048    0.50000000    2.89000010
   16.51666641   84.76940155    0.47999999    2.89000010
   16.51972198   82.75409698    0.47999999    2.89000010
   16.52305603   85.13289642    0.47999999    2.89000010
   16.52666664   89.52249908    0.47999999    2.89000010
   16.53000069   87.33740234    0.46000001    2.89000010
   16.53305435   90.85050201    0.46000001    2.89000010
   16.54388809   90.85050201    0.44000000    2.89000010
   16.54805565   89.04190063    0.44000000    2.89000010
   16.55138779   87.39469910    0.46000001    2.89000010
   16.55472183   87.33640289    0.47999999    2.89000010
   16.55777740   91.85910034    0.47999999    2.86999989
   16.56110954   88.28959656    0.50000000    2.89000010
   16.56444359   89.89140320    0.61000001    2.86999989
   16.56750107   87.89029694    0.56999999    2.86999989
   16.57083511   84.62539673    0.52999997    2.89000010
   16.57416725   84.07260132    0.50000000    2.86999989
   16.57722282   87.23899841    0.50000000    2.86999989
   16.58166695   87.23899841    0.50000000    2.89000010
   16.58583450   90.05789948    0.47999999    2.86999989
   16.58889008   86.09490204    0.47999999    2.86999989
   16.60083389   87.33309937    0.00000000    0.00000000
   16.60416794   87.89289856    0.46000001    2.89000010
   16.60750008   88.95480347    0.46000001    2.86999989
   16.61055565   85.74040222    0.56999999    2.89000010
   16.61388969   90.05349731    0.58999997    2.89000010
   16.61666679   85.91179657    0.58999997    2.89000010
   16.61777878   87.75679779    0.58999997    2.89000010
   16.62083435   87.95349884    0.55000001    2.86999989
   16.62416649   82.13210297    0.51999998    2.89000010
   16.63222313   82.13210297    0.50000000    2.86999989
   16.63638878   88.06580353    0.50000000    2.86999989
   16.64055634   87.42189789    0.55000001    2.89000010
   16.64388847   90.05780029    0.55000001    2.89000010
   16.64722252   85.65619659    0.50000000    2.89000010
   16.65888786   83.36740112    0.47999999    2.86999989
   16.65999985   91.36730194    0.47999999    2.86999989
   16.67305565   88.65390015    0.00000000    0.00000000
   16.67722130   88.65390015    0.46000001    2.89000010
   16.68138885   87.57019806    0.47999999    2.89000010
   16.68444443   93.10160065    0.46000001    2.89000010
   16.68777657   88.07730103    0.46000001    2.89000010
   16.68861008   87.54750061    0.47999999    2.89000010
   16.69138718   85.25029755    0.51999998    2.89000010
   16.69472122   91.03340149    0.51999998    2.89000010
   16.69805527   89.81169891    0.51999998    2.89000010
   16.70111275   87.89649963    0.51999998    2.89000010
   16.70444489   88.65290070    0.52999997    2.89000010
   16.70750046   87.18440247    0.46000001    2.89000010
   16.71083450   88.29029846    0.46000001    2.89000010
   16.71416664   88.11419678    0.46000001    2.89000010
   16.72000122   88.11419678    0.46000001    2.89000010
   16.72416687   88.91719818    0.46000001    2.89000010
   16.72750092   85.72789764    0.46000001    2.89000010
   16.73055649   92.54260254    0.46000001    2.89000010
   16.73388863   85.79630280    0.47999999    2.86999989
   16.73722267   87.66400146    0.47999999    2.89000010
   16.74027824   90.23259735    0.47999999    2.86999989
   16.74361229   88.24150085    0.47999999    2.86999989
   16.74694443   88.53610229    0.50000000    2.86999989
   16.75000000   88.31890106    0.47999999    2.86999989
   16.75361061   86.73529816    0.50000000    2.89000010
   16.76388931   89.54309845    0.47999999    2.86999989
   16.76805496   89.54309845    0.47999999    2.89000010
   16.77222252   95.24369812    0.47999999    2.86999989
   16.77555466   90.16069794    0.47999999    2.89000010
   16.77888870   86.06310272    0.47999999    2.86999989
   16.78222275   86.39710236    0.47999999    2.89000010
   16.78555489   85.72100067    0.46000001    2.89000010
   16.78861046   96.65059662    0.47999999    2.86999989
   16.78916550   90.42289734    0.47999999    2.86999989
   16.79249954   92.35510254    0.47999999    2.89000010
   16.79555511   83.73059845    0.47999999    2.89000010
   16.79916573   89.62470245    0.47999999    2.89000010
   16.80249977   84.60119629    0.47999999    2.86999989
   16.80555534   91.45680237    0.47999999    2.89000010
   16.81194305   91.45680237    0.47999999    2.89000010
   16.81611061   83.60510254    0.50000000    2.86999989
   16.81916809   87.59770203    0.50000000    2.89000010
   16.82333374   85.07050323    0.50000000    2.89000010
   16.82416725   89.67120361    0.50000000    2.89000010
   16.82722282   86.16539764    0.50000000    2.89000010
   16.83055687   87.62940216    0.51999998    2.89000010
   16.83444595   89.13249969    0.55000001    2.89000010
   16.83777809   85.72689819    0.55000001    2.89000010
   16.84083366   86.95110321    0.56999999    2.86999989
   16.84444427   88.27739716    0.58999997    2.86999989
   16.84749985   92.30120087    0.58999997    2.86999989
   16.85416794   92.30120087    0.58999997    2.86999989
   16.85805511   98.46399689    0.58999997    2.86999989
   16.86138916  100.44200134    0.58999997    2.86999989
   16.86472321   90.92530060    0.63000000    2.86999989
   16.86805534   98.13770294    0.63000000    2.86999989
   16.87111092   95.44370270    0.63000000    2.86999989
   16.87444496  101.87899780    0.61000001    2.86999989
   16.87750053   99.07499695    0.61000001    2.86999989
   16.88083267  103.55699921    0.63000000    2.86999989
   16.88416672   97.62180328    0.63000000    2.86999989
   16.88750076  101.29499817    0.63000000    2.86999989
   16.88916588   97.69370270    0.63000000    2.86999989
   16.89111137  101.95200348    0.58999997    2.86999989
   16.89694405  101.95200348    0.56999999    2.89000010
   16.90111160  114.18299866    0.56999999    2.89000010
   16.90444374  104.90899658    0.56999999    2.86999989
   16.90749931  105.50599670    0.55000001    2.89000010
   16.91083336  105.09999847    0.55000001    2.89000010
   16.91416550  104.73699951    0.55000001    2.86999989
   16.91722107  118.36299896    0.55000001    2.86999989
   16.92972183  104.75099945    0.00000000    0.00000000
   16.93999863  108.85199738    0.00000000    0.00000000
   16.94277763  114.25299835    0.52999997    2.89000010
   16.94916534  114.25299835    0.51999998    2.89000010
   16.95333481  104.38999939    0.52999997    2.89000010
   16.95666695  102.21900177    0.52999997    2.89000010
   16.96000099  101.91999817    0.51999998    2.89000010
   16.96305656   99.83670044    0.51999998    2.89000010
   16.96361160   99.71250153    0.51999998    2.89000010
   16.96666718   99.75939941    0.51999998    2.89000010
   16.97000122  100.43699646    0.51999998    2.89000010
   16.97305679   99.01229858    0.50000000    2.89000010
   16.97638893   98.07129669    0.50000000    2.89000010
   16.97944450   95.24030304    0.50000000    2.89000010
   16.98277855   96.96679688    0.50000000    2.89000010
   16.98611069   97.58560181    0.51999998    2.89000010
   16.99388885   97.58560181    0.50000000    2.89000010
   16.99805641   96.50039673    0.50000000    2.89000010
   17.00499916   92.23169708    0.51999998    2.89000010
   17.00805473   97.67420197    0.51999998    2.89000010
   17.01194382   97.82510376    0.51999998    2.91000009
   17.01499939   92.34420013    0.50000000    2.89000010
   17.01833344   93.62180328    0.50000000    2.89000010
   17.02166557   95.93199921    0.50000000    2.89000010
   17.02472115   92.13559723    0.50000000    2.91000009
   17.02805519   95.57360077    0.50000000    2.89000010
   17.03027725   98.03250122    0.50000000    2.89000010
   17.03499985   98.03250122    0.50000000    2.89000010
   17.03916550   94.47149658    0.47999999    2.89000010
   17.04222107   93.58419800    0.47999999    2.89000010
   17.04555511   92.28029633    0.47999999    2.89000010
   17.04888916   92.45179749    0.47999999    2.89000010
   17.05194283   91.73400116    0.47999999    2.89000010
   17.05527687   87.25520325    0.47999999    2.89000010
   17.05833244   88.28320313    0.47999999    2.89000010
   17.06166649   87.48169708    0.46000001    2.91000009
   17.06361008   87.86060333    0.46000001    2.89000010
   17.06527710   87.91600037    0.46000001    2.89000010
   17.06861115   91.80329895    0.46000001    2.89000010
   17.07166672   89.78749847    0.46000001    2.89000010
   17.07777786   89.78749847    0.46000001    2.89000010
   17.08194542   94.64700317    0.46000001    2.89000010
   17.08527756   94.47370148    0.46000001    2.89000010
   17.08833313   90.97290039    0.47999999    2.89000010
   17.10083389   94.79669952    0.00000000    0.00000000
   17.10138893   98.81890106    0.47999999    2.89000010
   17.10444450   97.16329956    0.47999999    2.91000009
   17.10750008   95.57900238    0.50000000    2.89000010
   17.11083412   97.58270264    0.50000000    2.89000010
   17.11388969   90.80500031    0.50000000    2.89000010
   17.11722183   85.15779877    0.50000000    2.89000010
   17.12055588   89.87190247    0.50000000    2.89000010
   17.12361145   90.74019623    0.52999997    2.89000010
   17.13777733   90.74019623    0.56999999    2.89000010
   17.14194489   92.12259674    0.52999997    2.89000010
   17.14500046   94.39839935    0.51999998    2.86999989
   17.14833260   90.66500092    0.51999998    2.86999989
   17.15166664   91.16729736    0.47999999    2.89000010
   17.15472221   92.32689667    0.47999999    2.89000010
   17.15805435   96.13680267    0.47999999    2.89000010
   17.16166687   85.93019867    0.47999999    2.89000010
   17.16499901   88.80079651    0.47999999    2.89000010
   17.17138863   88.80079651    0.47999999    2.91000009
   17.17722130   95.50900269    0.47999999    2.89000010
   17.18055534   89.05999756    0.47999999    2.89000010
   17.18416595   92.12940216    0.51999998    2.89000010
   17.18750000   90.14369965    0.52999997    2.89000010
   17.19055557   89.95639801    0.52999997    2.89000010
   17.19388771   95.00839996    0.52999997    2.89000010
   17.19722176   94.71230316    0.52999997    2.89000010
   17.20027924   95.97229767    0.52999997    2.89000010
   17.20361137   97.96690369    0.55000001    2.89000010
   17.20666695   95.35189819    0.52999997    2.89000010
   17.20777893   97.66840363    0.51999998    2.89000010
   17.21416664   97.66840363    0.52999997    2.86999989
   17.21833420   94.79470062    0.51999998    2.89000010
   17.22138977   91.22750092    0.51999998    2.89000010
   17.22472191   96.04570007    0.52999997    2.86999989
   17.22805595   94.62799835    0.51999998    2.89000010
   17.23111153   94.30570221    0.51999998    2.89000010
   17.23444557   95.91639709    0.51999998    2.89000010
   17.23777771   90.74780273    0.52999997    2.89000010
   17.23972321   94.01039886    0.52999997    2.89000010
   17.24111176   96.82460022    0.52999997    2.89000010
   17.24444389   95.89299774    0.52999997    2.91000009
   17.24777794   94.43060303    0.50000000    2.91000009
   17.25083351   98.38960266    0.51999998    2.89000010
   17.25694466   98.38960266    0.51999998    2.89000010
   17.27000046   93.52010345    0.52999997    2.89000010
   17.27333260   96.56120300    0.52999997    2.89000010
   17.27361107   97.92960358    0.51999998    2.89000010
   17.27694511   92.49970245    0.51999998    2.89000010
   17.28000069   91.37830353    0.51999998    2.89000010
   17.29194450   85.41519928    0.00000000    0.00000000
   17.29527664   99.95469666    0.51999998    2.89000010
   17.30166626   99.95469666    0.51999998    2.89000010
   17.30555534   88.30609894    0.52999997    2.89000010
   17.30777740   91.66909790    0.52999997    2.89000010
   17.30972099   90.76460266    0.52999997    2.89000010
   17.31305504   91.52929688    0.52999997    2.89000010
   17.31611061   94.90299988    0.52999997    2.86999989
   17.32861137   94.61239624    0.00000000    0.00000000
   17.33194542   93.95469666    0.55000001    2.89000010
   17.33500099   97.45279694    0.55000001    2.86999989
   17.33833313   90.93000031    0.55000001    2.86999989
   17.35305595   90.93000031    0.55000001    2.89000010
   17.35722351   98.55169678    0.64999998    2.89000010
   17.36055565   95.84580231    0.63000000    2.86999989
   17.36361122   98.82450104    0.61000001    2.89000010
   17.36694527  100.49800110    0.63000000    2.89000010
   17.37111092   97.37930298    0.61000001    2.89000010
   17.37444496   98.35579681    0.61000001    2.89000010
   17.37777710   92.48179626    0.61000001    2.89000010
   17.38083267   90.38020325    0.58999997    2.89000010
   17.38694382   90.38020325    0.56999999    2.89000010
   17.39111137   93.37030029    0.58999997    2.89000010
   17.39444351   86.19789886    0.61000001    2.91000009
   17.39749908   95.41190338    0.61000001    2.89000010
   17.40083313   94.08489990    0.61000001    2.91000009
   17.40416718   94.47599792    0.63000000    2.89000010
   17.40722275   95.28540039    0.63000000    2.89000010
   17.41055489   96.14070129    0.63000000    2.89000010
   17.41388893  100.70099640    0.63000000    2.89000010
   17.41694450  100.03700256    0.61000001    2.89000010
   17.42027664  101.23400116    0.56999999    2.89000010
   17.42222214   98.06159973    0.55000001    2.89000010
   17.42388916   98.07859802    0.56999999    2.89000010
   17.43000031   98.07859802    0.56999999    2.89000010
   17.43388748   98.18150330    0.55000001    2.89000010
   17.44638824   95.79830170    0.00000000    0.00000000
   17.44972038   91.76730347    0.61000001    2.89000010
   17.45305634   97.69539642    0.58999997    2.89000010
   17.45611191   93.07949829    0.58999997    2.89000010
   17.45944595   94.11699677    0.61000001    2.89000010
   17.46222305   91.02999878    0.61000001    2.89000010
   17.46333504   98.88050079    0.61000001    2.89000010
   17.46666718   96.96669769    0.61000001    2.89000010
   17.46972275   97.44239807    0.61000001    2.89000010
   17.48333359   97.44239807    0.63000000    2.89000010
   17.48722267   90.77600098    0.63000000    2.89000010
   17.49055672   89.17379761    0.63000000    2.89000010
   17.49388885   87.52529907    0.63000000    2.89000010
   17.49694443   89.63150024    0.63000000    2.89000010
   17.49888992   88.64520264    0.64999998    2.86999989
   17.50083351   95.18959808    0.64999998    2.86999989
   17.50388908   91.94840240    0.63000000    2.89000010
   17.50722313   92.90959930    0.63000000    2.89000010
   17.51055527   89.39679718    0.63000000    2.89000010
   17.51694489   89.39679718    0.64999998    2.89000010
   17.53555489   97.15540314    0.67000002    2.89000010
   17.53888893   91.14070129    0.64999998    2.89000010
   17.54194450   94.86990356    0.64999998    2.89000010
   17.54527664   89.90480042    0.64999998    2.89000010
   17.54861069   90.25160217    0.64999998    2.89000010
   17.55166626   92.82039642    0.64999998    2.89000010
   17.55499840   91.92659760    0.64999998    2.89000010
   17.55972099   91.92659760    0.63000000    2.89000010
   17.56388855   93.95850372    0.61000001    2.89000010
   17.56722260   89.48449707    0.58999997    2.89000010
   17.56861115   91.39849854    0.58999997    2.89000010
   17.57083511   94.47489929    0.58999997    2.89000010
   17.57416725   89.16359711    0.58999997    2.89000010
   17.57722282   90.69570160    0.58999997    2.89000010
   17.58055687   99.69999695    0.58999997    2.91000009
   17.58388901   91.31950378    0.61000001    2.89000010
   17.58694458   93.15589905    0.61000001    2.89000010
   17.59027863   93.55139923    0.61000001    2.89000010
   17.59333420   85.63680267    0.61000001    2.89000010
   17.59666824   90.79370117    0.61000001    2.89000010
   17.60250092   90.79370117    0.61000001    2.91000009
   17.60888863   85.96530151    0.61000001    2.89000010
   17.61222267   90.59539795    0.61000001    2.89000010
   17.61527824   90.55460358    0.63000000    2.91000009
   17.61861038   91.33850098    0.63000000    2.91000009
   17.62166595   91.85150146    0.63000000    2.91000009
   17.62500000   91.76239777    0.63000000    2.91000009
   17.63166618   89.73149872    0.61000001    2.89000010
   17.63500023   94.31900024    0.61000001    2.89000010
   17.63527679   93.12850189    0.61000001    2.89000010
   17.63861084   91.10440063    0.58999997    2.91000009
   17.64166641   87.21199799    0.56999999    2.89000010
   17.64583397   87.21199799    0.56999999    2.89000010
   17.65027809  101.62799835    0.58999997    2.89000010
   17.65333366   93.94969940    0.58999997    2.89000010
   17.65666580   86.25640106    0.56999999    2.89000010
   17.65999985   91.59259796    0.56999999    2.89000010
   17.66333389   91.04900360    0.56999999    2.89000010
   17.66666603   83.91059875    0.56999999    2.89000010
   17.66860962   89.90350342    0.56999999    2.89000010
   17.67027664   87.59300232    0.56999999    2.91000009
   17.67361069   89.61849976    0.56999999    2.91000009
   17.67666626   86.94480133    0.56999999    2.89000010
   17.68000031   90.72419739    0.56999999    2.89000010
   17.68361092   88.75630188    0.56999999    2.91000009
   17.68861008   88.75630188    0.56999999    2.89000010
   17.69277763   85.55000305    0.56999999    2.91000009
   17.69610977   90.02729797    0.56999999    2.89000010
   17.69916534   90.01000214    0.55000001    2.89000010
   17.70194435   88.40789795    0.56999999    2.89000010
   17.70277786   95.77799988    0.56999999    2.89000010
   17.70611191   88.78440094    0.56999999    2.91000009
   17.70916748   92.96810150    0.56999999    2.89000010
   17.71250153   92.32219696    0.56999999    2.89000010
   17.71583366   91.10009766    0.56999999    2.89000010
   17.71888924   90.36129761    0.56999999    2.89000010
   17.72222328   92.88369751    0.56999999    2.91000009
   17.72555542   87.24410248    0.56999999    2.91000009
   17.73166656   87.24410248    0.56999999    2.89000010
   17.73555565   91.72930145    0.56999999    2.89000010
   17.73888969   93.07910156    0.56999999    2.89000010
   17.74222183   88.96459961    0.56999999    2.89000010
   17.74527740   89.54010010    0.56999999    2.89000010
   17.74861145   92.92720032    0.56999999    2.89000010
   17.75194359   93.86560059    0.56999999    2.89000010
   17.75499916   90.14379883    0.56999999    2.89000010
   17.75833321   89.97180176    0.56999999    2.89000010
   17.76138878   90.50900269    0.58999997    2.89000010
   17.76472282   93.67559814    0.58999997    2.89000010
   17.76805496   96.21679688    0.58999997    2.89000010
   17.76888847   94.46839905    0.61000001    2.89000010
   17.78305435   94.46839905    0.67000002    2.86999989
   17.78722191   94.12220001    0.67000002    2.86999989
   17.79055595   92.98470306    0.67000002    2.86999989
   17.79388809   90.87259674    0.67000002    2.86999989
   17.79694366   92.05560303    0.67000002    2.86999989
   17.80027771   92.83850098    0.67000002    2.84999990
   17.80222130   89.25499725    0.67000002    2.84999990
   17.80388832   92.97450256    0.67000002    2.84999990
   17.80861092   92.08599854    0.67000002    2.86999989
   17.81194305   87.35449982    0.67000002    2.86999989
   17.81833458   87.35449982    0.64999998    2.86999989
   17.82250023   91.34950256    0.64999998    2.86999989
   17.82583427   88.44360352    0.67000002    2.86999989
   17.82888985   90.91970062    0.64999998    2.86999989
   17.83222389   91.29389954    0.64999998    2.89000010
   17.83555603   92.17459869    0.64999998    2.89000010
   17.83583450   94.94809723    0.63000000    2.86999989
   17.83916664   96.97910309    0.63000000    2.86999989
   17.84222221   97.40419769    0.61000001    2.89000010
   17.84555626   98.69570160    0.61000001    2.89000010
   17.84889030   96.24220276    0.61000001    2.86999989
   17.85194397   93.39109802    0.61000001    2.89000010
   17.85527802   97.21130371    0.61000001    2.89000010
   17.86083412   97.21130371    0.61000001    2.89000010
   17.86499977   92.85800171    0.58999997    2.89000010
   17.86833382   91.27860260    0.61000001    2.89000010
   17.86888885   92.53079987    0.61000001    2.89000010
   17.87166595   92.55840302    0.61000001    2.89000010
   17.87500000   91.86090088    0.58999997    2.89000010
   17.87805557   92.20529938    0.58999997    2.86999989
   17.88138962   95.65609741    0.61000001    2.86999989
   17.88472176   88.50569916    0.61000001    2.89000010
   17.88777733   90.07689667    0.58999997    2.89000010
   17.89111137   89.97550201    0.58999997    2.89000010
   17.89444351   92.51750183    0.58999997    2.89000010
   17.89749908   93.91670227    0.58999997    2.89000010
   17.90361023   93.91670227    0.58999997    2.89000010
   17.90777779   92.97190094    0.58999997    2.89000010
   17.91110992   90.44799805    0.58999997    2.89000010
   17.91444397   90.97910309    0.58999997    2.89000010
   17.91749954   91.10880280    0.58999997    2.89000010
   17.92083359   95.40879822    0.58999997    2.89000010
   17.92388916   93.79029846    0.58999997    2.89000010
   17.92722130   98.27519989    0.58999997    2.89000010
   17.93055534   94.13339996    0.58999997    2.89000010
   17.93361092   93.99990082    0.58999997    2.89000010
   17.93555450   89.11150360    0.58999997    2.89000010
   17.93722153   93.95659637    0.58999997    2.89000010
   17.94972038   92.22170258    0.56999999    2.89000010
   17.95388985   92.22170258    0.58999997    2.89000010
   17.95805550   94.27330017    0.56999999    2.89000010
   17.96138954   91.30829620    0.56999999    2.89000010
   17.96444511   97.23269653    0.56999999    2.89000010
   17.96777916   93.11930084    0.58999997    2.91000009
   17.96888924   95.77919769    0.58999997    2.91000009
   17.97138977   93.41889954    0.56999999    2.89000010
   17.97472191   90.85579681    0.56999999    2.89000010
   17.97805595   92.61920166    0.61000001    2.89000010
   17.98111153   93.83489990    0.61000001    2.89000010
   17.98500061   95.18640137    0.61000001    2.89000010
   17.98833275   85.90930176    0.61000001    2.91000009
   17.99138832   91.43360138    0.61000001    2.89000010
   17.99777794   91.43360138    0.58999997    2.89000010
   18.00194359   89.66230011    0.58999997    2.89000010
   18.00250053   90.85880280    0.58999997    2.89000010
   18.00555611   90.40319824    0.58999997    2.89000010
   18.00888824   91.72440338    0.58999997    2.91000009
   18.01222229   93.62480164    0.58999997    2.89000010
   18.01527786   92.34200287    0.58999997    2.89000010
   18.01861000   91.93530273    0.58999997    2.89000010
   18.02166557   94.81269836    0.58999997    2.89000010
   18.02499962   91.28399658    0.61000001    2.86999989
   18.02833366   95.13420105    0.61000001    2.86999989
   18.03138924   88.48490143    0.58999997    2.89000010
   18.03472137   90.92910004    0.58999997    2.89000010
   18.03583336   91.47619629    0.58999997    2.89000010
   18.03999901   91.47619629    0.58999997    2.89000010
   18.04388809   93.32810211    0.58999997    2.89000010
   18.04722214   91.70680237    0.58999997    2.89000010
   18.05055428   88.35600281    0.61000001    2.89000010
   18.05360985   93.12840271    0.63000000    2.89000010
   18.05694389   91.25640106    0.61000001    2.89000010
   18.06027794   88.32559967    0.61000001    2.86999989
   18.06333351   93.73789978    0.61000001    2.89000010
   18.06666756   95.82399750    0.61000001    2.89000010
   18.06916809   93.03170013    0.61000001    2.89000010
   18.07027817   85.20359802    0.61000001    2.89000010
   18.07361221   96.05049896    0.61000001    2.89000010
   18.07694626   92.70719910    0.61000001    2.89000010
   18.08277893   92.70719910    0.61000001    2.89000010
   18.08694458   97.05079651    0.61000001    2.89000010
   18.09027863   90.98040009    0.61000001    2.89000010
   18.09333420   94.48439789    0.61000001    2.91000009
   18.09666824   93.09279633    0.61000001    2.89000010
   18.10000038   92.26850128    0.63000000    2.91000009
   18.10250092  100.59400177    0.61000001    2.89000010
   18.10333443   96.77529907    0.61000001    2.89000010
   18.10666656   90.84459686    0.61000001    2.89000010
   18.11000061   96.98850250    0.61000001    2.89000010
   18.12194443   85.96160126    0.00000000    0.00000000
   18.12527847   91.44689941    0.61000001    2.89000010
   18.13138962   91.44689941    0.63000000    2.86999989
   18.13555527   87.65959930    0.61000001    2.89000010
   18.13750076   94.46289825    0.61000001    2.89000010
   18.13916588   91.20780182    0.61000001    2.89000010
   18.14249992   91.74030304    0.61000001    2.89000010
   18.14555550   96.51080322    0.61000001    2.89000010
   18.14888954   90.49009705    0.61000001    2.89000010
   18.15222168   82.56269836    0.61000001    2.86999989
   18.15527725   95.52339935    0.61000001    2.89000010
   18.15861130   96.35520172    0.61000001    2.89000010
   18.16194344   89.07800293    0.61000001    2.89000010
   18.16499901   87.04789734    0.61000001    2.89000010
   18.16833305   87.50900269    0.67000002    2.89000010
   18.18305397   87.50900269    0.79000002    2.89000010
   18.18722153   94.61609650    0.64999998    2.91000009
   18.19055557   96.12590027    0.63000000    2.89000010
   18.19388771   89.19290161    0.61000001    2.89000010
   18.19722176   88.20400238    0.63000000    2.89000010
   18.20027924   87.85649872    0.64999998    2.89000010
   18.20361137   96.00939941    0.63000000    2.91000009
   18.20499992   94.60330200    0.63000000    2.91000009
   18.20722389   86.20700073    0.63000000    2.91000009
   18.21055603   87.11350250    0.67000002    2.89000010
   18.21694565   87.11350250    0.69000000    2.86999989
   18.22111130   87.68489838    0.69000000    2.89000010
   18.22444534   90.54959869    0.70999998    2.89000010
   18.22777748   89.02719879    0.67000002    2.89000010
   18.23083305   86.70790100    0.67000002    2.89000010
   18.23416710   87.64080048    0.69000000    2.89000010
   18.23750114   88.75270081    0.69000000    2.89000010
   18.23861122   93.03119659    0.67000002    2.89000010
   18.24111176   90.71289825    0.67000002    2.89000010
   18.24444389   89.93260193    0.67000002    2.89000010
   18.24749947   86.79940033    0.67000002    2.91000009
   18.25083351   91.22799683    0.67000002    2.89000010
   18.25416756   87.39710236    0.69000000    2.89000010
   18.26000023   87.39710236    0.69000000    2.89000010
   18.26416588   92.49729919    0.70999998    2.89000010
   18.26722145   89.49680328    0.70999998    2.89000010
   18.27055550   92.31719971    0.70999998    2.89000010
   18.27194405   89.27120209    0.70999998    2.89000010
   18.27472115   94.63690186    0.70999998    2.89000010
   18.27805519   89.95890045    0.70999998    2.89000010
   18.28111076   94.96610260    0.70999998    2.89000010
   18.28444481   93.08940125    0.70999998    2.91000009
   18.28750038   88.84120178    0.69000000    2.89000010
   18.29083252   95.51550293    0.70999998    2.89000010
   18.29416656   95.76319885    0.70999998    2.89000010
   18.30638885   91.22090149    0.00000000    0.00000000
   18.32000160   91.22090149    0.69000000    2.91000009
   18.32416725   91.60970306    0.69000000    2.89000010
   18.32722282   91.66419983    0.69000000    2.89000010
   18.33055687   89.93379974    0.69000000    2.89000010
   18.33361244   90.29239655    0.69000000    2.89000010
   18.33694458   86.80970001    0.69000000    2.89000010
   18.34027863   93.47280121    0.67000002    2.89000010
   18.34138870   88.16490173    0.69000000    2.89000010
   18.34388924   86.88439941    0.67000002    2.89000010
   18.34694481   87.53469849    0.67000002    2.89000010
   18.35361099   87.53469849    0.67000002    2.89000010
   18.35777855   93.00569916    0.69000000    2.91000009
   18.36083412   91.33219910    0.69000000    2.89000010
   18.36416626   93.64689636    0.69000000    2.89000010
   18.36750031   86.03919983    0.70999998    2.89000010
   18.37055588   90.62920380    0.70999998    2.89000010
   18.37388992   89.91040039    0.73000002    2.89000010
   18.37472153   89.40670013    0.73000002    2.89000010
   18.37750053   86.90820313    0.75000000    2.86999989
   18.38055611   89.29759979    0.75000000    2.86999989
   18.38388824   90.58439636    0.75000000    2.86999989
   18.39638901   87.81870270    0.00000000    0.00000000
   18.40055466   87.81870270    0.80000001    2.86999989
   18.40472221   85.21230316    0.80000001    2.86999989
   18.40777779   84.81469727    0.80000001    2.89000010
   18.41110992   86.07599640    0.80000001    2.86999989
   18.41194344   88.41929626    0.80000001    2.86999989
   18.41472244   89.48719788    0.80000001    2.86999989
   18.41805458   89.61589813    0.80000001    2.89000010
   18.42111015   91.26619720    0.80000001    2.89000010
   18.42444420   87.65619659    0.80000001    2.86999989
   18.42749977   90.07769775    0.81999999    2.89000010
   18.43083191   90.37529755    0.81999999    2.86999989
   18.43416595   91.37979889    0.81999999    2.86999989
   18.43750000   88.92780304    0.81999999    2.86999989
   18.44444275   88.92780304    0.83999997    2.86999989
   18.44861031   85.53399658    0.88000000    2.86999989
   18.45499992   91.89980316    0.88000000    2.86999989
   18.45833397   85.14299774    0.88000000    2.86999989
   18.46166801   86.79940033    0.88000000    2.89000010
   18.46500015   89.39630127    0.86000001    2.86999989
   18.46805573   87.98619843    0.86000001    2.86999989
   18.47138977   85.86450195    0.86000001    2.86999989
   18.47472191   89.39070129    0.88000000    2.89000010
   18.47833443   89.55110168    0.89999998    2.86999989
   18.47944450   88.52500153    0.89999998    2.86999989
   18.48194504   91.33270264    0.89999998    2.86999989
   18.49555588   91.33270264    0.00000000    0.00000000
   18.49972153   89.20659637    0.89999998    2.86999989
   18.50277710   89.30670166    0.89999998    2.86999989
   18.50611115   90.97650146    0.89999998    2.89000010
   18.50916672   89.86750031    0.89999998    2.86999989
   18.52194405   95.76869965    0.00000000    0.00000000
   18.52249908   96.77660370    0.92000002    2.86999989
   18.52583313   96.09269714    0.92000002    2.86999989
   18.53138924   96.09269714    0.94000000    2.86999989
   18.54416656   95.15679932    0.00000000    0.00000000
   18.54749870  101.08999634    0.95999998    2.86999989
   18.55083275   96.91470337    1.00000000    2.86999989
   18.55388832   88.47720337    0.98000002    2.86999989
   18.55722237   89.52510071    0.98000002    2.86999989
   18.56027794   94.54609680    0.98000002    2.86999989
   18.56138802  102.51699829    0.98000002    2.86999989
   18.56444359   98.29029846    1.00000000    2.86999989
   18.56777954   89.11219788    1.00000000    2.86999989
   18.57416725   89.11219788    1.01999998    2.86999989
   18.57833481   89.73809814    1.03999996    2.86999989
   18.59638977   92.94480133    0.95999998    2.86999989
   18.59833336   98.56330109    0.95999998    2.89000010
   18.60138893   94.03690338    0.94000000    2.89000010
   18.60472298   91.70950317    0.92000002    2.86999989
   18.60777855   96.02500153    0.92000002    2.86999989
   18.61111069  103.18800354    0.88000000    2.86999989
   18.61722183  103.18800354    0.86000001    2.86999989
   18.62111092   99.13590240    0.86000001    2.86999989
   18.62444496   98.36150360    0.83999997    2.86999989
   18.62777710   97.36849976    0.81999999    2.89000010
   18.62972260   97.73380280    0.81999999    2.89000010
   18.63138962  100.25399780    0.83999997    2.89000010
   18.63444519   98.35250092    0.83999997    2.86999989
   18.63916588   94.29900360    0.83999997    2.86999989
   18.64222145   91.41629791    0.83999997    2.89000010
   18.64555550   93.76670074    0.86000001    2.86999989
   18.64861107   95.44139862    0.86000001    2.86999989
   18.65194321   94.24440002    0.88000000    2.89000010
   18.65527725   94.03060150    0.89999998    2.86999989
   18.65999985   94.03060150    0.92000002    2.86999989
   18.66416550   90.93419647    0.92000002    2.86999989
   18.66722107   98.94429779    0.92000002    2.86999989
   18.67055511   95.64939880    0.88000000    2.86999989
   18.67388916  101.72699738    0.88000000    2.86999989
   18.67694473   98.43579865    0.88000000    2.86999989
   18.68027687   98.01409912    0.88000000    2.86999989
   18.68333244  101.96399689    0.88000000    2.86999989
   18.68666649   96.08730316    0.88000000    2.89000010
   18.68999863   96.63980103    0.89999998    2.86999989
   18.70194435   95.89910126    0.00000000    0.00000000
   18.70250130   99.55010223    0.86000001    2.86999989
   18.70527840   99.29070282    0.86000001    2.89000010
   18.71138954   99.29070282    0.86000001    2.86999989
   18.72416687   92.50360107    0.00000000    0.00000000
   18.72750092   88.94770050    0.83999997    2.86999989
   18.73083305   88.71170044    0.81999999    2.89000010
   18.73388863   90.53029633    0.80000001    2.86999989
   18.73722267   92.26840210    0.80000001    2.86999989
   18.73972321   89.81800079    0.79000002    2.89000010
   18.74083328   87.71269989    0.79000002    2.89000010
   18.74416733   92.66780090    0.79000002    2.86999989
   18.74722290   90.49710083    0.79000002    2.86999989
   18.75861168   90.49710083    0.76999998    2.89000010
   18.76277733   94.00969696    0.75000000    2.86999989
   18.76611137   98.30750275    0.75000000    2.86999989
   18.76916695   90.98609924    0.76999998    2.86999989
   18.78194427   96.13649750    0.00000000    0.00000000
   18.78249931   96.53040314    0.79000002    2.86999989
   18.78555489   88.72720337    0.79000002    2.86999989
   18.78861046   96.07430267    0.79000002    2.89000010
   18.79194450   93.24739838    0.79000002    2.89000010
   18.79694366   93.24739838    0.79000002    2.86999989
   18.80111122   92.66770172    0.79000002    2.86999989
   18.80444336   92.15280151    0.79000002    2.89000010
   18.80749893   95.41040039    0.79000002    2.86999989
   18.81083298   97.55149841    0.75000000    2.86999989
   18.81416512   92.61180115    0.75000000    2.86999989
   18.81583214   96.42649841    0.75000000    2.86999989
   18.81777954   97.61589813    0.75000000    2.86999989
   18.82083511   90.89479828    0.76999998    2.89000010
   18.82416725   99.73840332    0.75000000    2.86999989
   18.82750130   89.50610352    0.75000000    2.86999989
   18.83055687   99.41629791    0.75000000    2.86999989
   18.83388901   91.15149689    0.76999998    2.86999989
   18.84000015   91.15149689    0.76999998    2.89000010
   18.84388924   96.25530243    0.76999998    2.86999989
   18.84722328   95.63230133    0.79000002    2.86999989
   18.84916687   95.38700104    0.79000002    2.86999989
   18.85083389   93.81559753    0.79000002    2.86999989
   18.85416794   90.41049957    0.81999999    2.86999989
   18.85722351   97.79370117    0.81999999    2.86999989
   18.86055565   95.08940125    0.81999999    2.86999989
   18.86416626   98.29239655    0.81999999    2.86999989
   18.86722183   97.76339722    0.83999997    2.86999989
   18.87055588   99.09929657    0.83999997    2.86999989
   18.87416649   99.12270355    0.88000000    2.86999989
   18.87750053  107.97899628    0.89999998    2.86999989
   18.88277817  107.97899628    0.81999999    2.86999989
   18.88694382   89.76280212    0.81999999    2.86999989
   18.88999939   97.31130219    0.81999999    2.86999989
   18.89333344   94.01010132    0.83999997    2.86999989
   18.89666748   92.92489624    0.81999999    2.86999989
   18.89972115   94.00240326    0.81999999    2.86999989
   18.90305519   94.87830353    0.81999999    2.86999989
   18.90666580  100.58799744    0.83999997    2.86999989
   18.90999985   88.88230133    0.83999997    2.86999989
   18.91305542   94.35749817    0.81999999    2.86999989
   18.91583252   93.93900299    0.83999997    2.86999989
   18.91694450   93.03450012    0.81999999    2.86999989
   18.92027664   97.11479950    0.81999999    2.86999989
   18.92555428   97.11479950    0.83999997    2.86999989
   18.93861008   96.72440338    0.00000000    0.00000000
   18.94194412   96.01290131    0.86000001    2.86999989
   18.94499969   97.13960266    0.86000001    2.86999989
   18.94833183   92.42220306    0.88000000    2.86999989
   18.95277786   92.82530212    0.88000000    2.86999989
   18.95416832   99.51090240    0.88000000    2.86999989
   18.95639038   97.39029694    0.86000001    2.86999989
   18.95972252   93.26570129    0.81999999    2.86999989
   18.96389008   96.09259796    0.83999997    2.84999990
   18.96833420   96.09259796    0.81999999    2.86999989
   18.97249985   98.94779968    0.81999999    2.86999989
   18.97583389   95.94789886    0.81999999    2.86999989
   18.97916794   92.37390137    0.83999997    2.86999989
   18.98222351   90.04519653    0.83999997    2.86999989
   18.98555565   95.51950073    0.81999999    2.86999989
   18.98750114   90.57550049    0.83999997    2.86999989
   18.98916626   92.05870056    0.81999999    2.86999989
   19.00222206   88.55860138    0.00000000    0.00000000
   19.00555611   90.75009918    0.83999997    2.86999989
   19.01222229   90.75009918    0.86000001    2.86999989
   19.01638794   90.84500122    0.86000001    2.86999989
   19.01972198   91.32389832    0.86000001    2.86999989
   19.02083397   91.49929810    0.86000001    2.86999989
   19.02333260   88.10299683    0.83999997    2.86999989
   19.02666664   93.96260071    0.86000001    2.86999989
   19.03861046   86.45069885    0.00000000    0.00000000
   19.04194450   89.44809723    0.88000000    2.84999990
   19.05472183   91.71459961    0.00000000    0.00000000
   19.05555534   92.96299744    0.89999998    2.86999989
   19.06805611   92.83000183    0.00000000    0.00000000
   19.07222366   92.83000183    0.89999998    2.84999990
   19.07638931   94.55879974    0.94000000    2.84999990
   19.07972336   82.43280029    0.98000002    2.84999990
   19.08305550   94.22250366    1.00000000    2.84999990
   19.08611107   97.86340332    1.00000000    2.84999990
   19.08889008   94.67389679    1.13000000    2.84999990
   19.09000015   91.29640198    1.13000000    2.84999990
   19.09305573   95.85839844    1.11000001    2.84999990
   19.10527802   95.83239746    0.00000000    0.00000000
   19.10861206   94.80799866    1.09000003    2.84999990
   19.12416649   94.80799866    0.00000000    0.00000000
   19.12833405   97.12950134    1.05999994    2.86999989
   19.13166618   90.48509979    1.05999994    2.86999989
   19.13472176   90.62660217    1.03999996    2.86999989
   19.13805580   91.19609833    1.05999994    2.86999989
   19.14972115   96.28410339    0.00000000    0.00000000
   19.15305519   99.22840118    1.09000003    2.84999990
   19.15916634   99.22840118    1.09000003    2.84999990
   19.16333389  100.57399750    1.13000000    2.84999990
   19.16555595   91.33820343    1.13000000    2.84999990
   19.16694450   92.17189789    1.13000000    2.84999990
   19.17027664   94.05519867    1.13000000    2.84999990
   19.17361069   95.25640106    1.14999998    2.84999990
   19.17666626   84.84639740    1.14999998    2.84999990
   19.18000031   90.80979919    1.14999998    2.84999990
   19.18305397   96.10320282    1.14999998    2.84999990
   19.18638802   89.72760010    1.16999996    2.84999990
   19.18972206   90.12950134    1.16999996    2.84999990
   19.19277763   94.53479767    1.16999996    2.84999990
   19.19610977   89.68090057    1.16999996    2.84999990
   19.21083450   89.68090057    1.23000002    2.84999990
   19.21500015   88.38289642    1.16999996    2.84999990
   19.21833420   89.01290131    1.19000006    2.84999990
   19.22166634   91.40519714    1.19000006    2.84999990
   19.22472191   96.92780304    1.19000006    2.84999990
   19.22833443   88.53009796    1.19000006    2.84999990
   19.24083328   84.62680054    0.00000000    0.00000000
   19.24138832   94.00009918    1.21000004    2.84999990
   19.24416733  100.36799622    1.23000002    2.84999990
   19.25888824  100.36799622    1.23000002    2.84999990
   19.26305580   94.56340027    1.23000002    2.84999990
   19.26611137   92.91480255    1.25000000    2.84999990
   19.26972198   91.65509796    1.25000000    2.84999990
   19.27277756   93.92079926    1.28999996    2.84999990
   19.27472115   89.72309875    1.28999996    2.84999990
   19.27638817   90.78959656    1.28999996    2.84999990
   19.27972221   84.83989716    1.28999996    2.84999990
   19.28361130   89.51399994    1.30999994    2.84999990
   19.28694344   87.40720367    1.34000003    2.84999990
   19.29388809   87.40720367    1.39999998    2.84999990
   19.29777718   85.44049835    1.46000004    2.84999990
   19.30111122   95.43939972    1.50000000    2.84999990
   19.30444336  100.29399872    1.50000000    2.84999990
   19.30749893  103.65200043    1.51999998    2.82999992
   19.30805397   93.88169861    1.51999998    2.82999992
   19.31110954  100.03800201    1.53999996    2.84999990
   19.31444359   88.16410065    1.53999996    2.84999990
   19.31750107   95.23619843    1.53999996    2.84999990
   19.32083511  105.60299683    1.53999996    2.84999990
   19.32416725   93.94370270    1.48000002    2.84999990
   19.33638954  106.80000305    0.00000000    0.00000000
   19.34055710  106.80000305    1.50000000    2.82999992
   19.35416794   98.76979828    0.00000000    0.00000000
   19.35750008   87.16889954    1.48000002    2.84999990
   19.36083412   93.17289734    1.48000002    2.84999990
   19.36388969   93.68180084    1.48000002    2.84999990
   19.36722183   86.89420319    1.48000002    2.84999990
   19.37027740   91.68869781    1.48000002    2.84999990
   19.37361145   97.00340271    1.46000004    2.84999990
   19.37555504   98.98709869    1.44000006    2.84999990
   19.37750053   92.77120209    1.44000006    2.84999990
   19.39305496   92.77120209    1.39999998    2.84999990
   19.39722252   90.07009888    1.39999998    2.82999992
   19.40055466   93.15920258    1.39999998    2.84999990
   19.40361023   87.11589813    1.39999998    2.82999992
   19.41638756   92.17890167    0.00000000    0.00000000
   19.41694450   95.73190308    1.38000000    2.84999990
   19.41972160   87.30840302    1.36000001    2.84999990
   19.43166542   87.30840302    1.39999998    2.84999990
   19.43610954   98.11360168    1.39999998    2.82999992
   19.44861031   91.72930145    0.00000000    0.00000000
   19.45027924   92.54900360    1.46000004    2.82999992
   19.45250130   99.55110168    1.50000000    2.84999990
   19.45555687   96.12840271    1.53999996    2.82999992
   19.45888901   92.39479828    1.51999998    2.82999992
   19.46222305   89.09960175    1.51999998    2.84999990
   19.46555710   90.93720245    1.46000004    2.82999992
   19.46888924   96.24440002    1.39999998    2.84999990
   19.47194481   97.82980347    1.41999996    2.84999990
   19.47611237   97.82980347    1.41999996    2.84999990
   19.48027802   95.85449982    1.41999996    2.82999992
   19.48388863   95.05439758    1.41999996    2.84999990
   19.48444557  101.83899689    1.41999996    2.84999990
   19.48777771  101.48799896    1.41999996    2.84999990
   19.49083328  103.98200226    1.38000000    2.84999990
   19.49416733  105.44100189    1.38000000    2.84999990
   19.49749947   99.41419983    1.39999998    2.82999992
   19.50055504  103.23500061    1.39999998    2.82999992
   19.50388908   98.95619965    1.39999998    2.84999990
   19.50694466  101.16300201    1.39999998    2.84999990
   19.51027870  105.51399994    1.41999996    2.82999992
   19.51361084  100.52200317    1.41999996    2.82999992
   19.51916695  100.52200317    1.44000006    2.84999990
   19.52333260  107.62200165    1.41999996    2.82999992
   19.52638817   97.96230316    1.41999996    2.82999992
   19.52972221   99.76000214    1.53999996    2.84999990
   19.53305435  100.75900269    1.55999994    2.82999992
   19.53610992   88.96050262    1.58000004    2.82999992
   19.53944397   89.50630188    1.58000004    2.82999992
   19.54249954   93.90750122    1.61000001    2.82999992
   19.54583359  100.27200317    1.61000001    2.82999992
   19.54916573   91.39600372    1.63000000    2.82999992
   19.55972099  102.89199829    1.64999998    2.82999992
   19.56222153   97.90809631    1.66999996    2.82999992
   19.56527710   96.48590088    1.66999996    2.82999992
   19.56944466   96.48590088    1.66999996    2.82999992
   19.58305550  104.51300049    0.00000000    0.00000000
   19.58361244   99.21630096    1.71000004    2.82999992
   19.58666801  107.56900024    1.73000002    2.82999992
   19.58972359  103.81600189    1.66999996    2.82999992
   19.59305573  112.45200348    1.64999998    2.82999992
   19.60527802  106.11299896    0.00000000    0.00000000
   19.60861206  109.55899811    1.55999994    2.82999992
   19.61472321  109.55899811    1.55999994    2.82999992
   19.61888885  105.63600159    1.51999998    2.82999992
   19.62972260   98.51830292    1.53999996    2.80999994
   19.64777756  100.72299957    1.51999998    2.80999994
   19.65083313   99.56130219    1.51999998    2.80999994
   19.65777779   99.56130219    1.51999998    2.82999992
   19.66194344   93.64880371    1.48000002    2.82999992
   19.67416573   94.00330353    0.00000000    0.00000000
   19.67749977   95.59110260    1.44000006    2.80999994
   19.68055534   91.00849915    1.44000006    2.82999992
   19.68388748   92.78209686    1.44000006    2.82999992
   19.68694305   93.65940094    1.46000004    2.82999992
   19.68972206   98.51609802    1.46000004    2.82999992
   19.69083214  100.03600311    1.46000004    2.82999992
   19.69416618   98.30760193    1.46000004    2.82999992
   19.69722176   95.31279755    1.48000002    2.82999992
   19.70166779   95.31279755    1.51999998    2.82999992
   19.70583344   88.70960236    1.58000004    2.82999992
   19.70916748   87.41600037    1.61000001    2.80999994
   19.71222305   87.48310089    1.60000002    2.82999992
   19.71555710   86.70749664    1.64999998    2.82999992
   19.71888924   83.25160217    1.63000000    2.80999994
   19.72194481   92.30290222    1.63000000    2.82999992
   19.72305679   84.14679718    1.60000002    2.82999992
   19.72555542   85.48169708    1.60000002    2.82999992
   19.72888947   90.25070190    1.60000002    2.82999992
   19.73194504   95.76319885    1.60000002    2.82999992
   19.73527718   86.50379944    1.61000001    2.80999994
   19.73861122   90.34110260    1.64999998    2.82999992
   19.74472237   90.34110260    1.64999998    2.82999992
   19.74888992   99.32219696    1.64999998    2.80999994
   19.75194359   92.48760223    1.66999996    2.80999994
   19.75527763   83.97949982    1.66999996    2.80999994
   19.75666618   89.56459808    1.66999996    2.80999994
   19.75888824   86.47229767    1.66999996    2.80999994
   19.76194382   90.06120300    1.69000006    2.80999994
   19.76527786   89.58979797    1.76999998    2.80999994
   19.77750015   82.46050262    0.00000000    0.00000000
   19.78083229   86.64540100    1.64999998    2.80999994
   19.78750038   86.64540100    1.63000000    2.80999994
   19.79166603   85.15779877    1.61000001    2.80999994
   19.79305458   85.54530334    1.61000001    2.82999992
   19.79527664   92.95120239    1.60000002    2.82999992
   19.79861069   93.68470001    1.60000002    2.80999994
   19.80166626   84.57939911    1.61000001    2.82999992
   19.81416512   84.77279663    0.00000000    0.00000000
   19.81750107   81.52890015    1.63000000    2.80999994
   19.82055664   83.62030029    1.63000000    2.82999992
   19.82389069   82.86730194    1.63000000    2.80999994
   19.83972359   82.86730194    1.60000002    2.82999992
   19.84388924   85.57900238    1.60000002    2.82999992
   19.84722328   82.58419800    1.96000004    2.80999994
   19.85027885   84.48300171    2.25000000    2.82999992
   19.85361099   82.52249908    1.88000000    2.80999994
   19.85694504   81.00620270    1.88000000    2.80999994
   19.86000061   85.17700195    1.71000004    2.80999994
   19.86305618   82.15100098    1.73000002    2.80999994
   19.86361122   86.62860107    1.73000002    2.80999994
   19.86694527   83.72730255    1.75000000    2.80999994
   19.87305641   83.72730255    1.76999998    2.80999994
   19.87722206   84.29720306    1.76999998    2.80999994
   19.88055611   87.07890320    1.75000000    2.80999994
   19.88388824   86.86669922    1.75000000    2.78999996
   19.88694382   84.30519867    1.75000000    2.78999996
   19.89027786   83.94689941    1.75000000    2.80999994
   19.89361191   81.23549652    1.75000000    2.80999994
   19.89666748   88.85030365    1.75000000    2.80999994
   19.89722252   82.77690125    1.75000000    2.80999994
   19.90055466   92.37680054    1.73000002    2.80999994
   19.90388870   84.93800354    1.75000000    2.78999996
   19.90694427   87.12920380    1.75000000    2.78999996
   19.91027832   88.09559631    1.85000002    2.80999994
   19.92472076   88.09559631    1.85000002    2.78999996
   19.92888832   81.84269714    1.88000000    2.80999994
   19.92972183   83.89479828    1.88000000    2.80999994
   19.93249893   87.62239838    1.88000000    2.78999996
   19.93583298   93.81120300    1.88000000    2.78999996
   19.93888855   87.58529663    1.89999998    2.80999994
   19.94222069   91.30049896    1.96000004    2.78999996
   19.94527626   89.04100037    2.01999998    2.80999994
   19.95750046   86.52230072    0.00000000    0.00000000
   19.96083450   88.76540375    2.25000000    2.78999996
   19.96305656   87.38200378    2.23000002    2.78999996
   19.96722221   87.38200378    2.23000002    2.78999996
   19.97138977   84.05770111    2.28999996    2.78999996
   19.97472191   85.12310028    2.28999996    2.78999996
   19.97777748   89.04589844    2.21000004    2.78999996
   19.98111153   85.07450104    2.19000006    2.78999996
   19.98527718   90.94920349    2.17000008    2.78999996
   19.98861122   86.35939789    2.21000004    2.78999996
   19.99194527   86.93190002    2.23000002    2.78999996
   20.00194359   88.11470032    0.00000000    0.00000000
   20.00250053   84.17120361    2.40000010    2.78999996
   20.00583267   87.36289978    2.50000000    2.78999996
   20.01138878   87.36289978    2.51999998    2.78999996
   20.01555634   87.48719788    2.53999996    2.78999996
   20.01888847   89.13020325    2.48000002    2.78999996
   20.02194405   84.29660034    2.44000006    2.78999996
   20.02555466   84.60749817    2.44000006    2.78999996
   20.02861023   87.44329834    2.44000006    2.78999996
   20.03194427   82.79250336    2.50000000    2.78999996
   20.03499985   86.66979980    2.57999992    2.78999996
   20.03583336   88.22440338    2.57999992    2.78999996
   20.03861046   83.86710358    2.57999992    2.80999994
   20.04194450   87.16429901    2.55999994    2.78999996
   20.04500008  102.19300079    2.53999996    2.78999996
   20.04833221   90.16960144    2.44000006    2.76999998
   20.05416679   90.16960144    2.26999998    2.78999996
   20.05833244   86.88960266    2.30999994    2.78999996
   20.06166649   86.65029907    2.34999990    2.78999996
   20.06499863   89.91619873    2.42000008    2.76999998
   20.06805611   83.75350189    2.55999994    2.78999996
   20.06916809   89.02030182    2.61999989    2.76999998
   20.07166672   87.69249725    2.73000002    2.78999996
   20.07500076   88.26010132    2.66000009    2.78999996
   20.07805634   91.62090302    2.69000006    2.78999996
   20.09083366   85.23229980    0.00000000    0.00000000
   20.09416771   82.68440247    2.50000000    2.76999998
   20.10027885   82.68440247    2.55999994    2.78999996
   20.10444450   88.27559662    2.55999994    2.78999996
   20.10666656   94.46810150    2.53999996    2.78999996
   20.10805511   86.91660309    2.53999996    2.78999996
   20.11138916   84.11209869    2.59999990    2.78999996
   20.11472321   85.20500183    2.61999989    2.78999996
   20.12638855   85.84400177    0.00000000    0.00000000
   20.12972260   83.70529938    4.90999985    2.78999996
   20.13277817   84.55049896    4.90999985    2.78999996
   20.13611031   76.78009796    4.90999985    2.78999996
   20.13916588  101.90299988    4.90999985    2.05999994
   20.14333344  101.90299988    4.90999985    2.32999992
   20.14749908   84.30519867    4.90999985    2.78999996
   20.15083313   82.65239716    4.90999985    2.76999998
   20.15388870   82.09980011    4.78000021    2.78999996
   20.15722275   80.17079926    3.46000004    2.76999998
   20.16055489   80.72740173    3.16000009    2.76999998
   20.16388893   87.08039856    3.01999998    2.76999998
   20.16694450   82.65619659    2.96000004    2.76999998
   20.17027664   82.57469940    2.86999989    2.78999996
   20.17333221   80.40370178    2.96000004    2.78999996
   20.17527771   83.14720154    3.72000003    2.76999998
   20.17694473   80.86609650    4.34999990    2.76999998
   20.18027687   83.21299744    4.90999985    2.78999996
   20.18638802   83.21299744    4.90999985    2.76999998
   20.19027710   75.98200226    4.90999985    2.59999990
   20.19361115  103.42299652    4.90999985    2.19000006
   20.19694328   88.30049896    4.90999985    2.61999989
   20.20000076   85.21340179    4.90999985    2.76999998
   20.20333481   84.64289856    4.90999985    2.76999998
   20.20666695   85.93360138    3.26999998    2.75000000
   20.20861244   86.86219788    3.00000000    2.76999998
   20.21027946   85.68280029    2.98000002    2.76999998
   20.21361160   87.22329712    2.93000007    2.76999998
   20.21666718   83.97499847    2.94000006    2.76999998
   20.22000122   83.56109619    2.96000004    2.75000000
   20.22305679   85.51570129    3.03999996    2.76999998
   20.22916794   85.51570129    3.00000000    2.75000000
   20.23333359   83.22450256    3.01999998    2.75000000
   20.23638916   82.80999756    3.09999990    2.75000000
   20.23972321   83.92220306    3.20000005    2.76999998
   20.24194527   85.92600250    3.32999992    2.76999998
   20.24333382   82.37770081    3.34999990    2.75000000
   20.24666786   86.67160034    3.48000002    2.75000000
   20.24972153   83.65380096    3.51999998    2.75000000
   20.25305557   83.51820374    3.53999996    2.75000000
   20.26527786   82.39160156    3.45000005    2.75000000
   20.26861000   87.83740234    3.43000007    2.75000000
   20.27499962   87.83740234    3.41000009    2.75000000
   20.27916718   84.96440125    3.39000010    2.75000000
   20.28111076   89.93419647    3.34999990    2.75000000
   20.28277779   89.63760376    3.34999990    2.75000000
   20.28610992   87.74939728    3.32999992    2.75000000
   20.29055595   85.08809662    3.21000004    2.76999998
   20.29361153   87.13490295    3.16000009    2.75000000
   20.29694366   86.91100311    3.11999989    2.75000000
   20.30027771   81.91870117    3.07999992    2.75000000
   20.30333328   89.21730042    3.07999992    2.75000000
   20.30666542   87.60919952    3.03999996    2.75000000
   20.30999947   84.95529938    3.01999998    2.75000000
   20.31555557   87.26709747    3.01999998    2.75000000
   20.31972313   87.26709747    3.00000000    2.75000000
   20.32389069   90.58219910    3.00000000    2.75000000
   20.32722282   85.23809814    3.05999994    2.75000000
   20.33027840   87.67669678    3.09999990    2.75000000
   20.33361244   86.09449768    3.03999996    2.75000000
   20.33694458   86.11340332    2.96000004    2.75000000
   20.34000015   87.44390106    2.86999989    2.76999998
   20.34333420   86.30020142    2.80999994    2.75000000
   20.34666824   88.12310028    2.82999992    2.75000000
   20.34972191   87.86859894    2.86999989    2.75000000
   20.35083389   85.93730164    2.91000009    2.76999998
   20.35333443   89.39499664    2.96000004    2.75000000
   20.35666656   87.05100250    2.94000006    2.75000000
   20.36277771   87.05100250    2.86999989    2.75000000
   20.36666679   86.77940369    2.96000004    2.75000000
   20.37000084   85.41680145    2.89000010    2.75000000
   20.37333298   83.48850250    2.91000009    2.75000000
   20.37638855   87.90409851    2.71000004    2.75000000
   20.37972260   90.94390106    2.64000010    2.76999998
   20.38277817   83.76270294    2.66000009    2.75000000
   20.38416672   86.20719910    2.66000009    2.75000000
   20.38638878   83.77279663    2.61999989    2.75000000
   20.38972282   86.08699799    2.53999996    2.75000000
   20.39277840   88.90000153    2.50000000    2.75000000
   20.39611053   86.41860199    2.48000002    2.75000000
   20.39944458   90.01519775    2.50000000    2.75000000
   20.40555573   90.01519775    2.53999996    2.75000000
   20.40972137   93.60009766    2.48000002    2.75000000
   20.41277695   89.94069672    2.50000000    2.75000000
   20.41611099   88.09010315    2.51999998    2.75000000
   20.41749954   94.07510376    2.51999998    2.75000000
   20.41972160   92.90689850    2.51999998    2.75000000
   20.43194389   86.34300232    0.00000000    0.00000000
   20.43527603   89.86910248    2.44000006    2.75000000
   20.43833160   87.00789642    2.46000004    2.75000000
   20.44166565   90.32080078    2.46000004    2.75000000
   20.44916534   90.32080078    2.42000008    2.75000000
   20.45333481   87.41439819    2.42000008    2.75000000
   20.45639038   83.90850067    2.42000008    2.75000000
   20.45972252   85.01319885    2.40000010    2.75000000
   20.46305656   85.80349731    2.39000010    2.75000000
   20.46611214   91.97139740    2.36999989    2.75000000
   20.47861099   86.07140350    0.00000000    0.00000000
   20.48194504   81.78209686    2.91000009    2.73000002
   20.48416710   83.42549896    3.14000010    2.73000002
   20.48555565   82.02179718    2.96000004    2.75000000
   20.49972153   82.02179718    3.01999998    2.71000004
   20.50388908   90.01969910    2.66000009    2.73000002
   20.50722313   80.37180328    2.96000004    2.75000000
   20.51027870   83.55729675    3.46000004    2.75000000
   20.51361084   86.10990143    4.90999985    2.78999996
   20.51694489   84.16770172    4.90999985    2.80999994
   20.51749992   83.64499664    4.90999985    2.80999994
   20.52055550   86.59410095    4.82999992    2.80999994
   20.52388954   87.04859924    3.07999992    2.78999996
   20.52694511   86.04940033    2.64000010    2.78999996
   20.53027725   84.80010223    2.51999998    2.76999998
   20.53444481   84.80010223    2.50000000    2.75000000
   20.53861046   87.98760223    2.59999990    2.75000000
   20.54166603   83.73000336    2.71000004    2.73000002
   20.54500008   84.44779968    2.75000000    2.73000002
   20.54833221   88.18329620    2.75000000    2.75000000
   20.55083275   85.03869629    2.73000002    2.73000002
   20.55194283   85.56490326    2.75000000    2.75000000
   20.55527687   85.74960327    2.78999996    2.73000002
   20.55833244   84.20619965    2.80999994    2.73000002
   20.56166649   93.18890381    2.86999989    2.73000002
   20.56472206   89.75900269    2.91000009    2.73000002
   20.56805611   88.13549805    2.94000006    2.73000002
   20.57139015   86.91049957    2.96000004    2.73000002
   20.57722282   86.91049957    2.93000007    2.73000002
   20.58139038   90.06839752    2.84999990    2.73000002
   20.58416748   86.75839996    2.82999992    2.73000002
   20.58500099   90.61849976    2.84999990    2.73000002
   20.58833313   83.02449799    2.91000009    2.71000004
   20.59138870   88.74600220    2.94000006    2.73000002
   20.59472275   86.87249756    3.05999994    2.73000002
   20.59805679   91.74069977    3.05999994    2.73000002
   20.60111237   91.85330200    2.98000002    2.71000004
   20.60444450   82.34970093    2.93000007    2.73000002
   20.60777855   86.75820160    2.80999994    2.73000002
   20.61083412   87.55930328    2.82999992    2.73000002
   20.62305641   78.94969940    0.00000000    0.00000000
   20.62722206   78.94969940    3.11999989    2.71000004
   20.63138962   87.65830231    3.21000004    2.71000004
   20.63444519   86.81670380    3.28999996    2.71000004
   20.63777733   89.62380219    3.36999989    2.71000004
   20.64111137   84.31829834    3.45000005    2.71000004
   20.64416695   88.89170074    3.48000002    2.71000004
   20.64749908   86.44400024    3.51999998    2.71000004
   20.65083313   87.03839874    3.51999998    2.71000004
   20.65388870   86.46820068    3.50000000    2.71000004
   20.65722275   89.47450256    3.50000000    2.71000004
   20.65805435   89.28450012    3.48000002    2.71000004
   20.66083336   86.54830170    3.48000002    2.71000004
   20.66388893   93.15229797    3.48000002    2.71000004
   20.67000008   93.15229797    3.48000002    2.71000004
   20.67416573   93.32170105    3.50000000    2.69000006
   20.67749977   87.14279938    3.51999998    2.71000004
   20.68055534   91.22650146    3.55999994    2.71000004
   20.69805527   92.48919678    4.46999979    2.69000006
   20.70083427   83.56770325    4.44999981    2.69000006
   20.70388985   91.46389771    4.48999977    2.69000006
   20.70722389   86.08969879    4.44999981    2.69000006
   20.71305656   86.08969879    4.38999987    2.71000004
   20.71722221   86.54399872    4.34999990    2.69000006
   20.72027779   92.88649750    4.23999977    2.69000006
   20.72361183   89.19329834    4.17999983    2.69000006
   20.72694588   88.06469727    4.19999981    2.71000004
   20.73000145   92.69599915    4.26999998    2.69000006
   20.73111153   87.31919861    4.26999998    2.71000004
   20.73388863   88.60299683    4.34999990    2.71000004
   20.73694420   90.84470367    4.38999987    2.69000006
   20.74027824   93.34739685    4.40999985    2.69000006
   20.74361229   86.13110352    4.44999981    2.69000006
   20.74666786   86.59909821    4.46999979    2.69000006
   20.75000000   87.64720154    4.46999979    2.69000006
   20.75583267   87.64720154    4.30999994    2.71000004
   20.76000023   93.33910370    4.26999998    2.69000006
   20.76333427   87.25060272    4.26999998    2.69000006
   20.76444435   90.37200165    4.26999998    2.69000006
   20.76694489   92.57800293    4.32999992    2.69000006
   20.77027702   89.39959717    4.34999990    2.69000006
   20.77333260   88.94020081    4.30999994    2.69000006
   20.77666664   89.97299957    4.28999996    2.69000006
   20.77972221   92.38659668    4.26999998    2.69000006
   20.78305435   96.95939636    4.30999994    2.69000006
   20.78638840   89.56939697    4.36999989    2.69000006
   20.78944397   96.24400330    4.51000023    2.69000006
   20.79277802   87.26999664    4.67999983    2.69000006
   20.79861069   87.26999664    4.53000021    2.69000006
   20.80277634   86.51290131    4.55999994    2.67000008
   20.80611038   73.93049622    4.73999977    2.67000008
   20.80944443   79.36840057    4.80999994    2.67000008
   20.81250000   91.63240051    4.90999985    2.67000008
   20.81583214   88.94159698    4.90999985    2.67000008
   20.81888962   88.01909637    4.90999985    2.67000008
   20.83000183   87.11080170    0.00000000    0.00000000
   20.83111191   83.80719757    4.86999989    2.67000008
   20.83361244   83.68930054    4.80999994    2.67000008
   20.83666801   89.94390106    4.71999979    2.67000008
   20.84166718   89.94390106    4.69999981    2.69000006
   20.84583473   87.33090210    4.53000021    2.69000006
   20.84916687   84.34719849    4.44999981    2.67000008
   20.85222244   83.31449890    4.34999990    2.67000008
   20.85611153   82.44830322    4.21999979    2.67000008
   20.85944557   87.25270081    4.13999987    2.67000008
   20.86250114   86.96669769    4.01999998    2.69000006
   20.86444473   75.99040222    4.00000000    2.67000008
   20.86638832   70.66459656    3.99000001    2.67000008
   20.86944389   87.88169861    3.97000003    2.67000008
   20.87277794   86.28009796    3.95000005    2.67000008
   20.87611198   87.93879700    3.99000001    2.67000008
   20.87916756   94.58249664    3.99000001    2.67000008
   20.88444519   94.58249664    3.95000005    2.69000006
   20.89749908   88.17749786    0.00000000    0.00000000
   20.89805603   91.04810333    3.78999996    2.67000008
   20.90083313   79.47080231    3.76999998    2.67000008
   20.90416718   95.46199799    3.76999998    2.67000008
   20.90749931  116.59700012    3.78999996    2.67000008
   20.91055489   97.42919922    3.82999992    2.67000008
   20.91388893  110.83899689    3.78999996    2.67000008
   20.91722107   86.44699860    3.73000002    2.67000008
   20.92027664  107.73100281    3.70000005    2.67000008
   20.92361069  101.13999939    3.70000005    2.67000008
   20.92777634  101.13999939    3.76999998    2.67000008
   20.93194389   92.78769684    3.80999994    2.67000008
   20.93499947  103.26200104    3.82999992    2.67000008
   20.93833160   83.14240265    3.78999996    2.67000008
   20.94166565   97.09079742    3.75000000    2.67000008
   20.94472122   88.11889648    3.80999994    2.67000008
   20.94805527   91.92410278    3.80999994    2.66000009
   20.95138931   89.74459839    3.80999994    2.67000008
   20.95444489   88.70510101    3.91000009    2.66000009
   20.95777893   84.40820313    3.95000005    2.67000008
   20.96083450   88.71389771    3.64000010    2.67000008
   20.96416664   84.37689972    3.59999990    2.67000008
   20.96472359   90.87950134    3.59999990    2.67000008
   20.97055626   90.87950134    3.61999989    2.67000008
   20.97472191   88.04409790    3.59999990    2.66000009
   20.97777748   97.49320221    3.55999994    2.66000009
   20.98111153  106.18599701    3.55999994    2.67000008
   20.98444557   98.08580017    3.57999992    2.67000008
   20.98750114   90.83399963    3.61999989    2.66000009
   20.99083328  100.62400055    3.57999992    2.67000008
   20.99416733   91.19969940    3.57999992    2.67000008
   20.99722290   89.22049713    3.59999990    2.67000008
   20.99805641   88.63330078    3.59999990    2.67000008
   21.00111198   97.38420105    3.70000005    2.67000008
   21.00416756  107.81700134    3.73000002    2.67000008
   21.00749969  100.67500305    3.73000002    2.66000009
   21.01583290  100.67500305    3.70000005    2.66000009
   21.02000046  124.22100067    4.90999985    2.69000006
   21.03194427   91.81189728    0.00000000    0.00000000
   21.03249931  105.33100128    0.09000000    0.03000000
   21.03527641   92.62570190    0.09000000    0.03000000
   21.03861046   90.77950287    0.09000000    0.03000000
   21.04194450   89.88500214    0.09000000    0.03000000
   21.04527664   91.15290070    0.09000000    0.03000000
   21.04833221   90.87069702    0.09000000    0.03000000
   21.05166626   91.48320007    0.09000000    0.03000000
   21.05499840  112.09799957    0.09000000    0.03000000
   21.06861115  112.09799957    0.09000000    0.03000000
   21.07277870  103.15699768    0.09000000    0.03000000
   21.07611275   92.76930237    0.09000000    0.03000000
   21.07916832  104.44300079    0.09000000    0.03000000
   21.08277893   85.98609924    0.09000000    0.03000000
   21.08611107   89.23549652    0.09000000    0.03000000
   21.08944511   93.00910187    0.09000000    0.03000000
   21.09250069   90.45950317    0.09000000    0.03000000
   21.09583473  104.06199646    0.09000000    0.03000000
   21.10250092  104.06199646    0.09000000    0.03000000
   21.10639000   82.69039917    0.09000000    0.03000000
   21.10972214   93.58589935    0.09000000    0.03000000
   21.11305618   92.88690186    0.09000000    0.03000000
   21.11611176   90.93569946    0.09000000    0.03000000
   21.11944389   91.36409760    0.09000000    0.03000000
   21.12277794   86.73960114    0.09000000    0.03000000
   21.12583351   97.20040131    0.09000000    0.03000000
   21.12916756   92.72550201    0.09000000    0.03000000
   21.13222313   91.42489624    0.09000000    0.03000000
   21.13555527   93.56250000    0.09000000    0.03000000
   21.13750076   89.15229797    0.09000000    0.03000000
   21.13916588   87.86599731    0.09000000    0.03000000
   21.14527702   87.86599731    0.09000000    0.03000000
   21.14944458   97.70570374    0.09000000    0.03000000
   21.15250015   89.14060211    0.09000000    0.03000000
   21.15583229   86.20880127    0.09000000    0.03000000
   21.15916634   89.68560028    0.09000000    0.03000000
   21.16222191   88.86409760    0.09000000    0.03000000
   21.16555595   91.92289734    0.09000000    0.03000000
   21.16860962   90.83219910    0.09000000    0.03000000
   21.17083359   87.00109863    0.09000000    0.03000000
   21.17222214   96.11660004    0.09000000    0.03000000
   21.17555428   83.54759979    0.09000000    0.03000000
   21.17888832   96.45549774    0.09000000    0.03000000
   21.18194389   98.52760315    0.09000000    0.03000000
   21.19277763   98.52760315    0.09000000    0.03000000
   21.19694328   87.60639954    0.09000000    0.03000000
   21.20000076   90.37239838    0.09000000    0.03000000
   21.20333481   95.06079865    0.09000000    0.03000000
   21.20639038   84.00299835    0.09000000    0.03000000
   21.20833397   95.51270294    0.09000000    0.03000000
   21.21027946   88.83119965    0.09000000    0.03000000
   21.21333504   79.93340302    0.09000000    0.03000000
   21.22527885   91.53800201    0.00000000    0.00000000
   21.22861099   91.53690338    0.09000000    0.03000000
   21.23472214   91.53690338    0.09000000    0.03000000
   21.23888969   86.18990326    0.09000000    0.03000000
   21.25083351   90.98880005    0.09000000    0.03000000
   21.25194359   91.05639648    0.09000000    0.03000000
   21.25527763   86.09940338    0.09000000    0.03000000
   21.25833321   88.51529694    0.09000000    0.03000000
   21.26166725   92.59649658    0.09000000    0.03000000
   21.26472282   89.29879761    0.09000000    0.03000000
   21.26805496   91.44850159    0.09000000    0.03000000
   21.27138901   92.92289734    0.09000000    0.03000000
   21.27444458   87.07450104    0.09000000    0.03000000
   21.27861023   87.07450104    0.09000000    0.03000000
   21.28277779   92.05370331    0.09000000    0.03000000
   21.28610992   92.89579773    0.09000000    0.03000000
   21.28916550   88.40660095    0.09000000    0.03000000
   21.29249954   88.82890320    0.09000000    0.03000000
   21.29583359   91.44889832    0.09000000    0.03000000
   21.29972076   86.46379852    0.09000000    0.03000000
   21.30305481   86.34329987    0.09000000    0.03000000
   21.30638885   91.66449738    0.09000000    0.03000000
   21.30999947   84.76280212    0.09000000    0.03000000
   21.31055450   91.29319763    0.09000000    0.03000000
   21.31361008   91.66429901    0.09000000    0.03000000
   21.31694603   97.62819672    0.09000000    0.03000000
   21.32139015   97.62819672    0.09000000    0.03000000
   21.32555580   90.91449738    0.09000000    0.03000000
   21.32888985   96.66850281    0.09000000    0.03000000
   21.33222389   91.46520233    0.09000000    0.03000000
   21.33555603   87.50469971    0.09000000    0.03000000
   21.33889008   90.36990356    0.09000000    0.03000000
   21.34194565   97.92430115    0.09000000    0.03000000
   21.34277916   94.87370300    0.09000000    0.03000000
   21.34555626   91.04519653    0.09000000    0.03000000
   21.34889030   88.78890228    0.09000000    0.03000000
   21.35194397   91.10610199    0.09000000    0.03000000
   21.35527802   97.95749664    0.09000000    0.03000000
   21.35861206   93.05380249    0.09000000    0.03000000
   21.36444473   93.05380249    0.09000000    0.03000000
   21.36861038   89.00550079    0.09000000    0.03000000
   21.37166595   89.83190155    0.09000000    0.03000000
   21.37500000   90.66249847    0.09000000    0.03000000
   21.38583374   90.23139954    0.09000000    0.03000000
   21.38805580   88.58599854    0.09000000    0.03000000
   21.39111137   91.15670013    0.09000000    0.03000000
   21.39444351   96.70259857    0.09000000    0.03000000
   21.39777756   92.33719635    0.09000000    0.03000000
   21.40111160   90.50689697    0.09000000    0.03000000
   21.40416718   90.81960297    0.09000000    0.03000000
   21.40749931  104.18099976    0.09000000    0.03000000
   21.41333389  104.18099976    0.09000000    0.03000000
   21.41749954  109.94000244    0.09000000    0.03000000
   21.42083359   85.60690308    0.09000000    0.03000000
   21.42416573  102.90399933    0.09000000    0.03000000
   21.42722130   87.19689941    0.09000000    0.03000000
   21.43055534   96.89630127    0.09000000    0.03000000
   21.44305420   88.62529755    0.00000000    0.00000000
   21.44416618   96.49520111    0.09000000    0.03000000
   21.44666672   95.84850311    0.09000000    0.03000000
   21.45000076   98.61019897    0.09000000    0.03000000
   21.45639038   98.61019897    0.09000000    0.03000000
   21.46055603   92.72229767    0.09000000    0.03000000
   21.46361160   93.59010315    0.09000000    0.03000000
   21.46694565   91.54000092    0.09000000    0.03000000
   21.47027779   87.47229767    0.09000000    0.03000000
   21.47333336   92.14209747    0.09000000    0.03000000
   21.47666740   97.17919922    0.09000000    0.03000000
   21.47750092   99.95559692    0.09000000    0.03000000
   21.48027802   99.32949829    0.09000000    0.03000000
   21.48361206   94.41970062    0.09000000    0.03000000
   21.48666763   88.97720337    0.09000000    0.03000000
   21.48999977   90.68160248    0.09000000    0.03000000
   21.49611092   89.69860077    0.09000000    0.03000000
   21.50027847   89.69860077    0.09000000    0.03000000
   21.50444412   99.25789642    0.09000000    0.03000000
   21.50749969   90.42659760    0.09000000    0.03000000
   21.51083374   80.02529907    0.09000000    0.03000000
   21.51166725   93.06690216    0.09000000    0.03000000
   21.51444435  101.85700226    0.09000000    0.03000000
   21.51777840   85.40190125    0.09000000    0.03000000
   21.52083397  100.81500244    0.09000000    0.03000000
   21.52416611   95.56420135    0.09000000    0.03000000
   21.52750015   97.99749756    0.09000000    0.03000000
   21.53055573   95.20860291    0.09000000    0.03000000
   21.53388786   98.94139862    0.09000000    0.03000000
   21.53722191   98.27960205    0.09000000    0.03000000
   21.55222130   98.27960205    0.09000000    0.03000000
   21.55638885   99.90450287    0.09000000    0.03000000
   21.55944443   96.77429962    0.09000000    0.03000000
   21.56277657   93.20680237    0.09000000    0.03000000
   21.56638718   96.09690094    0.09000000    0.03000000
   21.57861137   98.87470245    0.00000000    0.00000000
   21.58194542   92.39530182    0.09000000    0.03000000
   21.58833313   92.39530182    0.09000000    0.03000000
   21.59250069   94.24749756    0.09000000    0.03000000
   21.59500122  106.48699951    0.09000000    0.03000000
   21.59694481  102.16799927    0.09000000    0.03000000
   21.60000038   99.41639709    0.09000000    0.03000000
   21.60333443  109.14700317    0.09000000    0.03000000
   21.60639000  110.04399872    0.09000000    0.03000000
   21.60972214  105.76000214    0.09000000    0.03000000
   21.61305618  111.92800140    0.09000000    0.03000000
   21.61611176  101.92099762    0.09000000    0.03000000
   21.61972237  113.93299866    0.09000000    0.03000000
   21.62305641  119.33699799    0.09000000    0.03000000
   21.62638855  165.64799500    0.09000000    0.03000000
   21.63111115  165.64799500    0.09000000    0.03000000
   21.63500023   -1.00000000    0.09000000    0.03000000
   21.63833237   -1.00000000    0.09000000    0.03000000
   21.64249992   -1.00000000    0.09000000    0.03000000
   21.64583397   -1.00000000    0.09000000    0.03000000
   21.64888954   -1.00000000    0.09000000    0.03000000
   21.65222168   -1.00000000    0.09000000    0.03000000
   21.65555573   -1.00000000    0.09000000    0.03000000
   21.65861130   -1.00000000    0.09000000    0.03000000
   21.66222191   -1.00000000    0.09000000    0.03000000
   21.66555595   -1.00000000    0.09000000    0.03000000
   21.66860962   -1.00000000    0.09000000    0.03000000
   21.67777634   -1.00000000    0.09000000    0.03000000
   21.68111038   -1.00000000    0.09000000    0.03000000
   21.68444443   -1.00000000    0.09000000    0.03000000
   21.68750000   -1.00000000    0.09000000    0.03000000
   21.69083214   -1.00000000    0.09000000    0.03000000
   21.69416618   -1.00000000    0.09000000    0.03000000
   21.69749832   -1.00000000    0.09000000    0.03000000
   21.70083427   -1.00000000    0.09000000    0.03000000
   21.70388985   -1.00000000    0.09000000    0.03000000
   21.70722389   -1.00000000    0.09000000    0.03000000
   21.71055603   -1.00000000    0.09000000    0.03000000
   21.72083473   -1.00000000    0.09000000    0.03000000
   21.74083328   -1.00000000    0.00000000    0.00000000
   21.74444389   -1.00000000    0.09000000    0.03000000
   21.74777794   -1.00000000    0.09000000    0.03000000
   21.75111198   -1.00000000    0.09000000    0.03000000
   21.76305580   -1.00000000    0.00000000    0.00000000
   21.77111053   -1.00000000    0.09000000    0.03000000
   21.77444458   -1.00000000    0.09000000    0.03000000
   21.77777672   -1.00000000    0.09000000    0.03000000
   21.78138924   -1.00000000    0.09000000    0.03000000
   21.78444481   -1.00000000    0.09000000    0.03000000
   21.78777695   -1.00000000    0.09000000    0.03000000
   21.79972076   -1.00000000    0.00000000    0.00000000
   21.80305481   -1.00000000    0.09000000    0.03000000
   21.80638885   -1.00000000    0.09000000    0.03000000
   21.81444359   -1.00000000    0.09000000    0.03000000
   21.81805611   -1.00000000    0.09000000    0.03000000
   21.82139015   -1.00000000    0.09000000    0.03000000
   21.82444572   -1.00000000    0.09000000    0.03000000
   21.82777786   -1.00000000    0.09000000    0.03000000
   21.83111191   -1.00000000    0.09000000    0.03000000
   21.83416748   -1.00000000    0.09000000    0.03000000
   21.83777809   -1.00000000    0.09000000    0.03000000
   21.84111214   -1.00000000    0.09000000    0.03000000
   21.84416771   -1.00000000    0.09000000    0.03000000
