    HOUR (UT)   FLARE FACTOR    SKY TESTER    SUN TESTER
   11.43944454   -1.00000000   -1.00000000   -1.00000000
   11.47666645   95.41179657    0.55000001    2.44000006
   11.48194408   94.54280090    0.55000001    2.44000006
   11.48638916   94.33480072    0.55000001    2.44000006
   11.48972225   96.01349640    0.55000001    2.44000006
   11.49277782   94.79589844    0.55000001    2.44000006
   11.49611092   95.68869781    0.55000001    2.42000008
   11.49944496  101.07099915    0.55000001    2.44000006
   11.50249958   90.88749695    0.55000001    2.44000006
   11.50583363   90.53479767    0.55000001    2.44000006
   11.50888920   95.30660248    0.55000001    2.44000006
   11.50972176   97.82769775    0.55000001    2.44000006
   11.51249981   96.58679962    0.55000001    2.44000006
   11.51583290   93.12570190    0.55000001    2.44000006
   11.51888847   93.61190033    0.55000001    2.44000006
   11.52222157   97.30280304    0.55000001    2.46000004
   11.52527714   97.94680023    0.55000001    2.46000004
   11.52861118   98.26110077    0.55000001    2.46000004
   11.53194427  104.19899750    0.55000001    2.46000004
   11.53500080  105.28299713    0.55000001    2.46000004
   11.53833389  102.67199707    0.55000001    2.46000004
   11.54166698   95.67019653    0.55000001    2.46000004
   11.54305553  103.56500244    0.55000001    2.46000004
   11.54527855  102.79399872    0.55000001    2.46000004
   11.54833412   97.93890381    0.55000001    2.46000004
   11.55166721   93.21630096    0.55000001    2.46000004
   11.55500031   97.93360138    0.55000001    2.46000004
   11.55805588   94.74810028    0.55000001    2.46000004
   11.56166649   92.78510284    0.55000001    2.46000004
   11.56472206   92.59889984    0.55000001    2.46000004
   11.56805515   92.39119720    0.55000001    2.46000004
   11.57138920   92.36360168    0.55000001    2.46000004
   11.57444477   91.59609985    0.55000001    2.46000004
   11.57638836   98.40019989    0.56999999    2.46000004
   11.57805538  101.11699677    0.56999999    2.46000004
   11.58138847   96.80049896    0.56999999    2.46000004
   11.58444405   93.85399628    0.56999999    2.46000004
   11.58777714  116.16400146    0.56999999    2.46000004
   11.59111118  145.15199280    0.56999999    2.46000004
   11.59416676  111.75900269    0.56999999    2.48000002
   11.59749985  126.70500183    0.56999999    2.48000002
   11.60083389   99.57199860    0.56999999    2.48000002
   11.60416698   96.33209991    0.56999999    2.48000002
   11.60722256  107.24099731    0.56999999    2.48000002
   11.60972214  101.89499664    0.55000001    2.48000002
   11.61083412  126.16899872    0.55000001    2.48000002
   11.61416721  148.25900269    0.56999999    2.48000002
   11.61722279  119.53500366    0.56999999    2.48000002
   11.62055588  129.78100586    0.56999999    2.48000002
   11.62388897  137.34899902    0.56999999    2.48000002
   11.62694454  154.66000366    0.55000001    2.48000002
   11.63027763  172.63699341    0.55000001    2.48000002
   11.63333321  152.98599243    0.56999999    2.48000002
   11.63666630  215.13600159    0.55000001    2.48000002
   11.64000034  205.07200623    0.56999999    2.48000002
   11.64305496  167.46899414    0.56999999    2.48000002
   11.64361095  183.46000671    0.55000001    2.50000000
   11.64694405  199.67100525    0.55000001    2.50000000
   11.64999962  197.19799805    0.55000001    2.50000000
   11.65333271  176.18299866    0.55000001    2.48000002
   11.65666676  171.74499512    0.55000001    2.50000000
   11.65972137  172.97700500    0.55000001    2.50000000
   11.66305542  129.43200684    0.55000001    2.50000000
   11.66611099  160.91900635    0.55000001    2.50000000
   11.66944504  158.34500122    0.55000001    2.50000000
   11.67277813  142.11399841    0.55000001    2.50000000
   11.67583370  150.76699829    0.55000001    2.51999998
   11.67638874  147.13099670    0.55000001    2.51999998
   11.67944431  154.73699951    0.55000001    2.50000000
   11.68277836  139.53700256    0.55000001    2.50000000
   11.68583298  136.44900513    0.55000001    2.50000000
   11.68916702  160.39100647    0.55000001    2.51999998
   11.69250011  131.41499329    0.52999997    2.50000000
   11.69555569  114.99600220    0.55000001    2.50000000
   11.69888878  123.96600342    0.55000001    2.50000000
   11.70194435  141.54800415    0.55000001    2.51999998
   11.70527744  121.26899719    0.55000001    2.50000000
   11.70861053  120.49199677    0.55000001    2.51999998
   11.70972157  104.27100372    0.55000001    2.51999998
   11.71222210  122.25299835    0.55000001    2.51999998
   11.71555519  116.52300262    0.55000001    2.50000000
   11.71861076  107.86199951    0.55000001    2.51999998
   11.72194386  120.61900330    0.55000001    2.51999998
   11.72527695  104.63600159    0.55000001    2.51999998
   11.72833252  108.95099640    0.55000001    2.51999998
   11.73166656   91.80560303    0.55000001    2.51999998
   11.73472214  110.21900177    0.55000001    2.51999998
   11.73805618  115.89399719    0.56999999    2.51999998
   11.74138927   92.95210266    0.56999999    2.51999998
   11.74305534   90.65779877    0.56999999    2.51999998
   11.74499989   86.52989960    0.56999999    2.51999998
   11.74833393   96.25080109    0.55000001    2.53999996
   11.75138855  110.19799805    0.55000001    2.53999996
   11.75472260  109.03399658    0.55000001    2.51999998
   11.75805569   91.45140076    0.55000001    2.51999998
   11.76111126   95.19419861    0.55000001    2.51999998
   11.76444435   99.52770233    0.55000001    2.51999998
   11.76777744   89.44280243    0.55000001    2.53999996
   11.77083302   94.59159851    0.55000001    2.53999996
   11.77416611   91.04250336    0.55000001    2.53999996
   11.77638817   92.55509949    0.55000001    2.53999996
   11.77777767   91.05049896    0.55000001    2.53999996
   11.78111076   96.16690063    0.55000001    2.53999996
   11.78416729   93.49790192    0.55000001    2.53999996
   11.78750038   91.26390076    0.55000001    2.53999996
   11.79083347   89.16320038    0.55000001    2.53999996
   11.79416752   92.30460358    0.55000001    2.53999996
   11.79722309   89.89340210    0.55000001    2.53999996
   11.80055618   88.64430237    0.55000001    2.53999996
   11.80361176   93.70659637    0.55000001    2.53999996
   11.80694485   95.14489746    0.55000001    2.53999996
   11.81000042   91.30799866    0.52999997    2.53999996
   11.81055546   93.65540314    0.52999997    2.53999996
   11.81388950   90.77909851    0.52999997    2.53999996
   11.81694412  101.91100311    0.52999997    2.53999996
   11.82027817  104.41600037    0.52999997    2.53999996
   11.82361126   99.69270325    0.52999997    2.53999996
   11.82666683  101.62799835    0.52999997    2.53999996
   11.82999992   89.96569824    0.51999998    2.53999996
   11.83333302   92.27909851    0.52999997    2.55999994
   11.83638859   94.04080200    0.51999998    2.55999994
   11.83972168   97.61109924    0.51999998    2.55999994
   11.84277725   87.48600006    0.51999998    2.53999996
   11.84333324   96.24310303    0.51999998    2.53999996
   11.84666634   92.18509674    0.51999998    2.53999996
   11.85000038   91.96959686    0.51999998    2.53999996
   11.85305595   95.26619720    0.51999998    2.53999996
   11.85638905  101.81199646    0.52999997    2.55999994
   11.85944462   94.05310059    0.51999998    2.55999994
   11.86277771   93.37570190    0.51999998    2.55999994
   11.86611176   94.75759888    0.51999998    2.55999994
   11.86916637   92.74030304    0.52999997    2.55999994
   11.87250042   94.91159821    0.51999998    2.55999994
   11.87583351   93.60579681    0.51999998    2.55999994
   11.87666702   95.71209717    0.51999998    2.55999994
   11.87944412   91.89050293    0.51999998    2.53999996
   11.88277817   93.69190216    0.51999998    2.53999996
   11.88583279   93.79599762    0.51999998    2.55999994
   11.88916683   93.19629669    0.51999998    2.55999994
   11.89222240   99.10639954    0.51999998    2.55999994
   11.89555550   95.25270081    0.51999998    2.55999994
   11.89888859   94.95989990    0.51999998    2.55999994
   11.90194416   95.65239716    0.51999998    2.55999994
   11.90527725   93.20390320    0.51999998    2.55999994
   11.90861034   96.43540192    0.51999998    2.57999992
   11.90999985   92.78790283    0.51999998    2.55999994
   11.91222191   89.41639709    0.51999998    2.55999994
   11.91555500   91.79499817    0.51999998    2.55999994
   11.91861153  101.01399994    0.52999997    2.55999994
   11.92194462   86.55480194    0.51999998    2.55999994
   11.92527771   94.03849792    0.51999998    2.55999994
   11.92833328   90.30619812    0.52999997    2.55999994
   11.93166733   90.25830078    0.51999998    2.55999994
   11.93472195   92.50090027    0.51999998    2.55999994
   11.93805599   96.48960114    0.51999998    2.55999994
   11.94138908   92.57019806    0.51999998    2.57999992
   11.94333363   89.30120087    0.51999998    2.57999992
   11.94499969   91.79350281    0.52999997    2.57999992
   11.94833374   91.33260345    0.52999997    2.57999992
   11.95138836   92.19219971    0.51999998    2.55999994
   11.95472240   91.93640137    0.51999998    2.57999992
   11.95777798   92.01329803    0.51999998    2.57999992
   11.96111107   95.21299744    0.51999998    2.57999992
   11.96444416   89.62270355    0.51999998    2.59999990
   11.96749973   92.65589905    0.51999998    2.59999990
   11.97083282   93.87079620    0.51999998    2.57999992
   11.97416592   95.86530304    0.51999998    2.57999992
   11.97666645   95.64119720    0.52999997    2.57999992
   11.97777748   95.27559662    0.52999997    2.57999992
   11.98111057   91.75969696    0.51999998    2.59999990
   11.98416710   93.28929901    0.51999998    2.57999992
   11.98750019   93.18029785    0.51999998    2.57999992
   11.99083328   92.61329651    0.51999998    2.57999992
   11.99388885   93.02249908    0.51999998    2.57999992
   11.99722290   93.34680176    0.51999998    2.59999990
   12.00055599   99.40299988    0.51999998    2.59999990
   12.00361156   93.76920319    0.51999998    2.59999990
   12.00694466   96.91110229    0.51999998    2.59999990
   12.01000023   94.51069641    0.50000000    2.59999990
   12.01055527   96.86540222    0.50000000    2.59999990
   12.01361084   92.39559937    0.50000000    2.59999990
   12.01694393   92.71230316    0.50000000    2.59999990
   12.02027798   93.29389954    0.51999998    2.57999992
   12.02333355   96.66889954    0.51999998    2.59999990
   12.02666664   92.53720093    0.51999998    2.57999992
   12.02999973   95.54850006    0.51999998    2.59999990
   12.03305531   94.81809998    0.50000000    2.59999990
   12.03638935   92.88150024    0.50000000    2.59999990
   12.03944492   89.05699921    0.50000000    2.57999992
   12.04277802   89.76809692    0.50000000    2.59999990
   12.04333401   87.97709656    0.50000000    2.59999990
   12.04638958   92.47920227    0.50000000    2.57999992
   12.04972267   94.91880035    0.50000000    2.57999992
   12.05277824   91.10250092    0.50000000    2.59999990
   12.05611134   93.35030365    0.50000000    2.59999990
   12.05944443   92.47399902    0.50000000    2.59999990
   12.06250000   97.20330048    0.50000000    2.59999990
   12.06583309   92.49909973    0.50000000    2.59999990
   12.06888866   93.10240173    0.50000000    2.59999990
   12.07222176   94.44059753    0.50000000    2.59999990
   12.07555580   94.87129974    0.50000000    2.59999990
   12.07666683   96.83239746    0.50000000    2.59999990
   12.07916641   98.06600189    0.50000000    2.59999990
   12.08249950  101.23999786    0.50000000    2.59999990
   12.08555508   99.19020081    0.50000000    2.57999992
   12.08888817  102.59700012    0.47999999    2.59999990
   12.09194374   98.25309753    0.47999999    2.59999990
   12.09527779   96.33679962    0.50000000    2.59999990
   12.09861088   93.00959778    0.47999999    2.59999990
   12.10166740   97.27739716    0.47999999    2.59999990
   12.10500050   93.45099640    0.47999999    2.59999990
   12.10833359   92.94210052    0.47999999    2.59999990
   12.11000061  103.62899780    0.47999999    2.59999990
   12.11194515   92.49500275    0.47999999    2.59999990
   12.11527824   91.51049805    0.47999999    2.59999990
   12.11833382   96.08090210    0.47999999    2.59999990
   12.12166691   94.55879974    0.47999999    2.59999990
   12.12500000   90.49050140    0.47999999    2.59999990
   12.12833309   96.16970062    0.47999999    2.59999990
   12.13138866   98.27349854    0.47999999    2.59999990
   12.13472176   94.96769714    0.47999999    2.59999990
   12.13777733   94.93979645    0.47999999    2.59999990
   12.14111137   99.46499634    0.47999999    2.61999989
   12.14333344   89.59079742    0.47999999    2.61999989
   12.14472198   92.85669708    0.47999999    2.61999989
   12.14805508   92.76159668    0.47999999    2.61999989
   12.15111065   99.28260040    0.47999999    2.61999989
   12.15444374   98.09619904    0.47999999    2.61999989
   12.15749931   92.69139862    0.47999999    2.61999989
   12.16083336   93.24389648    0.47999999    2.61999989
   12.16416645   94.00920105    0.47999999    2.61999989
   12.16722298   96.68509674    0.47999999    2.61999989
   12.17055607   98.73000336    0.47999999    2.61999989
   12.17388916   98.15609741    0.47999999    2.61999989
   12.17666721   96.10530090    0.47999999    2.61999989
   12.17750072   92.60009766    0.47999999    2.61999989
   12.18083382   95.10859680    0.47999999    2.64000010
   12.18388939   93.87149811    0.47999999    2.61999989
   12.18722248   94.81670380    0.47999999    2.61999989
   12.19055557   93.63860321    0.47999999    2.61999989
   12.19361115   92.02989960    0.47999999    2.61999989
   12.19694424   88.01460266    0.47999999    2.61999989
   12.19999981   92.09380341    0.47999999    2.61999989
   12.20333290   93.73400116    0.47999999    2.61999989
   12.20666695   97.15219879    0.47999999    2.61999989
   12.20972157   95.58409882    0.47999999    2.61999989
   12.21027756   98.94680023    0.47999999    2.61999989
   12.21361065   92.02839661    0.46000001    2.61999989
   12.21666622   97.03639984    0.46000001    2.61999989
   12.21999931   93.39710236    0.47999999    2.61999989
   12.22333336   95.12599945    0.46000001    2.61999989
   12.22638798   92.64669800    0.46000001    2.61999989
   12.22972202   93.65869904    0.46000001    2.61999989
   12.23305511   95.51439667    0.46000001    2.64000010
   12.23611164   92.67320251    0.47999999    2.64000010
   12.23944473   93.11090088    0.47999999    2.64000010
   12.24250031  101.25399780    0.47999999    2.64000010
   12.24361134   93.66729736    0.47999999    2.64000010
   12.24638939   94.42859650    0.47999999    2.61999989
   12.24944496   96.79370117    0.47999999    2.64000010
   12.25277805  102.50199890    0.47999999    2.64000010
   12.25611115  100.95200348    0.47999999    2.64000010
   12.25916672   98.59619904    0.47999999    2.64000010
   12.26249981   97.29170227    0.46000001    2.61999989
   12.26555538  105.95800018    0.46000001    2.61999989
   12.26888847  110.33899689    0.46000001    2.61999989
   12.27222157  126.62000275    0.46000001    2.64000010
   12.27527714  135.51100159    0.47999999    2.64000010
   12.27694416  121.80699921    0.47999999    2.64000010
   12.27916622  138.61799622    0.46000001    2.64000010
   12.28222179  161.13900757    0.46000001    2.64000010
   12.28555584  144.67799377    0.46000001    2.61999989
   12.28888893  151.37800598    0.47999999    2.61999989
   12.29194450  137.35000610    0.47999999    2.64000010
   12.29527855  136.00799561    0.47999999    2.64000010
   12.29861164  132.25799561    0.47999999    2.64000010
   12.30166721  131.07699585    0.47999999    2.61999989
   12.30500031  125.00399780    0.46000001    2.64000010
   12.30805588  128.97900391    0.46000001    2.64000010
   12.31027794  124.18800354    0.46000001    2.64000010
   12.31194496  124.45800018    0.46000001    2.64000010
   12.31527805  128.62399292    0.46000001    2.64000010
   12.31833363  121.23600006    0.46000001    2.64000010
   12.32166672  139.81599426    0.47999999    2.64000010
   12.32472229  124.95899963    0.46000001    2.64000010
   12.32805538  115.84100342    0.46000001    2.64000010
   12.33138847  118.33699799    0.47999999    2.64000010
   12.33444405  123.86199951    0.46000001    2.61999989
   12.33777714  118.49199677    0.47999999    2.64000010
   12.34083271  122.92900085    0.47999999    2.64000010
   12.34361076  115.41699982    0.46000001    2.64000010
   12.34472179  116.18599701    0.46000001    2.64000010
   12.34777737  116.87599945    0.46000001    2.64000010
   12.35111141  112.97699738    0.46000001    2.64000010
   12.35444450  115.76999664    0.46000001    2.64000010
   12.35750008  109.27200317    0.46000001    2.64000010
   12.36083412  119.35600281    0.46000001    2.64000010
   12.36416721  111.70700073    0.46000001    2.64000010
   12.36722279  119.79599762    0.47999999    2.64000010
   12.37055588  108.76499939    0.46000001    2.64000010
   12.37361145  112.12999725    0.46000001    2.64000010
   12.37694454  114.66100311    0.46000001    2.64000010
   12.37750053  114.04100037    0.46000001    2.64000010
   12.38055611  104.07299805    0.46000001    2.64000010
   12.38388920  116.77899933    0.47999999    2.64000010
   12.38722229  119.40499878    0.46000001    2.64000010
   12.39027786  114.01699829    0.46000001    2.64000010
   12.39361095  120.20800018    0.46000001    2.64000010
   12.39694405  121.26200104    0.46000001    2.64000010
   12.39999962  113.26899719    0.46000001    2.64000010
   12.40333271  109.39499664    0.46000001    2.66000009
   12.40638828  117.93299866    0.46000001    2.66000009
   12.40972137  109.99400330    0.46000001    2.66000009
   12.41027737  108.13899994    0.46000001    2.64000010
   12.41333294  105.85399628    0.46000001    2.64000010
   12.41638851  108.55999756    0.46000001    2.66000009
   12.41972256  118.07599640    0.46000001    2.66000009
   12.42305565  114.15200043    0.46000001    2.66000009
   12.42638874  106.67700195    0.46000001    2.66000009
   12.42944431  109.82499695    0.46000001    2.66000009
   12.43277836  116.18599701    0.46000001    2.66000009
   12.43583298  114.11599731    0.44000000    2.66000009
   12.43916702  114.59400177    0.44000000    2.66000009
   12.44250011  126.37999725    0.44000000    2.66000009
   12.44361115  122.63500214    0.44000000    2.66000009
   12.44611073  114.57399750    0.44000000    2.66000009
   12.44916630  121.27300262    0.44000000    2.66000009
   12.45249939  126.50499725    0.44000000    2.66000009
   12.45583344  110.05799866    0.44000000    2.66000009
   12.45888901  114.37799835    0.46000001    2.66000009
   12.46222210  112.46399689    0.46000001    2.66000009
   12.46555519  105.82399750    0.46000001    2.66000009
   12.46861076  104.54399872    0.46000001    2.66000009
   12.47194386  106.44699860    0.46000001    2.66000009
   12.47499943  101.93000031    0.44000000    2.66000009
   12.49305534  102.74600220    0.44000000    2.66000009
   12.49499989  106.12400055    0.44000000    2.66000009
   12.49833393  111.89900208    0.44000000    2.67000008
   12.50138855  102.65299988    0.44000000    2.66000009
   12.50472260  106.44499969    0.44000000    2.67000008
   12.50777817  106.55300140    0.44000000    2.66000009
   12.51111126  100.08599854    0.44000000    2.66000009
   12.51444435   92.22119904    0.44000000    2.66000009
   12.51749992   99.02020264    0.44000000    2.67000008
   12.52083302   99.65229797    0.41999999    2.67000008
   12.52416611   97.45079803    0.41999999    2.67000008
   12.52638817   97.69650269    0.41999999    2.66000009
   12.52777767   97.24410248    0.41999999    2.66000009
   12.53083324   91.24069977    0.41999999    2.67000008
   12.53416729   93.42919922    0.41999999    2.67000008
   12.53722286   93.59200287    0.41999999    2.67000008
   12.54055595   95.90550232    0.44000000    2.67000008
   12.54388905   92.18470001    0.44000000    2.66000009
   12.54722309   91.25759888    0.41999999    2.67000008
   12.55027771   95.09380341    0.41999999    2.67000008
   12.55361176   98.13760376    0.41999999    2.67000008
   12.55694485  103.63899994    0.41999999    2.67000008
   12.55972195  100.64199829    0.44000000    2.66000009
   12.56055546   97.15000153    0.44000000    2.66000009
   12.56361103   94.76760101    0.41999999    2.67000008
   12.56694412   96.87169647    0.41999999    2.67000008
   12.57027817   93.08419800    0.41999999    2.67000008
   12.57333374   99.56479645    0.41999999    2.67000008
   12.57666683   93.53050232    0.41999999    2.67000008
   12.57972240   95.17530060    0.41999999    2.67000008
   12.58305550   97.32330322    0.41999999    2.67000008
   12.58638859   92.46749878    0.41999999    2.67000008
   12.58944416   89.80339813    0.44000000    2.66000009
   12.59277725   95.87960052    0.41999999    2.67000008
   12.59333324   88.16480255    0.41999999    2.67000008
   12.59638882   92.53450012    0.41999999    2.67000008
   12.59972191   92.04389954    0.41999999    2.67000008
   12.60305595  100.78399658    0.41999999    2.67000008
   12.60611153  109.14099884    0.41999999    2.67000008
   12.60944462  111.34799957    0.44000000    2.67000008
   12.61277771  103.37699890    0.41999999    2.67000008
   12.61583328  103.70200348    0.41999999    2.69000006
   12.61916637  102.91899872    0.41999999    2.69000006
   12.62222195   97.42520142    0.41999999    2.67000008
   12.62555599  114.28399658    0.41999999    2.67000008
   12.62666702  105.17299652    0.41999999    2.67000008
   12.62916660  112.70999908    0.41999999    2.69000006
   12.63249969  103.17099762    0.41999999    2.67000008
   12.63583279  107.55799866    0.41999999    2.67000008
   12.63888836   99.80229950    0.41999999    2.67000008
   12.64222240   99.92900085    0.41999999    2.67000008
   12.64555550   97.55490112    0.41999999    2.69000006
   12.64861107  105.92500305    0.41999999    2.69000006
   12.65194416   98.14109802    0.41999999    2.67000008
   12.65527725  105.68699646    0.41999999    2.69000006
   12.65833282  100.28500366    0.41999999    2.69000006
   12.65999985   97.74369812    0.41999999    2.69000006
   12.66194439  100.55000305    0.41999999    2.69000006
   12.66527748  100.34899902    0.41999999    2.69000006
   12.66861153   94.71540070    0.41999999    2.69000006
   12.67166710  107.83899689    0.44000000    2.69000006
   12.67500019  100.73100281    0.41999999    2.69000006
   12.67833328  113.54100037    0.44000000    2.69000006
   12.68138885  111.83200073    0.44000000    2.69000006
   12.68472195  112.27899933    0.41999999    2.67000008
   12.68777752  114.24800110    0.41999999    2.69000006
   12.69111156  104.97000122    0.41999999    2.69000006
   12.69333363  108.61199951    0.41999999    2.67000008
   12.69472218  118.39199829    0.41999999    2.67000008
   12.69805527  108.74800110    0.41999999    2.69000006
   12.70138836  104.63600159    0.44000000    2.69000006
   12.70444393  107.72000122    0.44000000    2.69000006
   12.70777798  112.18399811    0.41999999    2.69000006
   12.71111107  106.95800018    0.41999999    2.69000006
   12.71416664  107.90499878    0.41999999    2.69000006
   12.71749973  109.54599762    0.41999999    2.69000006
   12.72083282  107.81099701    0.41999999    2.69000006
   12.72416592  113.87400055    0.41999999    2.69000006
   12.72666645  115.66300201    0.41999999    2.69000006
   12.72777748  109.42900085    0.41999999    2.71000004
   12.73083305  103.04199982    0.41999999    2.71000004
   12.73416710  116.80799866    0.44000000    2.71000004
   12.73750019  107.98100281    0.41999999    2.69000006
   12.74055576  106.94499969    0.41999999    2.69000006
   12.74388885  111.10700226    0.44000000    2.71000004
   12.74694443   95.91690063    0.41999999    2.71000004
   12.75027752  111.33399963    0.44000000    2.69000006
   12.75361156  108.12999725    0.41999999    2.69000006
   12.75666714  101.48000336    0.44000000    2.69000006
   12.76000023  108.72200012    0.44000000    2.69000006
   12.76027775  102.21900177    0.44000000    2.69000006
   12.76361084  100.83699799    0.41999999    2.69000006
   12.76694393  101.29699707    0.41999999    2.69000006
   12.76999950  104.52500153    0.41999999    2.69000006
   12.77333355  105.83300018    0.41999999    2.69000006
   12.77666664  106.45800018    0.41999999    2.69000006
   12.77972221  113.33499908    0.41999999    2.69000006
   12.78305531  101.92199707    0.41999999    2.69000006
   12.78611183  105.54299927    0.41999999    2.69000006
   12.78944492  109.87500000    0.40000001    2.69000006
   12.79277802  111.01499939    0.40000001    2.69000006
   12.79333401   99.63150024    0.40000001    2.69000006
   12.79638958  104.58999634    0.40000001    2.71000004
   12.79944515  103.54499817    0.40000001    2.69000006
   12.80277824  107.57299805    0.40000001    2.69000006
   12.80611134  102.21199799    0.41999999    2.71000004
   12.80916691  111.67199707    0.40000001    2.71000004
   12.81250000  108.79399872    0.40000001    2.69000006
   12.81555557  112.14299774    0.40000001    2.69000006
   12.81888866  107.82700348    0.40000001    2.69000006
   12.82222176  103.96299744    0.40000001    2.71000004
   12.82527733   99.91259766    0.40000001    2.71000004
   12.82666683  111.17800140    0.40000001    2.71000004
   12.82916641  110.27999878    0.40000001    2.69000006
   12.83222198   96.13439941    0.40000001    2.71000004
   12.83555508  108.85800171    0.40000001    2.71000004
   12.83861065  109.74700165    0.41999999    2.71000004
   12.84194374  105.19999695    0.41999999    2.71000004
   12.84527779  106.62899780    0.41999999    2.71000004
   12.84833336  120.51599884    0.41999999    2.71000004
   12.85166740  107.44699860    0.41999999    2.71000004
   12.85472298  111.21499634    0.41999999    2.71000004
   12.85805607  114.77999878    0.41999999    2.71000004
   12.86000061  109.13600159    0.41999999    2.71000004
   12.86194515  124.44699860    0.41999999    2.71000004
   12.86500072  111.77500153    0.41999999    2.71000004
   12.86833382  114.77100372    0.41999999    2.71000004
   12.87138939  114.89700317    0.41999999    2.71000004
   12.87472248  100.41799927    0.41999999    2.71000004
   12.87805557  111.56999969    0.41999999    2.71000004
   12.88138866  113.84700012    0.41999999    2.71000004
   12.88444424  119.06199646    0.41999999    2.71000004
   12.88777733  112.75800323    0.41999999    2.71000004
   12.89111137  119.53500366    0.41999999    2.71000004
   12.89333344  130.20100403    0.41999999    2.71000004
   12.89472198  120.32399750    0.41999999    2.71000004
   12.89777756  113.79599762    0.41999999    2.71000004
   12.90111065  107.80300140    0.41999999    2.71000004
   12.90416622  110.03099823    0.41999999    2.71000004
   12.90749931  118.44899750    0.41999999    2.71000004
   12.91083336  116.26999664    0.41999999    2.71000004
   12.91388893  117.52899933    0.41999999    2.71000004
   12.91722298  116.09899902    0.41999999    2.71000004
   12.92055607  117.75399780    0.41999999    2.71000004
   12.92361164  111.18900299    0.41999999    2.71000004
   12.92666721  118.15200043    0.41999999    2.71000004
   12.92750072  123.11699677    0.41999999    2.71000004
   12.93055630  119.68399811    0.40000001    2.73000002
   12.93388939  114.05799866    0.40000001    2.73000002
   12.93694496  106.79499817    0.41999999    2.71000004
   12.94027805  110.66799927    0.40000001    2.71000004
   12.94361115  113.49400330    0.40000001    2.71000004
   12.94666672  125.97499847    0.40000001    2.73000002
   12.94999981  109.51899719    0.40000001    2.71000004
   12.95305538  114.68800354    0.41999999    2.73000002
   12.95638847  116.31099701    0.40000001    2.71000004
   12.95972157  111.95899963    0.40000001    2.73000002
   12.96027756  118.56800079    0.40000001    2.73000002
   12.96305561  109.05200195    0.40000001    2.73000002
   12.96638870  114.98999786    0.40000001    2.71000004
   12.96944427  123.64299774    0.40000001    2.71000004
   12.97277737  129.27400208    0.40000001    2.71000004
   12.97611046  123.90399933    0.40000001    2.73000002
   12.97916603  126.99800110    0.40000001    2.71000004
   12.98249912  122.29499817    0.40000001    2.73000002
   12.98583317  121.24900055    0.40000001    2.73000002
   12.98888874  133.88000488    0.40000001    2.71000004
   12.99222279  115.91300201    0.40000001    2.71000004
   12.99361134  116.05300140    0.40000001    2.73000002
   12.99583340  129.01899719    0.40000001    2.73000002
   12.99916649  131.51600647    0.40000001    2.71000004
   13.00222206  119.40000153    0.40000001    2.71000004
   13.00555515  125.02899933    0.40000001    2.73000002
   13.00888920  121.55100250    0.40000001    2.71000004
   13.01194477  126.86399841    0.40000001    2.73000002
   13.01527786  145.46299744    0.40000001    2.71000004
   13.01861095  134.25700378    0.40000001    2.71000004
   13.02166653  128.97300720    0.38000000    2.71000004
   13.02499962  153.11099243    0.38000000    2.73000002
   13.02694416  154.14999390    0.38000000    2.73000002
   13.02861118  129.41400146    0.38000000    2.73000002
   13.03194427  130.92599487    0.38000000    2.73000002
   13.03527832  148.04299927    0.40000001    2.73000002
   13.03833389  143.90299988    0.38000000    2.73000002
   13.04166698  134.33000183    0.38000000    2.73000002
   13.04472256  145.39100647    0.38000000    2.73000002
   13.04805565  150.86900330    0.38000000    2.73000002
   13.05138874  137.56300354    0.38000000    2.73000002
   13.05444431  151.84599304    0.38000000    2.73000002
   13.05777836  139.67100525    0.38000000    2.73000002
   13.06027794  124.97699738    0.38000000    2.73000002
   13.06138897  146.33900452    0.40000001    2.73000002
   13.06472206  132.71299744    0.40000001    2.73000002
   13.06777763  130.61199951    0.38000000    2.73000002
   13.07111073  138.04100037    0.40000001    2.71000004
   13.07444477  135.05700684    0.40000001    2.73000002
   13.07750034  149.14399719    0.38000000    2.75000000
   13.08083344  124.98100281    0.40000001    2.71000004
   13.08416653  170.20100403    0.40000001    2.75000000
   13.08722210  146.17900085    0.40000001    2.75000000
   13.09055519  156.31599426    0.40000001    2.73000002
   13.09361076  162.11700439    0.40000001    2.73000002
   13.09416676  158.23599243    0.40000001    2.73000002
   13.09749985  162.97300720    0.40000001    2.73000002
   13.10055637  156.68699646    0.40000001    2.73000002
   13.10388947  171.98699951    0.40000001    2.75000000
   13.10722256  164.12600708    0.40000001    2.73000002
   13.11027813  156.05700684    0.40000001    2.73000002
   13.11361122  172.41600037    0.38000000    2.73000002
   13.11694431  158.44000244    0.38000000    2.75000000
   13.11999989  158.02200317    0.38000000    2.75000000
   13.12333393  179.98199463    0.40000001    2.73000002
   13.12666702  145.21499634    0.38000000    2.75000000
   13.12694454  149.71000671    0.38000000    2.75000000
   13.13027763  150.22700500    0.38000000    2.73000002
   13.13361073  171.66099548    0.38000000    2.73000002
   13.13694477  185.09100342    0.38000000    2.73000002
   13.14000034  179.85499573    0.38000000    2.73000002
   13.14333344  170.28900146    0.38000000    2.73000002
   13.14638901  178.27699280    0.38000000    2.75000000
   13.14999962  166.46499634    0.38000000    2.75000000
   13.15305519  250.13000488    0.38000000    2.73000002
   13.15638828  212.68699646    0.38000000    2.73000002
   13.26638889   -1.00000000   -1.00000000   -1.00000000
   13.36472225   -1.00000000   -1.00000000   -1.00000000
   13.46722221   -1.00000000   -1.00000000   -1.00000000
   13.50055599   71.43990326    0.40000001    2.76999998
   13.50388908  111.23300171    0.40000001    2.76999998
   13.50694466  103.99800110    0.40000001    2.76999998
   13.51027775  111.19200134    0.40000001    2.76999998
   13.51361084  113.87899780    0.40000001    2.76999998
   13.51694393  108.62599945    0.40000001    2.76999998
   13.52083302  108.62599945    0.40000001    2.76999998
   13.52499962  108.73799896    0.40000001    2.76999998
   13.52833271  111.68000031    0.40000001    2.76999998
   13.53166676  114.58999634    0.40000001    2.76999998
   13.53388977  114.52500153    0.40000001    2.76999998
   13.53527832  107.90899658    0.40000001    2.76999998
   13.53861141  108.07499695    0.40000001    2.76999998
   13.54166698  104.00800323    0.40000001    2.76999998
   13.54500008  105.74700165    0.40000001    2.76999998
   13.54833412  107.38200378    0.40000001    2.76999998
   13.55138874   95.84719849    0.40000001    2.76999998
   13.55472279  105.68000031    0.40000001    2.76999998
   13.55777836   97.69650269    0.40000001    2.76999998
   13.56388950   97.69650269    0.40000001    2.76999998
   13.56805515   96.20469666    0.40000001    2.78999996
   13.57111073  105.36900330    0.40000001    2.78999996
   13.57444477  104.33899689    0.41999999    2.76999998
   13.57750034  101.56300354    0.41999999    2.76999998
   13.58083344   98.06060028    0.41999999    2.76999998
   13.58416653  106.17800140    0.41999999    2.76999998
   13.58722210   99.09110260    0.41999999    2.78999996
   13.59055519  100.05300140    0.41999999    2.76999998
   13.59388828   99.74389648    0.41999999    2.76999998
   13.59694386  108.17400360    0.41999999    2.76999998
   13.60027790  107.04000092    0.41999999    2.76999998
   13.60083389  107.45300293    0.44000000    2.76999998
   13.60666752  107.45300293    0.44000000    2.76999998
   13.61083412   89.50289917    0.44000000    2.78999996
   13.61388969   99.25340271    0.44000000    2.78999996
   13.61722279   99.19309998    0.44000000    2.78999996
   13.62055588   95.29329681    0.44000000    2.78999996
   13.62361145  100.27300262    0.44000000    2.76999998
   13.62694454  103.01300049    0.46000001    2.76999998
   13.63027763  101.56800079    0.47999999    2.76999998
   13.63333321   98.91809845    0.47999999    2.78999996
   13.63416672   93.64849854    0.47999999    2.78999996
   13.63722229  101.91400146    0.46000001    2.76999998
   13.64027786  101.74900055    0.46000001    2.76999998
   13.64361095   94.87519836    0.47999999    2.78999996
   13.64944458   94.87519836    0.47999999    2.78999996
   13.65361118  101.50800323    0.47999999    2.76999998
   13.65694427  103.66400146    0.46000001    2.78999996
   13.65999985   96.16079712    0.46000001    2.78999996
   13.66333294  100.77999878    0.46000001    2.78999996
   13.66666698   98.15809631    0.47999999    2.76999998
   13.66750050   99.37860107    0.47999999    2.78999996
   13.67027855   97.75769806    0.47999999    2.78999996
   13.67333412   97.12069702    0.46000001    2.78999996
   13.67666721   96.08529663    0.46000001    2.78999996
   13.68000031   97.90190125    0.47999999    2.76999998
   13.68305588   92.45529938    0.47999999    2.78999996
   13.68638897   94.51069641    0.47999999    2.78999996
   13.69222260   94.51069641    0.50000000    2.78999996
   13.69638920   94.18070221    0.50000000    2.78999996
   13.69972229   90.98349762    0.51999998    2.78999996
   13.70083332   98.26409912    0.51999998    2.78999996
   13.70333290   91.36109924    0.52999997    2.78999996
   13.70638847   93.65809631    0.55000001    2.78999996
   13.70972157   86.96970367    0.56999999    2.78999996
   13.71277714   95.63210297    0.55000001    2.78999996
   13.71611118   92.70659637    0.55000001    2.78999996
   13.71944427   91.21009827    0.55000001    2.78999996
   13.72249985   87.47339630    0.52999997    2.78999996
   13.72583294   89.04759979    0.52999997    2.78999996
   13.72916603   96.78389740    0.50000000    2.78999996
   13.73527813   96.78389740    0.50000000    2.78999996
   13.73916721   96.34059906    0.47999999    2.78999996
   13.74250031  102.85099792    0.47999999    2.78999996
   13.74583340   91.16510010    0.47999999    2.78999996
   13.74888897   96.53790283    0.44000000    2.76999998
   13.75222206   92.07340240    0.46000001    2.78999996
   13.75555515   92.98549652    0.44000000    2.78999996
   13.75888920   90.22509766    0.46000001    2.78999996
   13.76194477   97.55380249    0.47999999    2.76999998
   13.76527786  100.84400177    0.47999999    2.76999998
   13.76749992   94.32039642    0.47999999    2.78999996
   13.76888847   95.54440308    0.47999999    2.78999996
   13.77194405   91.78939819    0.46000001    2.78999996
   13.77805519   91.78939819    0.46000001    2.78999996
   13.78222179   92.45600128    0.46000001    2.78999996
   13.78527832  100.67099762    0.44000000    2.78999996
   13.78861141   96.88939667    0.41999999    2.78999996
   13.79194450   89.34980011    0.40000001    2.78999996
   13.79500008   95.37229919    0.40000001    2.78999996
   13.79833412   91.27300262    0.40000001    2.78999996
   13.80083370   90.32890320    0.41999999    2.78999996
   13.80194473   94.04740143    0.41999999    2.78999996
   13.80500031   95.52169800    0.44000000    2.78999996
   13.80833340   95.28440094    0.46000001    2.76999998
   13.81138897   97.03130341    0.51999998    2.78999996
   13.81472206   99.32559967    0.52999997    2.78999996
   13.82083321   99.32559967    0.55000001    2.78999996
   13.82499981  101.83399963    0.51999998    2.78999996
   13.82833290   97.06510162    0.52999997    2.78999996
   13.83138847   98.02400208    0.52999997    2.78999996
   13.83416653   89.36630249    0.52999997    2.78999996
   13.83527756   91.27040100    0.55000001    2.78999996
   13.83833313   94.22399902    0.55000001    2.80999994
   13.84166622   91.98449707    0.52999997    2.80999994
   13.84499931   95.52449799    0.55000001    2.78999996
   13.84805489   92.64510345    0.52999997    2.78999996
   13.85138893   92.20890045    0.52999997    2.78999996
   13.85472298   95.07330322    0.52999997    2.78999996
   13.85777855   95.43090057    0.52999997    2.78999996
   13.86361122   95.43090057    0.58999997    2.78999996
   13.86777782   95.41429901    0.58999997    2.78999996
   13.87111092   93.09310150    0.58999997    2.80999994
   13.87444496   87.81459808    0.56999999    2.78999996
   13.87750053   92.21970367    0.56999999    2.80999994
   13.88083363   91.48030090    0.56999999    2.80999994
   13.88388920   89.67780304    0.56999999    2.78999996
   13.88722229   92.75579834    0.56999999    2.78999996
   13.89055538   86.66760254    0.56999999    2.78999996
   13.89361095   93.12329865    0.56999999    2.78999996
   13.89694405   97.40329742    0.56999999    2.80999994
   13.90027714   88.35939789    0.56999999    2.80999994
   13.90083313   89.35410309    0.58999997    2.78999996
   13.90666676   89.35410309    0.61000001    2.78999996
   13.91083336   92.97029877    0.58999997    2.78999996
   13.91388893   89.27799988    0.61000001    2.80999994
   13.91722298   96.54959869    0.61000001    2.78999996
   13.92027855   93.99620056    0.58999997    2.78999996
   13.92361164   90.74400330    0.61000001    2.78999996
   13.92694473   90.78510284    0.61000001    2.78999996
   13.93027782   89.21140289    0.63000000    2.78999996
   13.93333340   93.43689728    0.63000000    2.78999996
   13.93416691   92.76550293    0.63000000    2.78999996
   13.93722248   90.29239655    0.64999998    2.80999994
   13.94027805   92.20220184    0.64999998    2.78999996
   13.94361115   90.03189850    0.64999998    2.78999996
   13.94944477   90.03189850    0.63000000    2.78999996
   13.95361137   94.24459839    0.63000000    2.78999996
   13.95666695   89.69200134    0.63000000    2.78999996
   13.96000004   88.60610199    0.61000001    2.80999994
   13.96333313   89.73210144    0.61000001    2.80999994
   13.96638870   87.61900330    0.61000001    2.80999994
   13.96749973   89.19059753    0.61000001    2.80999994
   13.96999931   90.47470093    0.61000001    2.78999996
   13.97333336   86.89389801    0.61000001    2.80999994
   13.97638798   86.68650055    0.61000001    2.80999994
   13.97972202   92.37960052    0.63000000    2.80999994
   13.98277760   87.74510193    0.64999998    2.80999994
   13.98611164   93.27469635    0.64999998    2.78999996
   13.99222279   93.27469635    0.64999998    2.80999994
   13.99638939   90.79859924    0.67000002    2.78999996
   13.99972248   91.03530121    0.67000002    2.78999996
   14.00083351   92.73480225    0.67000002    2.78999996
   14.00333309   91.07849884    0.67000002    2.78999996
   14.00638866   88.08429718    0.67000002    2.78999996
   14.00972176   91.25350189    0.64999998    2.78999996
   14.01305580   90.54250336    0.63000000    2.80999994
   14.01611137   90.37419891    0.63000000    2.80999994
   14.01944447   86.96350098    0.63000000    2.78999996
   14.02277756   91.34860229    0.63000000    2.78999996
   14.02583313   91.77259827    0.61000001    2.78999996
   14.02916622   89.40010071    0.61000001    2.80999994
   14.03500080   89.40010071    0.56999999    2.80999994
   14.03916740   89.88710022    0.58999997    2.80999994
   14.04250050   88.25430298    0.58999997    2.78999996
   14.04583359   94.48629761    0.58999997    2.78999996
   14.04888916   97.41519928    0.61000001    2.78999996
   14.05222225   89.00489807    0.58999997    2.80999994
   14.05555534   93.01789856    0.58999997    2.80999994
   14.05861092   95.62110138    0.56999999    2.80999994
   14.06194496   96.11239624    0.58999997    2.80999994
   14.06500053   94.08619690    0.61000001    2.80999994
   14.06750011   95.53649902    0.61000001    2.80999994
   14.06888866   97.57759857    0.61000001    2.80999994
   14.07194424   96.60949707    0.61000001    2.80999994
   14.07805538   96.60949707    0.58999997    2.80999994
   14.08194447   91.92870331    0.61000001    2.80999994
   14.08527756   90.02040100    0.61000001    2.80999994
   14.08861065   90.60230255    0.63000000    2.78999996
   14.09166622   88.31349945    0.63000000    2.78999996
   14.09499931   95.07489777    0.63000000    2.80999994
   14.09833336   94.68509674    0.63000000    2.80999994
   14.10083389   90.95290375    0.63000000    2.80999994
   14.10194492   90.15499878    0.63000000    2.80999994
   14.10500050   92.30509949    0.63000000    2.80999994
   14.10833359   95.79589844    0.63000000    2.80999994
   14.11166668   96.13320160    0.63000000    2.80999994
   14.11472225   93.19309998    0.61000001    2.80999994
   14.12083340   93.19309998    0.63000000    2.82999992
   14.12500000   91.78029633    0.63000000    2.80999994
   14.12805557   95.18049622    0.61000001    2.80999994
   14.13138866   94.37560272    0.61000001    2.80999994
   14.13416672   93.96749878    0.61000001    2.80999994
   14.13500023   92.42510223    0.61000001    2.80999994
   14.13805580   91.87059784    0.61000001    2.80999994
   14.14138889   87.33760071    0.61000001    2.80999994
   14.14472198   92.79889679    0.63000000    2.82999992
   14.14777756   89.34459686    0.64999998    2.80999994
   14.15111065   96.69000244    0.67000002    2.80999994
   14.15416622   88.18270111    0.67000002    2.80999994
   14.15749931   91.88610077    0.70999998    2.80999994
   14.16361046   91.88610077    0.70999998    2.80999994
   14.16777802   86.23400116    0.70999998    2.80999994
   14.17111111   89.74469757    0.70999998    2.80999994
   14.17416668   86.14540100    0.70999998    2.80999994
   14.17750072   88.26110077    0.70999998    2.82999992
   14.18083382   93.16760254    0.70999998    2.80999994
   14.18416691   91.89350128    0.73000002    2.80999994
   14.18722248   91.69129944    0.73000002    2.80999994
   14.19055557   90.71289825    0.73000002    2.80999994
   14.19361115   92.70989990    0.75000000    2.80999994
   14.19694424   86.09860229    0.75000000    2.80999994
   14.20027733   92.95420074    0.75000000    2.82999992
   14.20083332   91.67659760    0.75000000    2.80999994
   14.20638847   91.67659760    0.75000000    2.80999994
   14.21055508   89.64720154    0.70999998    2.80999994
   14.21388912   88.78880310    0.69000000    2.80999994
   14.21694374   85.55889893    0.70999998    2.82999992
   14.22027779   88.72290039    0.70999998    2.80999994
   14.22361088   86.26770020    0.70999998    2.80999994
   14.22666645   88.34169769    0.75000000    2.80999994
   14.22999954   87.17810059    0.75000000    2.80999994
   14.23333359   90.04429626    0.75000000    2.80999994
   14.23416710   89.19960022    0.75000000    2.80999994
   14.23694515   88.55709839    0.75000000    2.80999994
   14.24027824   92.76679993    0.76999998    2.78999996
   14.24333382   90.66190338    0.76999998    2.80999994
   14.24944496   90.66190338    0.79000002    2.80999994
   14.25361156   89.95429993    0.79000002    2.80999994
   14.25666714   83.02140045    0.76999998    2.80999994
   14.26000023   87.18219757    0.76999998    2.80999994
   14.26305580   89.43659973    0.76999998    2.80999994
   14.26638889   88.10330200    0.76999998    2.80999994
   14.26749992   83.06020355    0.76999998    2.80999994
   14.26999950   88.00710297    0.76999998    2.80999994
   14.27305508   88.26460266    0.76999998    2.80999994
   14.27638817   85.91699982    0.76999998    2.80999994
   14.27972221   86.41169739    0.73000002    2.82999992
   14.28277779   84.33080292    0.73000002    2.82999992
   14.28611183   89.24259949    0.73000002    2.80999994
   14.29222298   89.24259949    0.70999998    2.82999992
   14.29638958   91.56330109    0.70999998    2.82999992
   14.29944515   92.22760010    0.70999998    2.82999992
   14.30083370   87.65959930    0.70999998    2.82999992
   14.30305576   89.75579834    0.69000000    2.82999992
   14.30611134   90.41089630    0.67000002    2.82999992
   14.30944443   90.52400208    0.67000002    2.82999992
   14.31277752   87.62300110    0.64999998    2.82999992
   14.31583309   88.72750092    0.61000001    2.80999994
   14.31916618   87.14299774    0.56999999    2.82999992
   14.32250023   91.79599762    0.55000001    2.82999992
   14.32555580   98.42610168    0.52999997    2.82999992
   14.32888889   88.77320099    0.55000001    2.82999992
   14.33500004   88.77320099    0.52999997    2.82999992
   14.33916664   93.07849884    0.50000000    2.82999992
   14.34249973   86.00189972    0.47999999    2.80999994
   14.34555531   93.77719879    0.46000001    2.82999992
   14.34888840   89.28759766    0.46000001    2.82999992
   14.35194492   91.54799652    0.46000001    2.84999990
   14.35527802   88.01049805    0.41999999    2.82999992
   14.35861111   89.29460144    0.41999999    2.82999992
   14.36166668   88.97360229    0.41999999    2.82999992
   14.36500072   96.37680054    0.41999999    2.80999994
   14.36750031   90.34709930    0.41999999    2.82999992
   14.36861134   88.26399994    0.41999999    2.82999992
   14.37194443   90.78130341    0.44000000    2.82999992
   14.37777805   90.78130341    0.41999999    2.82999992
   14.38194466   92.83779907    0.41999999    2.82999992
   14.38527775   92.02960205    0.41999999    2.82999992
   14.38833332   75.91020203    0.41999999    2.82999992
   14.39166641   91.00170135    0.41999999    2.82999992
   14.39499950   90.43779755    0.41999999    2.82999992
   14.39805508   88.10659790    0.41999999    2.82999992
   14.40083313   87.59329987    0.41999999    2.82999992
   14.40166664   93.61769867    0.41999999    2.82999992
   14.40499973   91.80840302    0.41999999    2.82999992
   14.40805531   88.42060089    0.41999999    2.82999992
   14.41138840   90.48100281    0.41999999    2.82999992
   14.41444397   90.53009796    0.40000001    2.82999992
   14.42083359   90.53009796    0.41999999    2.82999992
   14.42472267   89.37329865    0.41999999    2.84999990
   14.42805576   87.69779968    0.41999999    2.82999992
   14.43138885   93.91149902    0.41999999    2.82999992
   14.43416691   96.59709930    0.41999999    2.82999992
   14.43500042   86.75469971    0.41999999    2.82999992
   14.43805599   91.23249817    0.41999999    2.82999992
   14.44138908   87.66979980    0.41999999    2.82999992
   14.44472218   92.72100067    0.44000000    2.82999992
   14.44777775   89.95500183    0.44000000    2.82999992
   14.45111084   90.13500214    0.44000000    2.82999992
   14.45444393   95.56430054    0.46000001    2.82999992
   14.45749950   91.95410156    0.46000001    2.82999992
   14.46361065   91.95410156    0.46000001    2.82999992
   14.46777725   94.73999786    0.44000000    2.82999992
   14.47083282   91.70500183    0.44000000    2.82999992
   14.47416592   97.39129639    0.44000000    2.82999992
   14.47749996   93.45110321    0.46000001    2.82999992
   14.48055553   88.97899628    0.44000000    2.82999992
   14.48388958   92.17510223    0.44000000    2.82999992
   14.48694515   84.95870209    0.44000000    2.82999992
   14.49027824   93.36489868    0.44000000    2.82999992
   14.49361134   92.49040222    0.44000000    2.82999992
   14.49666691   92.41539764    0.44000000    2.84999990
   14.50000000   89.10320282    0.44000000    2.84999990
   14.50083351   87.63549805    0.44000000    2.84999990
   14.52166653   87.63549805    0.44000000    2.82999992
   14.52583313   89.49449921    0.44000000    2.82999992
   14.52888870   93.48280334    0.46000001    2.82999992
   14.53222179   92.72389984    0.47999999    2.82999992
   14.53416729   93.37609863    0.46000001    2.82999992
   14.53583336   96.45989990    0.46000001    2.82999992
   14.53916740   90.99230194    0.41999999    2.84999990
   14.54222298   88.36710358    0.41999999    2.84999990
   14.54555607   94.30149841    0.40000001    2.82999992
   14.54861164   93.08750153    0.40000001    2.82999992
   14.55194473  102.90899658    0.40000001    2.82999992
   14.55527782   89.51390076    0.40000001    2.82999992
   14.55833340   86.58860016    0.41999999    2.80999994
   14.56444454   86.58860016    0.40000001    2.82999992
   14.56861115   90.90090179    0.40000001    2.84999990
   14.57166672   93.24500275    0.40000001    2.80999994
   14.57499981   92.35990143    0.40000001    2.84999990
   14.57805538   89.57209778    0.38000000    2.84999990
   14.58138847   91.83329773    0.38000000    2.84999990
   14.58472157   92.23079681    0.36000001    2.84999990
   14.58777714   92.92369843    0.36000001    2.82999992
   14.59111118   90.03150177    0.36000001    2.82999992
   14.59444427   83.58020020    0.36000001    2.84999990
   14.59749985   91.43620300    0.38000000    2.84999990
   14.60083389   89.67970276    0.38000000    2.84999990
   14.60138893   93.22920227    0.36000001    2.82999992
   14.60722256   93.22920227    0.36000001    2.82999992
   14.61138916   87.60109711    0.36000001    2.84999990
   14.61444473   93.21710205    0.38000000    2.82999992
   14.61777782   90.22059631    0.38000000    2.82999992
   14.62111092   90.80090332    0.40000001    2.84999990
   14.62416649   93.47370148    0.38000000    2.84999990
   14.62750053   89.30950165    0.38000000    2.82999992
   14.63083363   91.50769806    0.38000000    2.82999992
   14.63388920   89.19940186    0.38000000    2.82999992
   14.63472176   93.71659851    0.38000000    2.82999992
   14.63749981   87.41919708    0.38000000    2.84999990
   14.64083290   89.03630066    0.38000000    2.84999990
   14.64416695   89.95400238    0.38000000    2.84999990
   14.64999962   89.95400238    0.38000000    2.84999990
   14.65416622   89.83689880    0.38000000    2.82999992
   14.65749931   95.78209686    0.38000000    2.82999992
   14.66055489   90.58689880    0.40000001    2.84999990
   14.66388893   88.34850311    0.38000000    2.84999990
   14.66722298   89.56259918    0.38000000    2.84999990
   14.66805553   89.54740143    0.38000000    2.84999990
   14.67055607   91.07649994    0.38000000    2.84999990
   14.67388916   94.82430267    0.38000000    2.82999992
   14.67722225   97.28130341    0.36000001    2.84999990
   14.68027782   94.33959961    0.38000000    2.84999990
   14.68388939   93.44190216    0.36000001    2.84999990
   14.68694496   90.01090240    0.38000000    2.84999990
   14.69277763   90.01090240    0.41999999    2.84999990
   14.69694424   92.40080261    0.41999999    2.82999992
   14.70027733   90.52429962    0.44000000    2.82999992
   14.70138836   92.07929993    0.46000001    2.82999992
   14.70361137   88.55870056    0.46000001    2.84999990
   14.70694447   87.54720306    0.46000001    2.84999990
   14.71027756   86.66979980    0.46000001    2.84999990
   14.71333313   87.84999847    0.46000001    2.84999990
   14.71666622   81.95790100    0.46000001    2.84999990
   14.71972179   85.27500153    0.46000001    2.84999990
   14.72305489   90.80879974    0.46000001    2.82999992
   14.72638798   89.40209961    0.47999999    2.84999990
   14.72944355   98.81909943    0.47999999    2.84999990
   14.73583317   98.81909943    0.47999999    2.82999992
   14.73972225   89.74980164    0.47999999    2.82999992
   14.74305534   87.78839874    0.51999998    2.84999990
   14.74638939   96.46849823    0.47999999    2.84999990
   14.74944496   92.26229858    0.46000001    2.84999990
   14.75277805   89.53269958    0.46000001    2.84999990
   14.75611115   92.58200073    0.46000001    2.84999990
   14.75916672   88.18900299    0.44000000    2.84999990
   14.76249981   87.05560303    0.44000000    2.82999992
   14.76555538   90.11100006    0.41999999    2.84999990
   14.76805496   90.70719910    0.41999999    2.82999992
   14.76916599   88.38490295    0.41999999    2.82999992
   14.77250004   85.74199677    0.41999999    2.82999992
   14.77861118   85.74199677    0.41999999    2.82999992
   14.78277779   84.50980377    0.41999999    2.82999992
   14.78583336   83.45670319    0.41999999    2.84999990
   14.78916740   84.25209808    0.41999999    2.82999992
   14.79250050   83.15619659    0.40000001    2.84999990
   14.79555607   89.01529694    0.40000001    2.84999990
   14.79888916   88.11740112    0.40000001    2.82999992
   14.80138874   90.82330322    0.40000001    2.82999992
   14.80249977   86.75769806    0.40000001    2.82999992
   14.80583382   92.27480316    0.40000001    2.82999992
   14.80916691   90.92870331    0.38000000    2.84999990
   14.81222248   90.35440063    0.40000001    2.82999992
   14.81555557   89.03170013    0.40000001    2.82999992
   14.82138920   89.03170013    0.38000000    2.84999990
   14.82555580   98.30300140    0.38000000    2.84999990
   14.82888889   90.35399628    0.36000001    2.84999990
   14.83194447   88.15339661    0.36000001    2.84999990
   14.83472157   93.72840118    0.36000001    2.84999990
   14.83555508   89.65419769    0.36000001    2.84999990
   14.83888817   94.66329956    0.38000000    2.84999990
   14.84222221   92.11530304    0.38000000    2.84999990
   14.84527779   89.72480011    0.36000001    2.84999990
   14.84861088   89.94680023    0.38000000    2.84999990
   14.85194492   87.36879730    0.36000001    2.84999990
   14.85500050   91.35990143    0.38000000    2.84999990
   14.85833359   89.21269989    0.36000001    2.84999990
   14.86416721   89.21269989    0.36000001    2.84999990
   14.86833382   86.33409882    0.34000000    2.84999990
   14.87166691   89.33110046    0.34000000    2.84999990
   14.87472248   91.63819885    0.36000001    2.84999990
   14.87805557   90.34750366    0.36000001    2.84999990
   14.88138866   97.52919769    0.36000001    2.84999990
   14.88444424   92.35620117    0.36000001    2.84999990
   14.88777733   93.30829620    0.36000001    2.84999990
   14.89111137   96.14849854    0.36000001    2.84999990
   14.89416695   93.52169800    0.36000001    2.84999990
   14.89750004   90.92729950    0.34000000    2.84999990
   14.90083313   92.75370026    0.34000000    2.84999990
   14.90138817   92.34850311    0.34000000    2.84999990
   14.90722179   92.34850311    0.34000000    2.84999990
   14.91111088   93.13369751    0.36000001    2.84999990
   14.91444397   87.31960297    0.36000001    2.84999990
   14.91777802   91.65460205    0.36000001    2.84999990
   14.92083359   93.05130005    0.34000000    2.84999990
   14.92416668   92.24289703    0.36000001    2.84999990
   14.92750072   87.12940216    0.34000000    2.84999990
   14.93055630   91.34999847    0.34000000    2.84999990
   14.93388939   91.11250305    0.34000000    2.82999992
   14.93472195   90.95719910    0.34000000    2.82999992
   14.93777752   88.76190186    0.34000000    2.84999990
   14.94083309   91.92279816    0.31999999    2.84999990
   14.94416714   92.46779633    0.34000000    2.84999990
   14.94999981   92.46779633    0.34000000    2.84999990
   14.95416641   87.54299927    0.34000000    2.84999990
   14.95722198   89.96849823    0.34000000    2.84999990
   14.96055508   90.13169861    0.34000000    2.84999990
   14.96388912   92.30470276    0.34000000    2.84999990
   14.96694374   90.78160095    0.34000000    2.84999990
   14.96805477   90.76899719    0.34000000    2.84999990
   14.97055531   92.09149933    0.36000001    2.84999990
   14.97388840   88.73370361    0.36000001    2.84999990
   14.97722149   85.71829987    0.36000001    2.84999990
   14.98027706   89.43789673    0.36000001    2.84999990
   14.98361111   93.36460114    0.36000001    2.84999990
   14.98694515   90.74179840    0.36000001    2.84999990
   14.99277782   90.74179840    0.36000001    2.84999990
   14.99694443   90.45800018    0.36000001    2.82999992
   15.00027752   87.02469635    0.36000001    2.84999990
   15.00138855   87.20989990    0.36000001    2.84999990
   15.00361156   94.37930298    0.36000001    2.86999989
   15.00694466   87.06520081    0.36000001    2.84999990
   15.01027775   92.80130005    0.36000001    2.84999990
   15.01333332   94.03430176    0.36000001    2.84999990
   15.01666641   86.18740082    0.36000001    2.84999990
   15.01999950   90.36060333    0.36000001    2.84999990
   15.02305508   89.38140106    0.36000001    2.84999990
   15.02638817   89.62719727    0.36000001    2.84999990
   15.02944374   87.99579620    0.36000001    2.84999990
   15.03555584   87.99579620    0.36000001    2.84999990
   15.03972244   89.99800110    0.36000001    2.82999992
   15.04305553   88.24770355    0.36000001    2.84999990
   15.04611111   87.18489838    0.36000001    2.84999990
   15.04944515   90.36229706    0.36000001    2.84999990
   15.05277824   89.46489716    0.36000001    2.84999990
   15.05611134   86.51660156    0.36000001    2.84999990
   15.05944443   90.65750122    0.36000001    2.84999990
   15.06250000   87.08090210    0.38000000    2.84999990
   15.06583309  100.00099945    0.38000000    2.84999990
   15.06805515   94.81430054    0.38000000    2.84999990
   15.06916618  100.99600220    0.36000001    2.84999990
   15.07250023   97.98179626    0.38000000    2.86999989
   15.07833290   97.98179626    0.36000001    2.84999990
   15.08249950   90.99389648    0.36000001    2.84999990
   15.08583260   90.75730133    0.36000001    2.84999990
   15.08916664   88.75700378    0.36000001    2.84999990
   15.09222221   83.77639771    0.38000000    2.84999990
   15.09555531   88.24749756    0.38000000    2.84999990
   15.09888840   90.39510345    0.38000000    2.84999990
   15.10138893   85.71399689    0.38000000    2.84999990
   15.10222244   91.50969696    0.38000000    2.84999990
   15.10555553   87.11640167    0.40000001    2.84999990
   15.10888958   87.15390015    0.40000001    2.84999990
   15.11194515   87.14450073    0.41999999    2.84999990
   15.11527824   88.75810242    0.41999999    2.84999990
   15.12138939   88.75810242    0.40000001    2.84999990
   15.12555599   88.40599823    0.40000001    2.84999990
   15.12861156   87.63140106    0.40000001    2.82999992
   15.13194466   89.87100220    0.40000001    2.84999990
   15.13472176   87.81780243    0.40000001    2.84999990
   15.13555527   92.15570068    0.40000001    2.84999990
   15.13861084   85.51370239    0.40000001    2.84999990
   15.14194393   87.01989746    0.40000001    2.84999990
   15.14499950   94.45580292    0.40000001    2.84999990
   15.14833355   88.13469696    0.40000001    2.84999990
   15.15166664   89.60980225    0.40000001    2.84999990
   15.15472221   86.05130005    0.40000001    2.86999989
   15.15805531   87.59049988    0.40000001    2.86999989
   15.16416645   87.59049988    0.40000001    2.86999989
   15.16833401   85.04540253    0.38000000    2.84999990
   15.17166710   90.63169861    0.38000000    2.84999990
   15.17472267   90.95159912    0.38000000    2.84999990
   15.17805576   90.43699646    0.38000000    2.84999990
   15.18111134   90.78980255    0.40000001    2.84999990
   15.18444443   86.70549774    0.38000000    2.84999990
   15.18777752   90.34559631    0.40000001    2.84999990
   15.19083309   92.19210052    0.41999999    2.84999990
   15.19416714   87.62789917    0.44000000    2.84999990
   15.19750023   93.63849640    0.51999998    2.84999990
   15.20055580   90.22959900    0.51999998    2.84999990
   15.20138836   91.84369659    0.51999998    2.84999990
   15.20694447   91.84369659    0.47999999    2.84999990
   15.21111107   91.57640076    0.47999999    2.86999989
   15.21444416   88.51899719    0.46000001    2.86999989
   15.21749973   90.40540314    0.44000000    2.82999992
   15.22083282   87.67829895    0.44000000    2.84999990
   15.22416592   87.21920013    0.41999999    2.84999990
   15.22722149   90.29019928    0.41999999    2.82999992
   15.23055553   87.55870056    0.41999999    2.84999990
   15.23388958   86.00469971    0.41999999    2.84999990
   15.23472214   89.58709717    0.44000000    2.86999989
   15.23750019   86.74330139    0.44000000    2.86999989
   15.24055576   82.74030304    0.46000001    2.84999990
   15.24388885   83.17449951    0.46000001    2.84999990
   15.24972248   83.17449951    0.44000000    2.84999990
   15.25388908   87.46230316    0.44000000    2.84999990
   15.25722218   88.70300293    0.44000000    2.84999990
   15.26055527   83.51010132    0.44000000    2.84999990
   15.26361084   88.77429962    0.44000000    2.82999992
   15.26694393   89.09049988    0.44000000    2.84999990
   15.26805496   84.70089722    0.44000000    2.84999990
   15.27055550   86.69889832    0.41999999    2.84999990
   15.27361107   84.27790070    0.41999999    2.84999990
   15.27694416   86.11579895    0.41999999    2.84999990
   15.28027725   88.45110321    0.41999999    2.84999990
   15.28361130   90.23310089    0.41999999    2.84999990
   15.28666687   92.69090271    0.44000000    2.84999990
   15.29277802   92.69090271    0.41999999    2.84999990
   15.29694462   90.83159637    0.41999999    2.84999990
   15.30000019   86.79080200    0.41999999    2.84999990
   15.30138874   90.81469727    0.41999999    2.84999990
   15.30388927   85.33640289    0.41999999    2.84999990
   15.30694485   87.79160309    0.41999999    2.84999990
   15.31027794   88.34570313    0.41999999    2.84999990
   15.31333351   89.47029877    0.40000001    2.84999990
   15.31666660   85.39959717    0.40000001    2.84999990
   15.31999969   86.37729645    0.40000001    2.84999990
   15.32333374   88.69360352    0.40000001    2.84999990
   15.32638836   87.90329742    0.40000001    2.84999990
   15.32972240   91.62519836    0.40000001    2.84999990
   15.33555508   91.62519836    0.38000000    2.84999990
   15.33972168   89.43499756    0.38000000    2.84999990
   15.34277725   87.11910248    0.38000000    2.84999990
   15.34611034   91.66809845    0.38000000    2.84999990
   15.34944439   88.08760071    0.40000001    2.84999990
   15.35249996   85.32479858    0.38000000    2.84999990
   15.35583401   87.15550232    0.38000000    2.84999990
   15.35916710   84.95850372    0.38000000    2.84999990
   15.36250019   86.71140289    0.38000000    2.84999990
   15.36555576   87.18740082    0.40000001    2.84999990
   15.36805534   91.07630157    0.38000000    2.84999990
   15.36944485   87.32060242    0.38000000    2.84999990
   15.37250042   86.28810120    0.38000000    2.84999990
   15.37833309   86.28810120    0.38000000    2.84999990
   15.38249969   90.29630280    0.36000001    2.82999992
   15.38583279   86.22820282    0.36000001    2.86999989
   15.38888836   84.29290009    0.36000001    2.86999989
   15.39222240   84.51860046    0.38000000    2.84999990
   15.39555550   88.91249847    0.38000000    2.86999989
   15.39861107   85.38950348    0.46000001    2.84999990
   15.40138817   87.33149719    0.47999999    2.84999990
   15.40249920   85.77989960    0.47999999    2.84999990
   15.40555477   86.34140015    0.50000000    2.84999990
   15.40888882   88.22280121    0.51999998    2.82999992
   15.41194439   90.57890320    0.51999998    2.82999992
   15.41527748   87.42009735    0.51999998    2.84999990
   15.42111111   87.42009735    0.44000000    2.84999990
   15.42527771   89.53109741    0.44000000    2.84999990
   15.42861176   90.81089783    0.38000000    2.84999990
   15.43194485   89.43910217    0.36000001    2.84999990
   15.43472195   87.94409943    0.36000001    2.84999990
   15.43555546   90.72509766    0.36000001    2.84999990
   15.43861103   86.48139954    0.34000000    2.84999990
   15.44194412   92.08100128    0.34000000    2.84999990
   15.44499969   88.47350311    0.40000001    2.84999990
   15.44833374   85.47959900    0.44000000    2.86999989
   15.45166683   88.91220093    0.46000001    2.84999990
   15.45472240   86.18379974    0.46000001    2.84999990
   15.45805550   89.97810364    0.52999997    2.84999990
   15.46416664   89.97810364    0.51999998    2.84999990
   15.46805477   80.87989807    0.44000000    2.84999990
   15.47138882   81.50479889    0.41999999    2.84999990
   15.47472191   88.26599884    0.38000000    2.84999990
   15.47777748   89.13490295    0.38000000    2.84999990
   15.48111057   86.05680084    0.40000001    2.84999990
   15.48444462   90.46140289    0.38000000    2.84999990
   15.48750019   89.03289795    0.36000001    2.84999990
   15.49083328   85.92620087    0.36000001    2.86999989
   15.49416733   81.53679657    0.36000001    2.84999990
   15.49722290   83.84269714    0.36000001    2.84999990
   15.50055599   90.67079926    0.36000001    2.84999990
   15.50138855   85.45870209    0.36000001    2.84999990
   15.50694466   85.45870209    0.36000001    2.84999990
   15.51111126   86.51110077    0.36000001    2.84999990
   15.51444435   84.83460236    0.36000001    2.84999990
   15.51749992   88.48989868    0.36000001    2.84999990
   15.53500080   89.33270264    0.36000001    2.86999989
   15.53750038   83.39330292    0.38000000    2.84999990
   15.54083347   87.49099731    0.38000000    2.84999990
   15.54388905   86.57759857    0.38000000    2.84999990
   15.55000019   86.57759857    0.38000000    2.84999990
   15.55416679   91.20709991    0.38000000    2.84999990
   15.55722237   87.89790344    0.36000001    2.86999989
   15.56055546   88.42700195    0.38000000    2.84999990
   15.56361103   88.59149933    0.36000001    2.84999990
   15.56694412   92.88639832    0.36000001    2.84999990
   15.56833363   86.34899902    0.36000001    2.84999990
   15.57055569   85.67189789    0.36000001    2.86999989
   15.57361126   86.68060303    0.36000001    2.86999989
   15.57694435   87.00279999    0.38000000    2.84999990
   15.58027744   86.06629944    0.36000001    2.84999990
   15.58333302   87.98500061    0.38000000    2.84999990
   15.58666611   89.67880249    0.38000000    2.84999990
   15.59277725   89.67880249    0.38000000    2.84999990
   15.59694386   85.30319977    0.36000001    2.84999990
   15.60027790   86.49369812    0.36000001    2.84999990
   15.60166740   87.14959717    0.34000000    2.84999990
   15.60388947   84.93579865    0.34000000    2.84999990
   15.60694504   83.67829895    0.34000000    2.84999990
   15.61027813   85.44049835    0.34000000    2.84999990
   15.61361122   90.97280121    0.36000001    2.84999990
   15.61666679   88.84970093    0.36000001    2.84999990
   15.61999989   87.02189636    0.36000001    2.84999990
   15.62333393   86.43150330    0.36000001    2.84999990
   15.62638855   85.29900360    0.34000000    2.86999989
   15.62972260   89.80699921    0.36000001    2.84999990
   15.63555527   89.80699921    0.36000001    2.84999990
   15.63972187   85.44640350    0.34000000    2.84999990
   15.64305496   85.16500092    0.34000000    2.84999990
   15.64611053   94.82740021    0.36000001    2.84999990
   15.64944458   85.04709625    0.36000001    2.84999990
   15.65277767   87.41259766    0.36000001    2.84999990
   15.65583324   88.80509949    0.36000001    2.84999990
   15.65916634   86.56159973    0.36000001    2.84999990
   15.66222191   88.65000153    0.36000001    2.84999990
   15.66555500   88.27780151    0.34000000    2.86999989
   15.66833401   86.03209686    0.34000000    2.84999990
   15.66916656   85.23200226    0.34000000    2.84999990
   15.67222214   84.72579956    0.34000000    2.84999990
   15.67833328   84.72579956    0.34000000    2.84999990
   15.68249989   80.76640320    0.34000000    2.86999989
   15.68583298   86.99710083    0.34000000    2.84999990
   15.68888855   84.54709625    0.34000000    2.84999990
   15.69222260   85.99990082    0.34000000    2.84999990
   15.69555569   83.86479950    0.34000000    2.84999990
   15.69888878   86.50659943    0.36000001    2.84999990
   15.70166683   83.94390106    0.36000001    2.84999990
   15.70249939   87.53479767    0.36000001    2.84999990
   15.70583344   86.67449951    0.34000000    2.84999990
   15.70888901   83.75000000    0.34000000    2.84999990
   15.71222210   81.35459900    0.34000000    2.84999990
   15.71527767   86.69909668    0.34000000    2.84999990
   15.72138882   86.69909668    0.36000001    2.84999990
   15.72555542   85.37329865    0.34000000    2.84999990
   15.72861099   86.82270050    0.34000000    2.84999990
   15.73194408   86.16159821    0.36000001    2.86999989
   15.73500061   85.17600250    0.34000000    2.84999990
   15.73555565   86.44779968    0.34000000    2.84999990
   15.73888874   87.44190216    0.34000000    2.86999989
   15.74194431   84.26010132    0.34000000    2.86999989
   15.74527836   84.40190125    0.34000000    2.84999990
   15.74833393   84.73780060    0.36000001    2.84999990
   15.75166702   89.27400208    0.36000001    2.84999990
   15.75500011   87.66390228    0.36000001    2.84999990
   15.75805569   86.31900024    0.36000001    2.84999990
   15.76416683   86.31900024    0.34000000    2.86999989
   15.76833344   86.25620270    0.34000000    2.86999989
   15.76888847   85.38099670    0.34000000    2.86999989
   15.77194405   84.53099823    0.34000000    2.84999990
   15.77527714   86.83730316    0.34000000    2.84999990
   15.77861118   86.50779724    0.34000000    2.84999990
   15.78166676   85.20539856    0.34000000    2.84999990
   15.78500080   88.83950043    0.34000000    2.84999990
   15.78833389   86.07399750    0.34000000    2.84999990
   15.79138947   85.59529877    0.34000000    2.84999990
   15.79472256   86.28029633    0.34000000    2.84999990
   15.79805565   83.50839996    0.36000001    2.86999989
   15.80111122   85.00559998    0.36000001    2.86999989
   15.80222225   87.29730225    0.36000001    2.84999990
   15.80694485   87.29730225    0.36000001    2.84999990
   15.81111145   85.75620270    0.38000000    2.84999990
   15.81444454   87.83640289    0.38000000    2.84999990
   15.81750011   92.39589691    0.36000001    2.84999990
   15.82083321   90.10140228    0.38000000    2.84999990
   15.82416630   85.86489868    0.38000000    2.84999990
   15.82722187   88.10949707    0.36000001    2.84999990
   15.83055592   87.58100128    0.36000001    2.84999990
   15.83361053   87.08599854    0.36000001    2.84999990
   15.83555508   85.89669800    0.34000000    2.86999989
   15.83722210   87.91149902    0.34000000    2.86999989
   15.84055519   85.51709747    0.34000000    2.84999990
   15.84388828   87.02799988    0.34000000    2.84999990
   15.84972191   87.02799988    0.38000000    2.84999990
   15.85388947   84.71990204    0.38000000    2.84999990
   15.85722256   82.60269928    0.38000000    2.84999990
   15.86027813   87.74050140    0.38000000    2.84999990
   15.86361122   87.81610107    0.38000000    2.84999990
   15.86694431   83.44380188    0.40000001    2.84999990
   15.86888885   84.78250122    0.40000001    2.84999990
   15.87027836   84.16390228    0.40000001    2.84999990
   15.87361145   81.94460297    0.40000001    2.84999990
   15.87694454   81.02819824    0.40000001    2.84999990
   15.88000011   87.41040039    0.38000000    2.86999989
   15.88333321   88.33679962    0.40000001    2.84999990
   15.88638878   86.65720367    0.40000001    2.84999990
   15.89277744   86.65720367    0.40000001    2.84999990
   15.89666653   83.12870026    0.38000000    2.84999990
   15.89999962   85.01999664    0.38000000    2.84999990
   15.90222168   88.08820343    0.38000000    2.84999990
   15.90361118   87.01370239    0.38000000    2.84999990
   15.90694427   90.48090363    0.38000000    2.84999990
   15.91027737   89.04560089    0.38000000    2.86999989
   15.91333294   88.79900360    0.38000000    2.86999989
   15.91666698   91.46920013    0.38000000    2.84999990
   15.92000008   84.93800354    0.38000000    2.84999990
   15.92305565   88.49749756    0.38000000    2.86999989
   15.92638874   81.42769623    0.38000000    2.86999989
   15.92944431   81.67359924    0.38000000    2.84999990
   15.93555546   81.67359924    0.40000001    2.84999990
   15.93972206   94.67179871    0.38000000    2.84999990
   15.94277763   96.61150360    0.40000001    2.84999990
   15.94611073   90.61609650    0.40000001    2.84999990
   15.94944477   85.64720154    0.40000001    2.84999990
   15.95249939   85.32530212    0.40000001    2.84999990
   15.95583344   87.92759705    0.40000001    2.84999990
   15.95916653   91.20800018    0.40000001    2.84999990
   15.96222210   92.38480377    0.40000001    2.84999990
   15.96555519   93.71710205    0.40000001    2.84999990
   15.96861076   90.57510376    0.40000001    2.84999990
   15.96916580   86.51599884    0.40000001    2.84999990
   15.97249985   89.37010193    0.41999999    2.86999989
   15.97833252   89.37010193    0.41999999    2.86999989
   15.98249912   85.30789948    0.44000000    2.84999990
   15.98583317   84.15450287    0.44000000    2.84999990
   15.98888874   83.25289917    0.41999999    2.84999990
   15.99222279   84.92379761    0.44000000    2.84999990
   15.99527836   83.83119965    0.44000000    2.84999990
   15.99861145   82.45700073    0.44000000    2.84999990
   16.00194359   84.63050079    0.44000000    2.84999990
   16.00250053   84.81069946    0.44000000    2.84999990
   16.00555611   86.72409821    0.44000000    2.84999990
   16.00888824   84.79820251    0.44000000    2.84999990
   16.01194382   83.11409760    0.44000000    2.84999990
   16.01527786   92.91169739    0.44000000    2.86999989
   16.02111053   92.91169739    0.41999999    2.84999990
   16.02527809   82.62960052    0.41999999    2.82999992
   16.02861023   85.05999756    0.41999999    2.82999992
   16.03194427   83.50420380    0.41999999    2.84999990
   16.03499985   82.49150085    0.41999999    2.84999990
   16.03583336   90.90889740    0.41999999    2.84999990
   16.03861046   88.51779938    0.41999999    2.84999990
   16.04194450   88.06759644    0.41999999    2.84999990
   16.04527664   89.74189758    0.41999999    2.84999990
   16.04833221   82.61289978    0.44000000    2.84999990
   16.05166626   89.95230103    0.44000000    2.84999990
   16.05472183   87.66300201    0.51999998    2.84999990
   16.05805397   90.21279907    0.51999998    2.84999990
   16.06416512   90.21279907    0.50000000    2.84999990
   16.06805611   84.93109894    0.50000000    2.84999990
   16.06916809   84.13569641    0.51999998    2.84999990
   16.07166672   86.37930298    0.51999998    2.84999990
   16.07500076   87.06289673    0.50000000    2.84999990
   16.07805634   91.87270355    0.50000000    2.86999989
   16.08139038   79.53479767    0.50000000    2.84999990
   16.08444595   87.98269653    0.51999998    2.86999989
   16.08777809   84.94069672    0.51999998    2.86999989
   16.09111214   88.21099854    0.52999997    2.84999990
   16.09416771   90.00949860    0.52999997    2.86999989
   16.09749985   84.78189850    0.52999997    2.86999989
   16.10083389   87.47949982    0.52999997    2.84999990
   16.10250092   82.54450226    0.52999997    2.84999990
   16.10694504   82.54450226    0.55000001    2.86999989
   16.11111069   92.84190369    0.55000001    2.86999989
   16.11416626   88.23210144    0.55000001    2.86999989
   16.11750031   86.80590057    0.55000001    2.86999989
   16.12083435   92.97869873    0.51999998    2.86999989
   16.12416649   93.49179840    0.51999998    2.86999989
   16.12722206   85.99420166    0.51999998    2.84999990
   16.13055611   86.01010132    0.51999998    2.84999990
   16.13361168   86.43550110    0.51999998    2.84999990
   16.13583374   86.36920166    0.51999998    2.86999989
   16.13722229   87.91850281    0.51999998    2.86999989
   16.14055634   86.54299927    0.51999998    2.86999989
   16.14361191   83.40200043    0.52999997    2.86999989
   16.14972115   83.40200043    0.51999998    2.86999989
   16.15388870   84.57050323    0.51999998    2.84999990
   16.15722275   87.55950165    0.51999998    2.86999989
   16.16027832   81.71260071    0.50000000    2.84999990
   16.16361046   83.76290131    0.47999999    2.86999989
   16.16666603   85.97450256    0.47999999    2.84999990
   16.16916656   86.98950195    0.47999999    2.84999990
   16.17027664   84.39920044    0.47999999    2.84999990
   16.17361069   85.33760071    0.47999999    2.84999990
   16.17666626   85.48120117    0.47999999    2.84999990
   16.18000031   82.56479645    0.46000001    2.84999990
   16.18305397   88.62290192    0.46000001    2.84999990
   16.18638802   87.23699951    0.46000001    2.86999989
   16.19249916   87.23699951    0.44000000    2.84999990
   16.19666672   86.64129639    0.44000000    2.84999990
   16.20000076   91.97470093    0.44000000    2.84999990
   16.20250130   86.94450378    0.44000000    2.84999990
   16.20361137   86.19229889    0.44000000    2.84999990
   16.20694542   84.63030243    0.41999999    2.84999990
   16.21000099   84.52059937    0.44000000    2.84999990
   16.21333504   83.29219818    0.41999999    2.84999990
   16.21666718   87.00039673    0.44000000    2.84999990
   16.21972275   86.23439789    0.44000000    2.84999990
   16.22305679   85.65010071    0.44000000    2.86999989
   16.22638893   86.08380127    0.44000000    2.84999990
   16.22944450   84.91310120    0.44000000    2.86999989
   16.23555565   84.91310120    0.44000000    2.84999990
   16.23944473   83.98439789    0.44000000    2.84999990
   16.24277878   86.61589813    0.44000000    2.84999990
   16.24611092   86.13369751    0.44000000    2.84999990
   16.24916649   85.93450165    0.46000001    2.86999989
   16.25250053   83.28119659    0.46000001    2.86999989
   16.25583267   91.33380127    0.46000001    2.86999989
   16.25888824   88.04989624    0.46000001    2.86999989
   16.26222229   86.14569855    0.46000001    2.86999989
   16.26527786   88.63690186    0.47999999    2.86999989
   16.26861000   88.71640015    0.47999999    2.86999989
   16.27055550   89.92649841    0.50000000    2.84999990
   16.27222252   85.90859985    0.50000000    2.84999990
   16.27833366   85.90859985    0.52999997    2.84999990
   16.28249931   83.46070099    0.52999997    2.84999990
   16.28555489   82.97840118    0.52999997    2.84999990
   16.28888893   88.73960114    0.52999997    2.84999990
   16.29222107   83.78589630    0.51999998    2.84999990
   16.29527664   87.17400360    0.51999998    2.84999990
   16.29861069   84.82389832    0.52999997    2.84999990
   16.30194283   89.22579956    0.52999997    2.84999990
   16.30388832   91.73690033    0.52999997    2.84999990
   16.30527687   86.88330078    0.51999998    2.84999990
   16.30861092   85.95649719    0.51999998    2.84999990
   16.31194305   88.85399628    0.51999998    2.84999990
   16.31499863   89.49310303    0.51999998    2.84999990
   16.32111168   89.49310303    0.51999998    2.84999990
   16.32527924   89.83239746    0.51999998    2.86999989
   16.32861137   87.98470306    0.50000000    2.86999989
   16.33166695   93.77300262    0.50000000    2.84999990
   16.33500099   91.25789642    0.50000000    2.84999990
   16.33722305   90.86509705    0.50000000    2.84999990
   16.33861160   86.65850067    0.50000000    2.84999990
   16.34194565   90.72229767    0.50000000    2.84999990
   16.34500122   91.04550171    0.50000000    2.84999990
   16.34833336   89.02110291    0.50000000    2.86999989
   16.35166740   88.18019867    0.50000000    2.84999990
   16.35472298   89.29319763    0.50000000    2.84999990
   16.35805511   83.30319977    0.50000000    2.84999990
   16.36388969   83.30319977    0.51999998    2.86999989
   16.36805534   84.66079712    0.51999998    2.84999990
   16.37083435   91.33070374    0.52999997    2.84999990
   16.37166595   83.90219879    0.52999997    2.84999990
   16.37500000   85.85620117    0.51999998    2.84999990
   16.37805557   85.30960083    0.51999998    2.84999990
   16.38138962   81.63240051    0.51999998    2.84999990
   16.38472176   87.86250305    0.51999998    2.84999990
   16.38777733   87.33769989    0.51999998    2.84999990
   16.39111137   89.85710144    0.51999998    2.86999989
   16.39444351   92.22920227    0.51999998    2.84999990
   16.39749908   87.86830139    0.51999998    2.84999990
   16.40083313   85.57579803    0.51999998    2.84999990
   16.40694427   85.57579803    0.51999998    2.86999989
   16.41083336   86.44110107    0.50000000    2.84999990
   16.41416550   86.48210144    0.51999998    2.84999990
   16.41749954   87.32180023    0.51999998    2.84999990
   16.42055511   93.31310272    0.51999998    2.84999990
   16.42388916   84.35679626    0.51999998    2.86999989
   16.42722130   88.32730103    0.51999998    2.86999989
   16.43027687   88.14050293    0.51999998    2.86999989
   16.43361092   87.43419647    0.50000000    2.86999989
   16.43666649   86.94390106    0.50000000    2.86999989
   16.43777657   88.51450348    0.50000000    2.86999989
   16.44027710   85.73090363    0.50000000    2.84999990
   16.44361115   89.39240265    0.50000000    2.84999990
   16.44972038   89.39240265    0.47999999    2.86999989
   16.45388985   97.15640259    0.47999999    2.86999989
   16.45722389   87.26540375    0.47999999    2.84999990
   16.46027946   88.27429962    0.46000001    2.86999989
   16.46361160   88.57620239    0.47999999    2.86999989
   16.46694565   94.83540344    0.47999999    2.86999989
   16.47000122   91.25920105    0.47999999    2.86999989
   16.47111130   87.72810364    0.47999999    2.86999989
   16.47389030   92.30979919    0.47999999    2.86999989
   16.47722244   91.58239746    0.47999999    2.84999990
   16.48027802   89.30509949    0.47999999    2.84999990
   16.48361206   93.69069672    0.46000001    2.86999989
   16.48694420   89.45169830    0.46000001    2.84999990
   16.49250031   89.45169830    0.47999999    2.86999989
   16.49666786   92.14330292    0.46000001    2.86999989
   16.49972153   88.69589996    0.47999999    2.86999989
   16.50305557   86.06800079    0.47999999    2.84999990
   16.50444412   88.29149628    0.47999999    2.84999990
   16.50666618   83.34860229    0.47999999    2.86999989
   16.51000023   92.40070343    0.50000000    2.86999989
   16.51305580   94.04669952    0.50000000    2.84999990
   16.51638794   86.97740173    0.50000000    2.84999990
   16.51972198   88.15599823    0.50000000    2.84999990
   16.52277756   95.11990356    0.51999998    2.84999990
   16.52611160   86.21260071    0.52999997    2.86999989
   16.52944374   88.67759705    0.52999997    2.84999990
   16.53527641   88.67759705    0.52999997    2.84999990
   16.55360985   88.77519989    0.55000001    2.86999989
   16.55694389   87.88500214    0.51999998    2.84999990
   16.56027794   88.09020233    0.51999998    2.86999989
   16.56333351   87.28949738    0.50000000    2.84999990
   16.56666756   91.99620056    0.50000000    2.84999990
   16.57000160   87.58409882    0.50000000    2.86999989
   16.57305717   93.66280365    0.50000000    2.86999989
   16.57833481   93.66280365    0.51999998    2.86999989
   16.58250046   87.76609802    0.50000000    2.84999990
   16.58583450   86.68119812    0.51999998    2.84999990
   16.58666801   85.58630371    0.51999998    2.84999990
   16.58944511   85.79989624    0.51999998    2.86999989
   16.59277916   87.45649719    0.50000000    2.84999990
   16.59583473   91.75160217    0.50000000    2.84999990
   16.59916687   90.37339783    0.50000000    2.84999990
   16.60250092   89.66649628    0.50000000    2.84999990
   16.60555649   87.80449677    0.50000000    2.86999989
   16.60888863   88.40660095    0.50000000    2.86999989
   16.61222267   89.79689789    0.51999998    2.86999989
   16.61527824   88.00189972    0.50000000    2.84999990
   16.62138939   88.00189972    0.50000000    2.86999989
   16.62527847   87.83750153    0.47999999    2.84999990
   16.62861061   91.72760010    0.47999999    2.86999989
   16.63194466   85.48229980    0.47999999    2.86999989
   16.63500023   89.22489929    0.50000000    2.84999990
   16.63833237   88.90869904    0.47999999    2.86999989
   16.64138794   89.42009735    0.47999999    2.86999989
   16.64472198   85.44429779    0.47999999    2.84999990
   16.64805603   85.66290283    0.47999999    2.84999990
   16.65111160   87.56829834    0.47999999    2.84999990
   16.65333366   87.55979919    0.46000001    2.84999990
   16.65472221   86.16410065    0.46000001    2.84999990
   16.65805435   89.34980011    0.44000000    2.86999989
   16.66416550   89.34980011    0.44000000    2.84999990
   16.66833305   90.39279938    0.46000001    2.84999990
   16.67138863   95.12860107    0.46000001    2.86999989
   16.67472076   86.24179840    0.46000001    2.86999989
   16.67805481   89.36280060    0.47999999    2.84999990
   16.68111038   87.18969727    0.47999999    2.86999989
   16.68444443   88.99389648    0.47999999    2.86999989
   16.68666649   86.33229828    0.47999999    2.86999989
   16.68805504   91.10569763    0.47999999    2.86999989
   16.69138718   89.09269714    0.47999999    2.86999989
   16.69444275   86.66609955    0.47999999    2.84999990
   16.69777679   85.33070374    0.47999999    2.84999990
   16.70083427   93.94460297    0.47999999    2.86999989
   16.70694542   93.94460297    0.47999999    2.86999989
   16.71111107   83.54850006    0.47999999    2.84999990
   16.71416664   82.48789978    0.47999999    2.86999989
   16.71750069   84.73459625    0.47999999    2.86999989
   16.72000122   88.15809631    0.46000001    2.84999990
   16.72111130   83.47250366    0.46000001    2.84999990
   16.72444534   92.00509644    0.47999999    2.86999989
   16.72777748   84.91510010    0.46000001    2.84999990
   16.73083305   82.91570282    0.46000001    2.86999989
   16.73416710   84.52909851    0.47999999    2.86999989
   16.73722267   91.71939850    0.47999999    2.84999990
   16.74055672   89.30329895    0.47999999    2.84999990
   16.74388885   87.52050018    0.47999999    2.86999989
   16.74972153   87.52050018    0.47999999    2.84999990
   16.75388908   87.40399933    0.46000001    2.86999989
   16.75722313   93.86769867    0.46000001    2.84999990
   16.76027870   89.04470062    0.46000001    2.84999990
   16.76361084   95.39330292    0.44000000    2.84999990
   16.76694489   84.92070007    0.44000000    2.84999990
   16.77000046   85.71240234    0.44000000    2.84999990
   16.77333260   92.28880310    0.41999999    2.84999990
   16.77666664   91.98609924    0.44000000    2.84999990
   16.77972221   91.66670227    0.44000000    2.86999989
   16.78305435   84.15979767    0.44000000    2.86999989
   16.78610992   85.81150055    0.44000000    2.86999989
   16.78666687   87.57460022    0.44000000    2.86999989
   16.79277802   87.57460022    0.44000000    2.86999989
   16.79666710   81.98459625    0.44000000    2.84999990
   16.79999924   87.26100159    0.41999999    2.86999989
   16.80333328   89.66660309    0.41999999    2.84999990
   16.80666542   88.43219757    0.41999999    2.86999989
   16.80972099   93.74759674    0.41999999    2.84999990
   16.81305504   90.33200073    0.41999999    2.84999990
   16.81638718   94.40280151    0.40000001    2.84999990
   16.81944466   90.86779785    0.40000001    2.86999989
   16.82000160   92.76219940    0.40000001    2.86999989
   16.82305717   93.27809906    0.40000001    2.84999990
   16.82638931   89.09660339    0.38000000    2.84999990
   16.82944489   95.35559845    0.40000001    2.84999990
   16.83583450   95.35559845    0.40000001    2.86999989
   16.84000015   88.02989960    0.40000001    2.86999989
   16.84305573   91.72570038    0.44000000    2.86999989
   16.84638977   87.57810211    0.41999999    2.84999990
   16.84972191   91.03420258    0.40000001    2.86999989
   16.85277748   87.20050049    0.41999999    2.86999989
   16.85361099   90.80560303    0.41999999    2.86999989
   16.85666656   88.73829651    0.44000000    2.86999989
   16.85972214   87.43930054    0.44000000    2.86999989
   16.86305618   81.93879700    0.44000000    2.84999990
   16.86638832   83.36609650    0.44000000    2.86999989
   16.86944389   87.91629791    0.47999999    2.84999990
   16.87277794   87.32409668    0.47999999    2.86999989
   16.87833405   87.32409668    0.47999999    2.84999990
   16.88249969   89.07479858    0.50000000    2.84999990
   16.88555527   89.64990234    0.47999999    2.86999989
   16.88666725   91.61979675    0.46000001    2.84999990
   16.88916588   88.99569702    0.46000001    2.84999990
   16.89249992   86.80989838    0.47999999    2.84999990
   16.89555550   87.92980194    0.46000001    2.84999990
   16.89888954   92.21610260    0.46000001    2.84999990
   16.90222168   86.27850342    0.46000001    2.84999990
   16.90527725   89.34539795    0.46000001    2.84999990
   16.90861130   93.97840118    0.47999999    2.86999989
   16.91166687   86.64160156    0.47999999    2.86999989
   16.91499901   96.59940338    0.50000000    2.86999989
   16.92111015   96.59940338    0.47999999    2.84999990
   16.92527771   89.55570221    0.47999999    2.84999990
   16.92860985   85.54650116    0.47999999    2.84999990
   16.93166542   89.51979828    0.50000000    2.86999989
   16.93499947   85.40339661    0.47999999    2.86999989
   16.93833160   91.77210236    0.47999999    2.86999989
   16.94138718   89.75360107    0.50000000    2.86999989
   16.94472122   93.92359924    0.50000000    2.86999989
   16.94777679   90.60900116    0.47999999    2.86999989
   16.95111275   92.37760162    0.50000000    2.84999990
   16.95333481   86.23950195    0.50000000    2.84999990
   16.95472336   93.06939697    0.51999998    2.86999989
   16.95805550   90.39849854    0.51999998    2.84999990
   16.96389008   90.39849854    0.51999998    2.84999990
   16.96805573   93.88159943    0.51999998    2.86999989
   16.97138977   95.44819641    0.51999998    2.84999990
   16.97472191   94.16079712    0.50000000    2.86999989
   16.97777748   88.53700256    0.46000001    2.89000010
   16.98111153   90.18240356    0.47999999    2.86999989
   16.98416710   88.17829895    0.47999999    2.86999989
   16.98666763   89.67980194    0.47999999    2.86999989
   16.98805618   91.10169983    0.47999999    2.86999989
   16.99111176   87.13050079    0.47999999    2.86999989
   16.99444389   91.21289825    0.47999999    2.84999990
   16.99777794   91.33229828    0.47999999    2.84999990
   17.00083351   92.76540375    0.47999999    2.84999990
   17.00694466   92.76540375    0.47999999    2.86999989
   17.01111031   92.05580139    0.47999999    2.86999989
   17.01416588   88.81600189    0.47999999    2.86999989
   17.01749992   85.08969879    0.47999999    2.86999989
   17.02000046   95.95339966    0.47999999    2.86999989
   17.02111053   97.82389832    0.47999999    2.86999989
   17.02444458   90.09169769    0.50000000    2.86999989
   17.02750015   94.86879730    0.50000000    2.86999989
   17.03083229   92.36060333    0.50000000    2.84999990
   17.03416634   89.63690186    0.50000000    2.86999989
   17.03722191   87.24749756    0.50000000    2.86999989
   17.04055595   86.40249634    0.50000000    2.86999989
   17.04361153   88.24520111    0.63000000    2.86999989
   17.04972076   88.24520111    0.52999997    2.86999989
   17.05388832   89.22309875    0.50000000    2.84999990
   17.05722237   88.25129700    0.51999998    2.86999989
   17.06027794   89.35479736    0.51999998    2.86999989
   17.06361008   90.05750275    0.51999998    2.86999989
   17.06694603   92.85569763    0.52999997    2.86999989
   17.07000160   89.20839691    0.52999997    2.86999989
   17.07333374   92.24639893    0.51999998    2.86999989
   17.07666779   90.12259674    0.52999997    2.86999989
   17.07972336   87.16290283    0.52999997    2.86999989
   17.08305550   91.32790375    0.52999997    2.86999989
   17.08611107   94.29579926    0.55000001    2.84999990
   17.08694458   92.04609680    0.55000001    2.84999990
   17.09250069   92.04609680    0.55000001    2.84999990
   17.09666824   91.85639954    0.52999997    2.84999990
   17.10000038   91.08029938    0.52999997    2.86999989
   17.10305595   88.23809814    0.51999998    2.84999990
   17.10639000   92.64340210    0.50000000    2.86999989
   17.10972214   87.87349701    0.50000000    2.86999989
   17.11277771   88.08930206    0.50000000    2.86999989
   17.11611176   92.99739838    0.50000000    2.86999989
   17.11916733   87.54979706    0.50000000    2.84999990
   17.12027740   85.07559967    0.50000000    2.84999990
   17.12277794   88.18029785    0.50000000    2.84999990
   17.12611198   88.24040222    0.50000000    2.84999990
   17.12916756   93.76490021    0.50000000    2.86999989
   17.13527679   93.76490021    0.50000000    2.86999989
   17.13944435   87.94899750    0.47999999    2.84999990
   17.14277840   88.76049805    0.47999999    2.84999990
   17.14611053   89.11039734    0.47999999    2.86999989
   17.14916611   94.13200378    0.50000000    2.86999989
   17.15250015   96.97589874    0.50000000    2.86999989
   17.15361023   96.93419647    0.50000000    2.86999989
   17.15611076   95.60430145    0.50000000    2.86999989
   17.15944481  104.33599854    0.47999999    2.84999990
   17.16250038  104.37599945    0.47999999    2.86999989
   17.16583252  105.95099640    0.44000000    2.84999990
   17.16916656  111.79199982    0.44000000    2.84999990
   17.17222214  112.73200226    0.46000001    2.86999989
   17.17833328  112.73200226    0.46000001    2.84999990
   17.18249893  132.72000122    0.44000000    2.84999990
   17.18610954  161.31700134    0.44000000    2.84999990
   17.18694305  153.25500488    0.44000000    2.84999990
   17.18944359  175.13200378    0.44000000    2.86999989
   17.19277763  177.08299255    0.44000000    2.86999989
   17.19610977  226.48300171    0.44000000    2.84999990
   17.19916534  323.19400024    0.46000001    2.86999989
   17.20250130  196.22000122    0.51999998    2.86999989
   17.20555687  121.48100281    0.47999999    2.84999990
   17.20888901   -1.00000000    0.47999999    2.84999990
   17.21222305   -1.00000000    0.50000000    2.84999990
   17.21527863   -1.00000000    0.50000000    2.84999990
   17.22111130   -1.00000000    0.46000001    2.84999990
   17.22527885   -1.00000000    0.46000001    2.84999990
   17.22833443   -1.00000000    0.46000001    2.84999990
   17.23166656   -1.00000000    0.47999999    2.84999990
   17.23500061   -1.00000000    0.50000000    2.86999989
   17.23805618   -1.00000000    0.50000000    2.86999989
   17.24138832   -1.00000000    0.52999997    2.86999989
   17.24472237   -1.00000000    0.55000001    2.84999990
   17.24777794   -1.00000000    0.51999998    2.86999989
   17.25111198   -1.00000000    0.47999999    2.86999989
   17.25472260   -1.00000000    0.46000001    2.86999989
   17.25805473   -1.00000000    0.44000000    2.84999990
   17.26805496   -1.00000000    0.46000001    2.84999990
   17.27138901   -1.00000000    0.44000000    2.84999990
   17.27444458   -1.00000000    0.44000000    2.84999990
   17.27805519   -1.00000000    0.44000000    2.84999990
   17.28138924   -1.00000000    0.46000001    2.84999990
   17.28444481   -1.00000000    0.46000001    2.84999990
   17.28694344  105.93199921    0.46000001    2.84999990
   17.28805542   98.29660034    0.46000001    2.84999990
   17.29138756   -1.00000000    0.46000001    2.84999990
   17.29472160   98.15670013    0.46000001    2.84999990
   17.29777718   95.69740295    0.44000000    2.84999990
   17.30111122   96.94539642    0.46000001    2.84999990
   17.30666542   96.94539642    0.46000001    2.86999989
   17.31083298   98.00859833    0.44000000    2.84999990
   17.31416512   95.47830200    0.46000001    2.84999990
   17.31750107   96.01760101    0.46000001    2.86999989
   17.32027817   92.71959686    0.46000001    2.86999989
   17.32083511   93.48500061    0.46000001    2.86999989
   17.32416725   91.43930054    0.46000001    2.84999990
   17.32750130   97.46970367    0.46000001    2.84999990
   17.33055687   97.65110016    0.46000001    2.84999990
   17.33388901   92.20439911    0.46000001    2.84999990
   17.33694458   91.11340332    0.46000001    2.84999990
   17.34027863   91.21669769    0.46000001    2.84999990
   17.34361267   93.50460052    0.46000001    2.84999990
   17.34972191   93.50460052    0.47999999    2.84999990
   17.35388947   93.48909760    0.50000000    2.84999990
   17.35694504   89.62699890    0.50000000    2.84999990
   17.36027908   90.73259735    0.50000000    2.84999990
   17.36333466   88.27590179    0.47999999    2.84999990
   17.36666679   92.61180115    0.47999999    2.84999990
   17.37000084   93.20909882    0.47999999    2.84999990
   17.37305641   89.41419983    0.47999999    2.84999990
   17.37638855   97.71520233    0.47999999    2.84999990
   17.37972260   94.60220337    0.46000001    2.84999990
   17.38277817   93.68710327    0.46000001    2.84999990
   17.38611031  100.32700348    0.46000001    2.84999990
   17.38694382   96.50939941    0.46000001    2.84999990
   17.39249992   96.50939941    0.47999999    2.84999990
   17.39666748   97.73130035    0.50000000    2.84999990
   17.39972115   94.14579773    0.47999999    2.84999990
   17.40305519   94.67389679    0.47999999    2.86999989
   17.40638924   90.82240295    0.47999999    2.84999990
   17.40944481   87.82720184    0.47999999    2.84999990
   17.41277695   93.02279663    0.47999999    2.84999990
   17.41611099   87.25990295    0.47999999    2.84999990
   17.41916656   91.05549622    0.47999999    2.82999992
   17.42027664   94.06739807    0.47999999    2.82999992
   17.42277718   90.26059723    0.47999999    2.84999990
   17.42611122   89.92160034    0.47999999    2.84999990
   17.42944336   94.83390045    0.47999999    2.84999990
   17.43527603   94.83390045    0.47999999    2.86999989
   17.43944359   87.97180176    0.47999999    2.84999990
   17.44277763   86.35859680    0.47999999    2.82999992
   17.44583321   89.24639893    0.47999999    2.84999990
   17.44916534   96.95490265    0.47999999    2.86999989
   17.45250130   92.74009705    0.46000001    2.82999992
   17.45361137   93.27639771    0.46000001    2.82999992
   17.45583344   92.71569824    0.46000001    2.84999990
   17.45916748   91.47309875    0.46000001    2.84999990
   17.46250153   87.14769745    0.46000001    2.86999989
   17.46555710   87.60579681    0.46000001    2.84999990
   17.46888924   90.38150024    0.46000001    2.84999990
   17.47222328   90.78749847    0.46000001    2.84999990
   17.47805595   90.78749847    0.46000001    2.84999990
   17.48222351   87.78220367    0.46000001    2.86999989
   17.48555565   88.59210205    0.46000001    2.86999989
   17.48694420   89.78810120    0.47999999    2.84999990
   17.48916626   86.20200348    0.47999999    2.84999990
   17.49250031   92.35430145    0.46000001    2.84999990
   17.49583435   86.14969635    0.46000001    2.84999990
   17.49888992   92.73840332    0.46000001    2.84999990
   17.50222206   94.03859711    0.46000001    2.84999990
   17.50555611   89.69390106    0.46000001    2.84999990
   17.50861168   93.98359680    0.47999999    2.84999990
   17.51194382   96.70310211    0.47999999    2.84999990
   17.51499939   92.33309937    0.46000001    2.84999990
   17.52111053   92.33309937    0.44000000    2.84999990
   17.52527809   89.18630219    0.44000000    2.84999990
   17.52833366   92.11389923    0.44000000    2.84999990
   17.53166580   89.31980133    0.46000001    2.84999990
   17.53472137   88.80760193    0.46000001    2.82999992
   17.53805542   95.30989838    0.46000001    2.84999990
   17.54138756   92.57150269    0.46000001    2.84999990
   17.54444313   92.05999756    0.46000001    2.84999990
   17.54777718   88.48570251    0.44000000    2.82999992
   17.55111122   88.42749786    0.44000000    2.84999990
   17.55360985   95.21130371    0.44000000    2.84999990
   17.57416725   95.21130371    0.46000001    2.84999990
   17.57833481   90.69170380    0.46000001    2.84999990
   17.58166695   93.17769623    0.46000001    2.84999990
   17.58472252   94.97509766    0.46000001    2.84999990
   17.58694458   91.38960266    0.46000001    2.82999992
   17.58861160   88.89099884    0.46000001    2.82999992
   17.59166718   93.17549896    0.46000001    2.82999992
   17.59500122   90.38230133    0.46000001    2.84999990
   17.59833336   90.26159668    0.46000001    2.82999992
   17.60138893   89.56469727    0.44000000    2.84999990
   17.60472298   92.71980286    0.44000000    2.84999990
   17.60805511   88.50550079    0.44000000    2.84999990
   17.61111069   90.11660004    0.44000000    2.84999990
   17.61694527   90.11660004    0.44000000    2.84999990
   17.62111092   93.90429688    0.44000000    2.84999990
   17.62444496   95.63670349    0.44000000    2.82999992
   17.62750053   89.80139923    0.44000000    2.82999992
   17.63083267   92.64530182    0.44000000    2.82999992
   17.63416672   92.17870331    0.46000001    2.82999992
   17.63722229   93.66519928    0.46000001    2.82999992
   17.64055634   88.17350006    0.44000000    2.84999990
   17.64388847   88.88510132    0.44000000    2.82999992
   17.64694405   94.48429871    0.46000001    2.84999990
   17.65027809   95.57589722    0.46000001    2.84999990
   17.65361023   94.09549713    0.46000001    2.84999990
   17.65388870   95.37400055    0.46000001    2.84999990
   17.65972137   95.37400055    0.46000001    2.82999992
   17.66388893   97.42410278    0.47999999    2.84999990
   17.66722107   88.19309998    0.46000001    2.82999992
   17.67027664   97.75370026    0.47999999    2.82999992
   17.67361069   99.87850189    0.46000001    2.84999990
   17.67694473   90.48040009    0.47999999    2.84999990
   17.68027687   93.91179657    0.47999999    2.82999992
   17.68333244   91.10520172    0.47999999    2.84999990
   17.68666649   96.25859833    0.47999999    2.84999990
   17.68722153   92.13909912    0.47999999    2.84999990
   17.69027710   90.32029724    0.47999999    2.82999992
   17.69361115   95.35389709    0.47999999    2.82999992
   17.69666672   96.92289734    0.47999999    2.82999992
   17.70250130   96.92289734    0.47999999    2.82999992
   17.70666695   93.56809998    0.47999999    2.84999990
   17.71000099   90.38120270    0.46000001    2.82999992
   17.71333504   91.17060089    0.46000001    2.82999992
   17.71638870   89.70619965    0.46000001    2.82999992
   17.71972275   91.05419922    0.46000001    2.82999992
   17.72055626   90.99359894    0.46000001    2.84999990
   17.72333336   93.11789703    0.46000001    2.84999990
   17.72666740   94.21080017    0.44000000    2.84999990
   17.72972298   94.54570007    0.44000000    2.84999990
   17.73305511   91.86219788    0.46000001    2.82999992
   17.73638916  100.49600220    0.46000001    2.82999992
   17.73972321   95.43180084    0.46000001    2.84999990
   17.74555588   95.43180084    0.46000001    2.84999990
   17.74944496   95.74179840    0.46000001    2.84999990
   17.75277710   96.52200317    0.47999999    2.84999990
   17.75388908   91.07949829    0.47999999    2.84999990
   17.75638962   89.86879730    0.47999999    2.84999990
   17.75972176   91.48380280    0.47999999    2.82999992
   17.76277733   89.98110199    0.47999999    2.84999990
   17.76611137   92.63169861    0.47999999    2.84999990
   17.76944351   94.22070313    0.47999999    2.82999992
   17.77249908   87.69370270    0.50000000    2.84999990
   17.77583313   89.36679840    0.50000000    2.84999990
   17.77888870   86.22509766    0.50000000    2.84999990
   17.78222275   87.28040314    0.50000000    2.82999992
   17.78833199   87.28040314    0.47999999    2.82999992
   17.79249954   91.50460052    0.50000000    2.84999990
   17.79555511   91.06649780    0.50000000    2.82999992
   17.79888916   90.43190002    0.50000000    2.84999990
   17.80222130   91.23699951    0.51999998    2.84999990
   17.80527687   90.25090027    0.51999998    2.82999992
   17.80861092   90.83650208    0.51999998    2.82999992
   17.81166649   91.19719696    0.51999998    2.84999990
   17.81499863   89.40399933    0.52999997    2.84999990
   17.81833458   92.86340332    0.52999997    2.84999990
   17.82055664   89.29139709    0.55000001    2.84999990
   17.82194519   89.41829681    0.55000001    2.84999990
   17.82527924   89.05079651    0.52999997    2.84999990
   17.83111191   89.05079651    0.55000001    2.84999990
   17.83527756   93.75399780    0.52999997    2.84999990
   17.83861160   90.55220032    0.55000001    2.84999990
   17.84166718   96.87229919    0.51999998    2.84999990
   17.84500122   88.65699768    0.51999998    2.84999990
   17.84805679   89.19259644    0.52999997    2.80999994
   17.85138893   89.47280121    0.51999998    2.84999990
   17.85388947   88.07019806    0.51999998    2.84999990
   17.85499954   90.74490356    0.51999998    2.84999990
   17.85833359   91.51280212    0.51999998    2.82999992
   17.86138916   91.46880341    0.51999998    2.82999992
   17.86472321   90.33489990    0.52999997    2.84999990
   17.86805534   93.12030029    0.52999997    2.82999992
   17.87388992   93.12030029    0.52999997    2.82999992
   17.87888908   93.19960022    0.52999997    2.84999990
   17.88194466   91.30390167    0.52999997    2.82999992
   17.88527679   86.57369995    0.52999997    2.82999992
   17.88722229   85.29100037    0.55000001    2.82999992
   17.88888931   89.04250336    0.55000001    2.82999992
   17.89222145   88.15879822    0.52999997    2.82999992
   17.89527702   88.35479736    0.52999997    2.84999990
   17.89861107   89.58709717    0.52999997    2.82999992
   17.90194321   93.41349792    0.55000001    2.82999992
   17.90499878   92.02570343    0.55000001    2.82999992
   17.90833282   95.56349945    0.55000001    2.82999992
   17.91138840   92.78730011    0.55000001    2.84999990
   17.91694450   92.78730011    0.55000001    2.82999992
   17.92111015   89.42590332    0.56999999    2.82999992
   17.92444420   87.41519928    0.56999999    2.84999990
   17.92777634   89.63549805    0.56999999    2.84999990
   17.93083191   90.97360229    0.56999999    2.82999992
   17.93416595   94.75009918    0.56999999    2.82999992
   17.93750000   90.09980011    0.56999999    2.82999992
   17.94055557   90.19059753    0.55000001    2.82999992
   17.94388771   93.01239777    0.56999999    2.82999992
   17.94694328   96.10849762    0.56999999    2.82999992
   17.95027924   92.68009949    0.55000001    2.84999990
   17.95361137   90.91230011    0.55000001    2.82999992
   17.95416832   92.37010193    0.55000001    2.82999992
   17.95972252   92.37010193    0.55000001    2.82999992
   17.96389008   88.99859619    0.56999999    2.84999990
   17.96694565   90.95709991    0.55000001    2.84999990
   17.97027779   91.25250244    0.56999999    2.84999990
   17.97361183   89.38040161    0.56999999    2.82999992
   17.97666740   93.32389832    0.56999999    2.82999992
   17.98000145   90.99600220    0.56999999    2.82999992
   17.98333359   93.30030060    0.56999999    2.82999992
   17.98638916   90.17900085    0.56999999    2.82999992
   17.98722267   89.56500244    0.56999999    2.82999992
   17.98999977   91.29519653    0.56999999    2.84999990
   17.99333382   96.81179810    0.56999999    2.82999992
   17.99638939   91.16850281    0.56999999    2.84999990
   18.00250053   91.16850281    0.55000001    2.84999990
   18.00666618   90.99340057    0.55000001    2.84999990
   18.01000023   95.70980072    0.55000001    2.84999990
   18.01305580   98.21669769    0.55000001    2.82999992
   18.01638794   93.79859924    0.52999997    2.84999990
   18.01944351   90.83110046    0.55000001    2.82999992
   18.02055550   92.49900055    0.55000001    2.82999992
   18.02305603   90.13580322    0.55000001    2.82999992
   18.02638817   91.02960205    0.55000001    2.82999992
   18.02944374   99.25360107    0.55000001    2.82999992
   18.03277779   94.23149872    0.55000001    2.82999992
   18.03610992   87.21530151    0.55000001    2.82999992
   18.03916550   92.49900055    0.56999999    2.82999992
   18.04527664   92.49900055    0.55000001    2.82999992
   18.04944420   90.84420013    0.55000001    2.82999992
   18.05277634   88.51830292    0.55000001    2.84999990
   18.05388832   92.42910004    0.55000001    2.84999990
   18.05638885   92.70400238    0.55000001    2.82999992
   18.05972099   91.54010010    0.55000001    2.82999992
   18.06305504   92.69370270    0.55000001    2.82999992
   18.06611061   93.43260193    0.55000001    2.82999992
   18.06944466   97.72440338    0.55000001    2.82999992
   18.07250023   95.49729919    0.55000001    2.82999992
   18.07583427   98.82779694    0.55000001    2.82999992
   18.07916832   91.15660095    0.55000001    2.82999992
   18.08222389   94.72940063    0.52999997    2.82999992
   18.08833313   94.72940063    0.52999997    2.82999992
   18.09222221   97.63289642    0.55000001    2.82999992
   18.09555626   88.97850037    0.55000001    2.82999992
   18.09889030   91.35549927    0.52999997    2.82999992
   18.10194397   88.97579956    0.55000001    2.82999992
   18.10527802   94.13549805    0.55000001    2.82999992
   18.10861206   89.44809723    0.55000001    2.82999992
   18.11166763   93.81610107    0.55000001    2.82999992
   18.11499977   88.91809845    0.55000001    2.82999992
   18.11805534   89.96179962    0.52999997    2.82999992
   18.12083435   89.64459991    0.55000001    2.82999992
   18.12166595   89.54759979    0.55000001    2.82999992
   18.12500000   91.53289795    0.52999997    2.82999992
   18.13111115   91.53289795    0.55000001    2.82999992
   18.13527679   94.78690338    0.55000001    2.82999992
   18.13833237   91.87979889    0.55000001    2.82999992
   18.14166641   87.90899658    0.55000001    2.80999994
   18.14500046   89.82430267    0.56999999    2.82999992
   18.14805603   89.20099640    0.55000001    2.82999992
   18.15138817   92.07910156    0.56999999    2.82999992
   18.15416718   90.80979919    0.56999999    2.82999992
   18.15499878   90.97260284    0.56999999    2.82999992
   18.15833282   94.38749695    0.56999999    2.82999992
   18.16166687   93.62770081    0.58999997    2.80999994
   18.16472244   96.34510040    0.56999999    2.82999992
   18.16805458   94.21910095    0.58999997    2.82999992
   18.17388916   94.21910095    0.58999997    2.82999992
   18.17805481   90.03389740    0.58999997    2.82999992
   18.18138885   92.29470062    0.58999997    2.82999992
   18.18444443   88.41919708    0.58999997    2.82999992
   18.18750000   92.22959900    0.58999997    2.82999992
   18.18805504   94.58059692    0.58999997    2.82999992
   18.19138718   87.76010132    0.58999997    2.82999992
   18.19472122   86.31159973    0.58999997    2.80999994
   18.19777679   93.80970001    0.58999997    2.80999994
   18.20111275   90.34819794    0.58999997    2.82999992
   18.20416832   86.43039703    0.58999997    2.82999992
   18.20750046   96.06410217    0.58999997    2.82999992
   18.21083450   88.98059845    0.56999999    2.80999994
   18.21694565   88.98059845    0.58999997    2.82999992
   18.22083473   92.43039703    0.58999997    2.82999992
   18.22416687   95.52860260    0.58999997    2.82999992
   18.22750092   92.39540100    0.58999997    2.82999992
   18.23055649  165.41999817    0.61000001    2.82999992
   18.23388863   88.45950317    0.61000001    2.82999992
   18.23722267   90.63860321    0.61000001    2.82999992
   18.24027824   97.52850342    0.61000001    2.80999994
   18.24361229   88.01450348    0.61000001    2.80999994
   18.24666786   91.82489777    0.61000001    2.82999992
   18.25000000   87.97740173    0.61000001    2.82999992
   18.25333405   87.24169922    0.61000001    2.80999994
   18.25416756   92.26770020    0.61000001    2.80999994
   18.25972176   92.26770020    0.61000001    2.80999994
   18.26388931   90.56220245    0.61000001    2.82999992
   18.26694489   90.44920349    0.61000001    2.82999992
   18.27027702   89.57980347    0.61000001    2.82999992
   18.27333260   92.34380341    0.61000001    2.82999992
   18.27666664   88.69930267    0.61000001    2.82999992
   18.28000069   87.65660095    0.61000001    2.82999992
   18.28333282   89.36949921    0.61000001    2.82999992
   18.28638840   91.61199951    0.63000000    2.82999992
   18.28750038   90.63569641    0.63000000    2.82999992
   18.28999901   91.48210144    0.61000001    2.82999992
   18.29333305   86.02559662    0.61000001    2.82999992
   18.29666710   88.82050323    0.63000000    2.82999992
   18.30249977   88.82050323    0.61000001    2.82999992
   18.30666542   90.21150208    0.61000001    2.82999992
   18.30972099   91.98590088    0.61000001    2.80999994
   18.31333351   90.89810181    0.61000001    2.82999992
   18.31638718   90.68319702    0.61000001    2.82999992
   18.31972313   91.46340179    0.61000001    2.82999992
   18.32083511   90.79119873    0.61000001    2.82999992
   18.32333374   90.86499786    0.61000001    2.82999992
   18.32666779   86.42040253    0.61000001    2.80999994
   18.33000183   92.54489899    0.61000001    2.82999992
   18.33305550   91.72499847    0.61000001    2.82999992
   18.33638954   91.95839691    0.61000001    2.80999994
   18.33972359   90.05799866    0.58999997    2.80999994
   18.34527779   90.05799866    0.61000001    2.82999992
   18.34944534   93.05960083    0.61000001    2.80999994
   18.35277748   89.80850220    0.61000001    2.80999994
   18.35416794   88.00250244    0.58999997    2.82999992
   18.35639000   88.08630371    0.58999997    2.82999992
   18.35972214   96.93139648    0.61000001    2.80999994
   18.36277771   92.07350159    0.58999997    2.80999994
   18.36611176   94.89469910    0.61000001    2.80999994
   18.36944389   91.34179688    0.61000001    2.80999994
   18.37249947   94.34799957    0.61000001    2.80999994
   18.37583351   91.33239746    0.61000001    2.80999994
   18.37888908   94.68150330    0.63000000    2.80999994
   18.38222313   93.15149689    0.61000001    2.80999994
   18.38805580   93.15149689    0.63000000    2.80999994
   18.39222145   94.39240265    0.63000000    2.80999994
   18.39555550   94.68360138    0.63000000    2.80999994
   18.39888954   96.68260193    0.64999998    2.80999994
   18.40194321   93.66400146    0.64999998    2.80999994
   18.40527725   92.39299774    0.64999998    2.80999994
   18.40833282   91.75330353    0.64999998    2.80999994
   18.41166687   94.70259857    0.64999998    2.82999992
   18.41499901   93.14579773    0.64999998    2.80999994
   18.41805458   90.52130127    0.64999998    2.80999994
   18.42083359  100.76799774    0.64999998    2.82999992
   18.42166519   91.01429749    0.64999998    2.82999992
   18.42499924   93.04460144    0.64999998    2.80999994
   18.43111038   93.04460144    0.64999998    2.80999994
   18.43527603   91.83719635    0.64999998    2.80999994
   18.43833160   89.32180023    0.64999998    2.80999994
   18.44166565   93.55000305    0.67000002    2.80999994
   18.44499969   93.01499939    0.64999998    2.80999994
   18.44805527   95.12030029    0.64999998    2.80999994
   18.45138931   97.16400146    0.64999998    2.80999994
   18.45416832   88.30220032    0.64999998    2.80999994
   18.45499992   97.26419830    0.64999998    2.80999994
   18.45833397   92.33779907    0.64999998    2.80999994
   18.46166801   90.68090057    0.64999998    2.80999994
   18.46472359   92.52600098    0.64999998    2.80999994
   18.46805573   86.98179626    0.64999998    2.80999994
   18.47389030   86.98179626    0.64999998    2.80999994
   18.47805595   88.12480164    0.63000000    2.80999994
   18.48111153   87.52239990    0.63000000    2.80999994
   18.48444557   88.43920135    0.63000000    2.80999994
   18.48750114   90.27600098    0.63000000    2.80999994
   18.48805618   89.29660034    0.63000000    2.80999994
   18.49138832   90.96549988    0.63000000    2.82999992
   18.49472237   90.53420258    0.64999998    2.78999996
   18.49777794   83.65029907    0.64999998    2.80999994
   18.50111198   86.72599792    0.67000002    2.80999994
   18.50444412   90.58139801    0.67000002    2.80999994
   18.50749969   93.49749756    0.67000002    2.80999994
   18.51083374   89.19309998    0.64999998    2.80999994
   18.51666641   89.19309998    0.64999998    2.80999994
   18.52083397   90.30829620    0.63000000    2.80999994
   18.52416611   96.49400330    0.63000000    2.78999996
   18.52722168   88.47989655    0.63000000    2.80999994
   18.53055573   92.95929718    0.63000000    2.78999996
   18.53388786   92.95179749    0.63000000    2.78999996
   18.53694344   91.64790344    0.63000000    2.80999994
   18.54027748   90.80400085    0.63000000    2.80999994
   18.54333305   89.96859741    0.63000000    2.80999994
   18.54666710   90.09480286    0.63000000    2.80999994
   18.54999924   89.09860229    0.63000000    2.80999994
   18.55305481   93.93650055    0.61000001    2.80999994
   18.55416679   93.93669891    0.61000001    2.80999994
   18.55944443   93.93669891    0.58999997    2.78999996
   18.56361008   92.27020264    0.58999997    2.80999994
   18.56694603   91.35199738    0.58999997    2.78999996
   18.57027817   87.93199921    0.58999997    2.78999996
   18.58777809   87.94770050    0.61000001    2.78999996
   18.59000015   93.76380157    0.58999997    2.80999994
   18.59333420   94.12590027    0.58999997    2.80999994
   18.59666824   91.24919891    0.58999997    2.78999996
   18.60250092   91.24919891    0.61000001    2.78999996
   18.60666656   91.12550354    0.61000001    2.80999994
   18.61000061   91.30979919    0.63000000    2.80999994
   18.61305618   93.33209991    0.63000000    2.80999994
   18.61638832   91.25559998    0.63000000    2.80999994
   18.61972237   92.18060303    0.61000001    2.80999994
   18.62083435   94.12300110    0.61000001    2.80999994
   18.62361145   88.23480225    0.61000001    2.78999996
   18.62666702   89.29859924    0.61000001    2.80999994
   18.63000107   89.38569641    0.61000001    2.80999994
   18.63333321   90.85009766    0.61000001    2.78999996
   18.63638878   92.85749817    0.61000001    2.78999996
   18.63972282   93.72450256    0.63000000    2.78999996
   18.64527702   93.72450256    0.63000000    2.80999994
   18.64944458   91.24579620    0.63000000    2.78999996
   18.65277672   93.62339783    0.63000000    2.78999996
   18.65444374   90.72299957    0.63000000    2.78999996
   18.65638924   90.06430054    0.63000000    2.78999996
   18.65972137   99.80249786    0.63000000    2.78999996
   18.66305542   91.98680115    0.63000000    2.78999996
   18.66611099   88.86609650    0.63000000    2.78999996
   18.66944313   88.78520203    0.63000000    2.78999996
   18.67277718   93.16799927    0.63000000    2.80999994
   18.67583275   96.08270264    0.63000000    2.80999994
   18.67916679   87.49890137    0.63000000    2.78999996
   18.68222237   88.09069824    0.63000000    2.78999996
   18.68833160   88.09069824    0.63000000    2.78999996
   18.69249916   93.30020142    0.61000001    2.78999996
   18.69555473   92.87689972    0.61000001    2.78999996
   18.69888878   91.70850372    0.61000001    2.78999996
   18.70194435   92.04530334    0.58999997    2.78999996
   18.70527840   91.00939941    0.61000001    2.78999996
   18.70861244   87.65149689    0.63000000    2.78999996
   18.71166801   91.82820129    0.64999998    2.78999996
   18.71500015   94.28990173    0.64999998    2.78999996
   18.71833420   92.38909912    0.63000000    2.80999994
   18.72083473   91.60530090    0.61000001    2.78999996
   18.72166634   93.80079651    0.61000001    2.78999996
   18.72500038   91.22879791    0.61000001    2.78999996
   18.73111153   91.22879791    0.58999997    2.78999996
   18.73527718   93.66570282    0.58999997    2.78999996
   18.73833275   94.68769836    0.58999997    2.78999996
   18.74166679   95.78330231    0.58999997    2.78999996
   18.74500084   94.97329712    0.61000001    2.78999996
   18.74805641   92.26509857    0.61000001    2.78999996
   18.75138855   91.76899719    0.61000001    2.78999996
   18.75444412   90.77909851    0.61000001    2.78999996
   18.75499916   93.80390167    0.61000001    2.78999996
   18.75833321   89.39299774    0.58999997    2.78999996
   18.76138878   90.18450165    0.58999997    2.78999996
   18.76472282   96.26869965    0.58999997    2.78999996
   18.76805496   87.73449707    0.61000001    2.78999996
   18.77388954   87.73449707    0.61000001    2.80999994
   18.77805519   88.81479645    0.61000001    2.78999996
   18.78138924   94.21450043    0.63000000    2.78999996
   18.78444481   89.27639771    0.63000000    2.78999996
   18.78777695   90.28109741    0.63000000    2.78999996
   18.78805542   90.87920380    0.63000000    2.78999996
   18.79138756   92.16580200    0.63000000    2.78999996
   18.79472160   93.60340118    0.63000000    2.78999996
   18.79777718   94.27230072    0.64999998    2.78999996
   18.80111122   93.00469971    0.64999998    2.78999996
   18.80444336   90.19229889    0.67000002    2.80999994
   18.80749893   92.13359833    0.67000002    2.78999996
   18.81083298   93.74680328    0.67000002    2.78999996
   18.81666756   93.74680328    0.67000002    2.76999998
   18.82083511   91.32990265    0.67000002    2.78999996
   18.82139015   88.06610107    0.67000002    2.78999996
   18.82472229   90.47470093    0.67000002    2.78999996
   18.82777786   89.69439697    0.67000002    2.78999996
   18.83111191   92.51719666    0.69000000    2.78999996
   18.83444595   90.66329956    0.69000000    2.78999996
   18.83750153   92.58360291    0.69000000    2.78999996
   18.84083366   91.88580322    0.70999998    2.78999996
   18.84416771   88.31510162    0.70999998    2.78999996
   18.84722328   90.88890076    0.70999998    2.78999996
   18.85055542   90.60800171    0.70999998    2.78999996
   18.85361099   90.65630341    0.70999998    2.78999996
   18.85472298   86.40350342    0.70999998    2.78999996
   18.85972214   86.40350342    0.70999998    2.78999996
   18.86388969   94.07700348    0.70999998    2.78999996
   18.86694527   93.41880035    0.73000002    2.76999998
   18.87027740   93.22630310    0.73000002    2.76999998
   18.87361145   92.01260376    0.75000000    2.78999996
   18.87666702   93.26290131    0.76999998    2.78999996
   18.88000107   90.64559937    0.79000002    2.78999996
   18.88305473   88.23600006    0.76999998    2.78999996
   18.88638878   92.01329803    0.76999998    2.78999996
   18.88805580   86.70919800    0.75000000    2.78999996
   18.88999939   89.02239990    0.75000000    2.78999996
   18.89305496   88.57060242    0.75000000    2.78999996
   18.89638901   91.79940033    0.75000000    2.78999996
   18.90250015   91.79940033    0.70999998    2.78999996
   18.90666580   93.47039795    0.70999998    2.78999996
   18.90972137   94.99310303    0.69000000    2.78999996
   18.91305542   89.26629639    0.67000002    2.78999996
   18.91638756   94.37229919    0.67000002    2.78999996
   18.91944313   94.25229645    0.67000002    2.78999996
   18.92138863   90.89270020    0.69000000    2.76999998
   18.92305565   92.71949768    0.69000000    2.76999998
   18.92611122   91.96880341    0.69000000    2.78999996
   18.92944336   92.21520233    0.64999998    2.78999996
   18.93277740   91.43990326    0.64999998    2.78999996
   18.93583298   92.67299652    0.64999998    2.78999996
   18.93916512   94.13279724    0.64999998    2.76999998
   18.94527626   94.13279724    0.67000002    2.78999996
   18.94944382   91.01139832    0.67000002    2.78999996
   18.95250130   93.89739990    0.69000000    2.78999996
   18.95472336   91.07299805    0.69000000    2.78999996
   18.95639038   91.02770233    0.69000000    2.78999996
   18.95944595   94.08869934    0.64999998    2.76999998
   18.96277809   91.50009918    0.64999998    2.76999998
   18.96611214   92.41159821    0.64999998    2.78999996
   18.96916771   91.77510071    0.63000000    2.78999996
   18.97249985   89.59760284    0.64999998    2.76999998
   18.97583389   88.48560333    0.64999998    2.78999996
   18.97888947   89.53859711    0.64999998    2.78999996
   18.98222351   88.89969635    0.63000000    2.78999996
   18.98805618   88.89969635    0.58999997    2.78999996
   18.99222183   96.36489868    0.58999997    2.76999998
   18.99555588   90.84799957    0.58999997    2.78999996
   18.99861145   91.11119843    0.58999997    2.78999996
   19.00194359   90.06310272    0.58999997    2.78999996
   19.00527763   92.08489990    0.58999997    2.78999996
   19.00833321   89.28250122    0.58999997    2.76999998
   19.01166725   93.39620209    0.58999997    2.76999998
   19.01499939   94.25789642    0.58999997    2.78999996
   19.01805496   93.53359985    0.58999997    2.78999996
   19.02138901   92.93250275    0.58999997    2.78999996
   19.02194405   94.81690216    0.58999997    2.78999996
   19.02499962   94.04039764    0.58999997    2.76999998
   19.03083229   94.04039764    0.61000001    2.76999998
   19.03499985   93.77140045    0.58999997    2.78999996
   19.03833199   89.00330353    0.58999997    2.76999998
   19.04166603   91.47329712    0.58999997    2.76999998
   19.04472160   90.30770111    0.58999997    2.76999998
   19.04805565   89.24490356    0.58999997    2.76999998
   19.05111122   89.75309753    0.58999997    2.76999998
   19.05444336   90.14969635    0.56999999    2.78999996
   19.05527687   88.58429718    0.56999999    2.78999996
   19.05805397   89.98919678    0.56999999    2.76999998
   19.06138802   91.85720062    0.56999999    2.76999998
   19.06472206   90.96040344    0.56999999    2.76999998
   19.06777954   91.20770264    0.58999997    2.76999998
   19.07389069   91.20770264    0.61000001    2.76999998
   19.07805634   90.65119934    0.63000000    2.76999998
   19.08111191   91.63469696    0.63000000    2.76999998
   19.08444595   88.86139679    0.64999998    2.76999998
   19.08750153   92.63809967    0.64999998    2.76999998
   19.08861160   94.28359985    0.69000000    2.76999998
   19.09111214   94.53900146    0.69000000    2.76999998
   19.09444427   90.26950073    0.69000000    2.76999998
   19.09777832   91.93720245    0.70999998    2.76999998
   19.10083389   87.60320282    0.75000000    2.76999998
   19.10416794   87.74859619    0.75000000    2.75000000
   19.10722351   89.48809814    0.75000000    2.75000000
   19.11055565   90.86239624    0.73000002    2.76999998
   19.11666679   90.86239624    0.70999998    2.75000000
   19.12083435   92.41470337    0.70999998    2.75000000
   19.12194443   95.52369690    0.70999998    2.75000000
   19.12416649   91.59950256    0.73000002    2.76999998
   19.12750053   98.41190338    0.73000002    2.76999998
   19.13083267   90.02210236    0.73000002    2.76999998
   19.13388824   96.11190033    0.69000000    2.75000000
   19.13722229   92.45719910    0.69000000    2.76999998
   19.14055634   93.16580200    0.67000002    2.75000000
   19.14361191   91.12580109    0.69000000    2.76999998
   19.14694405   89.24890137    0.69000000    2.75000000
   19.15027809   90.86370087    0.69000000    2.75000000
   19.15333366   92.27030182    0.67000002    2.76999998
   19.15527725   90.86029816    0.69000000    2.76999998
   19.15944481   90.86029816    0.67000002    2.75000000
   19.16361046   89.78479767    0.69000000    2.75000000
   19.16694450   88.31490326    0.69000000    2.75000000
   19.17000008   89.43789673    0.67000002    2.76999998
   19.17333221   87.70649719    0.69000000    2.76999998
   19.17666626   90.09770203    0.69000000    2.76999998
   19.17972183   94.50830078    0.69000000    2.75000000
   19.18305397   87.90090179    0.69000000    2.75000000
   19.18638802   83.28690338    0.73000002    2.75000000
   19.18861008   82.10500336    0.73000002    2.75000000
   19.18972206   88.76830292    0.73000002    2.75000000
   19.19305420   87.15440369    0.75000000    2.76999998
   19.19638824   89.46759796    0.75000000    2.76999998
   19.20250130   89.46759796    0.70999998    2.76999998
   19.20639038   86.81490326    0.69000000    2.75000000
   19.20972252   92.50679779    0.69000000    2.75000000
   19.21305656   88.82710266    0.69000000    2.75000000
   19.21611214   90.42900085    0.69000000    2.75000000
   19.21944427   85.55339813    0.69000000    2.75000000
   19.22194481   93.03679657    0.67000002    2.75000000
   19.22305679   87.29139709    0.67000002    2.75000000
   19.22638893   92.87940216    0.67000002    2.75000000
   19.22972298   97.52780151    0.69000000    2.75000000
   19.23277855   86.55010223    0.73000002    2.75000000
   19.23611069   84.79229736    0.73000002    2.76999998
   19.23944473   87.59239960    0.73000002    2.75000000
   19.24527740   87.59239960    0.73000002    2.76999998
   19.24944496   89.54280090    0.07000000    0.31999999
   19.25250053   91.93730164    0.07000000    0.07000000
   19.25527763   92.72370148    0.07000000    0.07000000
   19.25611115   89.37339783    0.07000000    0.07000000
   19.25944519   96.95249939    0.07000000    0.07000000
   19.26277733   94.25630188    0.07000000    0.07000000
   19.26583290   93.41040039    0.07000000    0.07000000
   19.26916695   92.91049957    0.07000000    0.07000000
   19.27222252   91.24069977    0.07000000    0.07000000
   19.27555466   93.03469849    0.07000000    0.07000000
   19.27888870   96.33689880    0.07000000    0.07000000
   19.28194427   92.11389923    0.07000000    0.07000000
   19.28805542   92.11389923    0.07000000    0.07000000
   19.29222107   94.53810120    0.07000000    0.07000000
   19.29527664   88.48139954    0.07000000    0.07000000
   19.29861069   85.43910217    0.07000000    0.07000000
   19.30194283   91.69599915    0.07000000    0.07000000
   19.30499840   93.56320190    0.07000000    0.07000000
   19.30833244   92.10970306    0.07000000    0.07000000
   19.31166649   93.99639893    0.07000000    0.07000000
   19.31472206   86.22280121    0.07000000    0.07000000
   19.31805611   91.88880157    0.07000000    0.07000000
   19.32111168   90.78260040    0.07000000    0.07000000
   19.32305717   91.66369629    0.07000000    0.07000000
   19.32500076   93.45809937    0.07000000    0.07000000
   19.33083344   93.45809937    0.07000000    0.07000000
   19.33500099   89.48110199    0.07000000    0.07000000
   19.33833313   92.96040344    0.07000000    0.07000000
   19.34138870   86.60050201    0.07000000    0.07000000
   19.34472275   92.12989807    0.07000000    0.07000000
   19.34805679   92.64050293    0.07000000    0.07000000
   19.35111237   93.46510315    0.07000000    0.07000000
   19.35444450   91.44029999    0.07000000    0.07000000
   19.35639000   92.21130371    0.07000000    0.07000000
   19.35805511   91.85230255    0.07000000    0.07000000
   19.36111069   92.07920074    0.07000000    0.07000000
   19.36444473   93.57160187    0.07000000    0.07000000
   19.36777878   90.63490295    0.07000000    0.07000000
   19.37361145   90.63490295    0.07000000    0.07000000
   19.37777710   90.56390381    0.07000000    0.07000000
   19.38111115   88.79679871    0.07000000    0.07000000
   19.38444519   89.06809998    0.07000000    0.07000000
   19.38750076   92.83110046    0.07000000    0.07000000
   19.38999939   94.22200012    0.07000000    0.07000000
   19.39111137   95.14459991    0.07000000    0.07000000
   19.39444351   90.06030273    0.07000000    0.07000000
   19.39777756   89.75029755    0.07000000    0.07000000
   19.40083313   93.02050018    0.07000000    0.07000000
   19.40416718   90.33129883    0.07000000    0.07000000
   19.40749931   90.58319855    0.07000000    0.07000000
   19.41055489   88.41860199    0.07000000    0.07000000
   19.41666603   88.41860199    0.07000000    0.07000000
   19.42083359   92.32740021    0.07000000    0.07000000
   19.42333221   95.05740356    0.07000000    0.07000000
   19.42416573   92.89230347    0.07000000    0.07000000
   19.42749977   91.65679932    0.07000000    0.07000000
   19.43083191   87.68609619    0.07000000    0.07000000
   19.43388748   92.07060242    0.07000000    0.07000000
   19.43722153   90.83570099    0.07000000    0.07000000
   19.44055557   92.49849701    0.07000000    0.07000000
   19.44361115   91.28620148    0.07000000    0.07000000
   19.44694328   90.27749634    0.07000000    0.07000000
   19.45000076   85.83769989    0.07000000    0.07000000
   19.45333481   92.80979919    0.07000000    0.07000000
   19.45944595   92.80979919    0.07000000    0.07000000
   19.46361160   91.71929932    0.07000000    0.07000000
   19.46666718   90.57450104    0.07000000    0.07000000
   19.47000122   90.62079620    0.07000000    0.07000000
   19.47333336   87.85749817    0.07000000    0.07000000
   19.47666740   90.66069794    0.07000000    0.07000000
   19.47972298   88.50679779    0.07000000    0.07000000
   19.48305511   88.17859650    0.07000000    0.07000000
   19.48638916   94.93659973    0.07000000    0.07000000
   19.48944473   93.55719757    0.07000000    0.07000000
   19.49027824   93.50489807    0.07000000    0.07000000
   19.49305534   94.73459625    0.07000000    0.07000000
   19.49611092   93.51499939    0.07000000    0.07000000
   19.50222206   93.51499939    0.07000000    0.07000000
   19.50638962   87.69830322    0.07000000    0.07000000
   19.50972176   86.52300262    0.07000000    0.07000000
   19.51277733   93.27140045    0.07000000    0.07000000
   19.51611137   94.48090363    0.07000000    0.07000000
   19.51944351   88.35379791    0.07000000    0.07000000
   19.52249908   88.63020325    0.07000000    0.07000000
   19.52361107   93.79560089    0.07000000    0.07000000
   19.52611160   91.12650299    0.07000000    0.07000000
   19.52916718   88.99269867    0.07000000    0.07000000
   19.53249931   97.03730011    0.07000000    0.07000000
   19.53583336   90.40869904    0.07000000    0.07000000
   19.53888893   89.05750275    0.07000000    0.07000000
   19.54500008   89.05750275    0.07000000    0.07000000
   19.54916573   90.34449768    0.07000000    0.07000000
   19.55249977   87.71829987    0.07000000    0.07000000
   19.55583191   90.36160278    0.07000000    0.07000000
   19.55722237   93.70220184    0.07000000    0.07000000
   19.55944443   87.35549927    0.07000000    0.07000000
   19.56250000   97.11250305    0.07000000    0.07000000
   19.56583214   96.30410004    0.07000000    0.07000000
   19.56916809   93.23010254    0.07000000    0.07000000
   19.57222366   87.75460052    0.07000000    0.07000000
   19.57555580   91.79499817    0.07000000    0.07000000
   19.57861137   94.33879852    0.07000000    0.07000000
   19.58194542   90.30529785    0.07000000    0.07000000
   19.58805656   90.30529785    0.07000000    0.07000000
   19.60639000   95.83149719    0.07000000    0.07000000
   19.60944557   92.58360291    0.07000000    0.07000000
   19.61277771   92.87039948    0.07000000    0.07000000
   19.61611176   93.76039886    0.07000000    0.07000000
   19.61916733   91.84790039    0.07000000    0.07000000
   19.62249947   94.35620117    0.07000000    0.07000000
   19.62583351   93.08640289    0.07000000    0.07000000
   19.63111115   93.08640289    0.07000000    0.07000000
   19.63527679   92.97740173    0.07000000    0.07000000
   19.63833237   94.55000305    0.07000000    0.07000000
   19.63944435   91.80590057    0.07000000    0.07000000
   19.64194489   93.46399689    0.07000000    0.07000000
   19.64527702   90.42279816    0.07000000    0.07000000
   19.64861107   91.61409760    0.07000000    0.07000000
   19.65166664   95.75769806    0.07000000    0.07000000
   19.65499878   93.40180206    0.07000000    0.07000000
   19.65833282   92.07070160    0.07000000    0.07000000
   19.66138840   91.69120026    0.07000000    0.07000000
   19.66472244   88.94830322    0.07000000    0.07000000
   19.66805458   92.70600128    0.07000000    0.07000000
   19.67388916   92.70600128    0.07000000    0.07000000
   19.67805481   91.36019897    0.07000000    0.07000000
   19.68111038   97.35620117    0.07000000    0.07000000
   19.68444443   97.56469727    0.07000000    0.07000000
   19.68777657   90.93869781    0.07000000    0.07000000
   19.69083214   93.20520020    0.07000000    0.07000000
   19.69416618   93.76770020    0.07000000    0.07000000
   19.69749832   94.16470337    0.07000000    0.07000000
   19.70055580   92.62110138    0.07000000    0.07000000
   19.70388985   93.42030334    0.07000000    0.07000000
   19.70611191   92.97219849    0.07000000    0.07000000
   19.70722389   94.72339630    0.07000000    0.07000000
   19.71055603   87.93080139    0.07000000    0.07000000
   19.71666718   87.93080139    0.07000000    0.07000000
   19.72083473   84.96690369    0.07000000    0.07000000
   19.72416687   88.12760162    0.07000000    0.07000000
   19.72722244   88.30709839    0.07000000    0.07000000
   19.73055649   90.47789764    0.07000000    0.07000000
   19.73388863   91.11920166    0.07000000    0.07000000
   19.73694420   92.20719910    0.07000000    0.07000000
   19.73944473   92.47080231    0.07000000    0.07000000
   19.74055672   93.67610168    0.07000000    0.07000000
   19.74388885   90.67949677    0.07000000    0.07000000
   19.74722290   86.09590149    0.07000000    0.07000000
   19.75027847   86.07099915    0.07000000    0.07000000
   19.75361061   89.39320374    0.07000000    0.07000000
   19.75944519   89.39320374    0.07000000    0.07000000
   19.76361084   94.29229736    0.07000000    0.07000000
   19.76694489   95.85510254    0.07000000    0.07000000
   19.77027702   91.31749725    0.07000000    0.07000000
   19.77277756   92.41770172    0.07000000    0.07000000
   19.77361107   92.72350311    0.07000000    0.07000000
   19.77694511   95.12039948    0.07000000    0.07000000
   19.78027725   90.75859833    0.07000000    0.07000000
   19.78333282   93.61820221    0.07000000    0.07000000
   19.78666687   93.76959991    0.07000000    0.07000000
   19.78999901   94.75389862    0.07000000    0.07000000
   19.79305458   93.10099792    0.07000000    0.07000000
   19.79638863   93.14399719    0.07000000    0.07000000
   19.80249977   93.14399719    0.07000000    0.07000000
   19.80666542   90.59140015    0.07000000    0.07000000
   19.80972099   89.89369965    0.07000000    0.07000000
   19.81305504   94.85590363    0.07000000    0.07000000
   19.81611061   91.53540039    0.07000000    0.07000000
   19.81944466   86.48490143    0.07000000    0.07000000
   19.82277870   90.92659760    0.07000000    0.07000000
   19.82583427   87.99150085    0.07000000    0.07000000
   19.82916832   93.37940216    0.07000000    0.07000000
   19.83250046   92.06310272    0.07000000    0.07000000
   19.83555603   91.19460297    0.07000000    0.07000000
   19.83889008   94.64659882    0.07000000    0.07000000
   19.83944511   90.06279755    0.07000000    0.07000000
