    HOUR (UT)   FLARE FACTOR    SKY TESTER    SUN TESTER
   11.80861092   -1.00000000   -1.00000000   -1.00000000
   11.83500004  151.22500610    4.90999985    2.53999996
   11.83833313  168.51899719    4.90999985    2.53999996
   11.84166622  155.07800293    4.90999985    2.51999998
   11.84472179  142.76899719    4.90999985    2.51999998
   11.84805489  154.89900208    4.90999985    2.51999998
   11.85500050  154.89900208    4.90999985    2.53999996
   11.85916710  150.63499451    4.90999985    2.53999996
   11.86222267  157.39799500    4.90999985    2.53999996
   11.86555576  156.70899963    4.90999985    2.55999994
   11.86805534  145.68099976    4.90999985    2.53999996
   11.86916637  146.30299377    4.90999985    2.53999996
   11.87222195  158.52099609    4.90999985    2.53999996
   11.87555599  149.72599792    4.90999985    2.53999996
   11.87861156  163.78399658    4.90999985    2.55999994
   11.88194466  156.97999573    4.90999985    2.55999994
   11.88527775  148.49000549    4.90999985    2.55999994
   11.88833332  154.68800354    4.90999985    2.53999996
   11.89166641  159.81599426    4.90999985    2.53999996
   11.89777756  159.81599426    4.90999985    2.55999994
   11.90194416  156.37699890    4.90999985    2.55999994
   11.90527725  142.79100037    4.90999985    2.53999996
   11.90833282  131.79100037    4.90999985    2.53999996
   11.91166592  140.36700439    4.90999985    2.55999994
   11.91499996  149.99699402    4.90999985    2.53999996
   11.91805553  136.57899475    4.90999985    2.55999994
   11.92138958  151.33599854    4.90999985    2.53999996
   11.92472267  147.21200562    4.90999985    2.55999994
   11.92777824  133.65299988    4.90999985    2.55999994
   11.93111134  136.94000244    4.90999985    2.53999996
   11.93416691  135.47999573    4.90999985    2.55999994
   11.93472195  138.73300171    4.90999985    2.55999994
   11.94055557  138.73300171    4.90999985    2.55999994
   11.94472218  128.80599976    4.90999985    2.55999994
   11.94805527  125.87899780    4.90999985    2.55999994
   11.95111084  124.78800201    4.90999985    2.55999994
   11.95444393  131.41799927    4.90999985    2.55999994
   11.95777798  120.63899994    4.90999985    2.55999994
   11.96083355  119.52999878    4.90999985    2.57999992
   11.96416664  141.64799500    4.90999985    2.57999992
   11.96722221  123.79599762    4.90999985    2.57999992
   11.96805477  119.23600006    4.90999985    2.57999992
   11.97111034  116.86699677    4.90999985    2.57999992
   11.97416592  131.00000000    4.90999985    2.57999992
   11.97749996  125.56600189    4.90999985    2.57999992
   11.98361111  125.56600189    4.90999985    2.59999990
   11.98750019  123.70500183    4.90999985    2.57999992
   11.99083328  119.02799988    4.90999985    2.57999992
   11.99416733  115.63700104    4.90999985    2.57999992
   11.99722290  119.75199890    4.90999985    2.59999990
   12.00055599  132.89100647    4.90999985    2.59999990
   12.00138855  120.44400024    4.90999985    2.59999990
   12.00416660  113.69000244    4.90999985    2.59999990
   12.00749969  121.30599976    4.90999985    2.59999990
   12.01055527  124.89800262    4.90999985    2.59999990
   12.01388931  116.81900024    4.90999985    2.57999992
   12.01694393  130.11799622    4.90999985    2.59999990
   12.02027798  123.81999969    4.90999985    2.57999992
   12.02638817  123.81999969    4.90999985    2.57999992
   12.03055573  121.64700317    4.90999985    2.57999992
   12.03361130  120.59799957    4.90999985    2.57999992
   12.03472233  124.17900085    4.90999985    2.57999992
   12.03722286  117.06600189    4.90999985    2.59999990
   12.04055595  124.93199921    4.90999985    2.57999992
   12.04361153  107.82900238    4.90999985    2.59999990
   12.04694462  111.36399841    4.90999985    2.57999992
   12.05027771  120.36499786    4.90999985    2.57999992
   12.05333328  108.98000336    4.90999985    2.57999992
   12.05666733  124.17199707    4.90999985    2.59999990
   12.05972195  105.59999847    4.90999985    2.57999992
   12.06305599  112.10600281    4.90999985    2.57999992
   12.06916618  112.10600281    4.90999985    2.57999992
   12.07333374  118.32399750    4.90999985    2.59999990
   12.07666683  115.06199646    4.90999985    2.59999990
   12.07999992  115.18900299    4.90999985    2.59999990
   12.08305550  118.83200073    4.90999985    2.59999990
   12.08638859  118.63700104    4.90999985    2.57999992
   12.08972168  116.88200378    4.90999985    2.59999990
   12.09277725  109.02600098    4.90999985    2.59999990
   12.09611034  120.63400269    4.90999985    2.59999990
   12.09916592  108.07800293    4.90999985    2.61999989
   12.10166740  111.57299805    4.90999985    2.59999990
   12.10277843  112.83100128    4.90999985    2.61999989
   12.10611153  117.91699982    4.90999985    2.61999989
   12.11194515  117.91699982    4.90999985    2.61999989
   12.11611176  115.68299866    4.90999985    2.59999990
   12.11944485  109.08499908    4.90999985    2.61999989
   12.12277794  120.34799957    4.90999985    2.61999989
   12.12583351  113.50299835    4.90999985    2.59999990
   12.12916660  112.74600220    4.90999985    2.61999989
   12.13249969   99.38600159    4.90999985    2.59999990
   12.13500023  114.75499725    4.90999985    2.59999990
   12.13583279  120.07399750    4.90999985    2.61999989
   12.13916683  101.97200012    4.90999985    2.61999989
   12.14249992  105.48400116    4.90999985    2.64000010
   12.14555550  112.42800140    4.90999985    2.64000010
   12.14888859  113.32199860    4.90999985    2.64000010
   12.15499973  113.32199860    4.90999985    2.64000010
   12.15916634  107.07599640    4.90999985    2.64000010
   12.16222191  128.09199524    4.90999985    2.61999989
   12.16555500  111.57599640    4.90999985    2.61999989
   12.16833401  130.86799622    4.90999985    2.61999989
   12.16916656  119.05699921    4.90999985    2.61999989
   12.17250061  117.61299896    4.90999985    2.61999989
   12.17555618  107.25499725    4.90999985    2.61999989
   12.17888927  113.28299713    4.90999985    2.61999989
   12.18222237  119.04799652    4.90999985    2.61999989
   12.18527794  105.87300110    4.90999985    2.61999989
   12.18861103  131.71099854    4.90999985    2.61999989
   12.19194412  109.90100098    4.90999985    2.59999990
   12.19777775  109.90100098    4.90999985    2.61999989
   12.20194435  130.93899536    4.90999985    2.61999989
   12.20499992  117.34400177    4.90999985    2.61999989
   12.20833302  118.41799927    4.90999985    2.64000010
   12.21166611  120.87200165    4.90999985    2.61999989
   12.21472168  112.04699707    4.90999985    2.64000010
   12.21805477  121.60199738    4.90999985    2.64000010
   12.22138882  114.62000275    4.90999985    2.64000010
   12.22444439  110.78700256    4.90999985    2.64000010
   12.22777748  105.98600006    4.90999985    2.66000009
   12.23083305  103.22299957    4.90999985    2.64000010
   12.23416710  116.50000000    4.90999985    2.64000010
   12.23472214  113.98600006    4.90999985    2.66000009
   12.24055576  113.98600006    4.90999985    2.66000009
   12.24472237  102.49900055    4.90999985    2.66000009
   12.24805546  107.97899628    4.90999985    2.66000009
   12.25111103  115.76499939    4.90999985    2.66000009
   12.25444412  117.14299774    4.90999985    2.66000009
   12.25749969  108.40100098    4.90999985    2.64000010
   12.26083374  111.82399750    4.90999985    2.64000010
   12.26416683  117.44599915    4.90999985    2.64000010
   12.26722240  111.67199707    4.90999985    2.64000010
   12.26833344  109.78099823    4.90999985    2.64000010
   12.27083302  113.44699860    4.90999985    2.64000010
   12.27416611  109.32099915    4.90999985    2.64000010
   12.27722168  114.95800018    4.90999985    2.66000009
   12.28333378  114.95800018    4.90999985    2.66000009
   12.28750038  102.79399872    4.90999985    2.64000010
   12.29083347  104.93399811    4.90999985    2.64000010
   12.29388905   99.49939728    4.90999985    2.64000010
   12.29722309   93.39430237    4.90999985    2.66000009
   12.30055618  100.49099731    4.90999985    2.66000009
   12.30138874  104.78399658    4.90999985    2.66000009
   12.30416679  111.95300293    4.90999985    2.66000009
   12.30749989  102.43699646    4.90999985    2.67000008
   12.31055546  101.61000061    4.90999985    2.66000009
   12.31388950  103.80300140    4.90999985    2.66000009
   12.31722260   97.50479889    4.90999985    2.64000010
   12.32027817  106.39900208    4.90999985    2.66000009
   12.32611084  106.39900208    4.90999985    2.66000009
   12.33027744  107.36199951    4.90999985    2.66000009
   12.33361053  107.06300354    4.90999985    2.66000009
   12.33472157  104.22799683    4.90999985    2.66000009
   12.33722210  103.43299866    4.90999985    2.64000010
   12.34055519  100.69799805    4.90999985    2.64000010
   12.34361076  103.41200256    4.90999985    2.64000010
   12.34694386  100.89499664    4.90999985    2.66000009
   12.35027790  106.76499939    4.90999985    2.66000009
   12.35333347  100.97499847    4.90999985    2.64000010
   12.35666752   99.56759644    4.90999985    2.66000009
   12.36000061   99.76280212    4.90999985    2.66000009
   12.36305618  102.35500336    4.90999985    2.67000008
   12.36916637  102.35500336    4.90999985    2.67000008
   12.37333393  105.23500061    4.90999985    2.69000006
   12.37638855  110.14199829    4.90999985    2.69000006
   12.37972260  109.69300079    4.90999985    2.67000008
   12.38305569  109.13800049    4.90999985    2.69000006
   12.38611126  104.16000366    4.90999985    2.67000008
   12.38944435  104.98899841    4.90999985    2.67000008
   12.39249992  101.73999786    4.90999985    2.67000008
   12.39583302  101.07700348    4.90999985    2.67000008
   12.39916611  102.15799713    4.90999985    2.67000008
   12.40138817  105.04399872    4.90999985    2.66000009
   12.40277767  101.33100128    4.90999985    2.66000009
   12.40611076   98.25039673    4.90999985    2.67000008
   12.41194439   98.25039673    4.90999985    2.67000008
   12.41611099  106.46099854    4.90999985    2.66000009
   12.41916656  105.52600098    4.90999985    2.67000008
   12.42250061  100.13800049    4.90999985    2.66000009
   12.42583370  103.88700104    4.90999985    2.66000009
   12.42916679  105.38600159    4.90999985    2.67000008
   12.43222237  116.21600342    4.90999985    2.67000008
   12.43472195  101.35299683    4.90999985    2.67000008
   12.43583298  100.69200134    4.90999985    2.67000008
   12.43916702  108.87300110    4.90999985    2.66000009
   12.44222260  109.19499969    4.90999985    2.67000008
   12.44555569  102.94300079    4.90999985    2.67000008
   12.44888878  110.19400024    4.90999985    2.67000008
   12.45472240  110.19400024    4.90999985    2.67000008
   12.45888901  102.10900116    4.90999985    2.67000008
   12.46222210  105.25900269    4.90999985    2.67000008
   12.46527767   99.22239685    4.90999985    2.67000008
   12.46805477   98.25430298    4.90999985    2.69000006
   12.46888828  104.73000336    4.90999985    2.67000008
   12.47222137  100.97499847    4.90999985    2.69000006
   12.47527695   99.53040314    4.90999985    2.69000006
   12.47861099  115.43499756    4.90999985    2.69000006
   12.48194408  101.28299713    4.90999985    2.69000006
   12.48527813  103.31400299    4.90999985    2.67000008
   12.48833370  105.88400269    4.90999985    2.69000006
   12.49166679  169.75599670    4.90999985    2.69000006
   12.49777794  169.75599670    4.90999985    2.69000006
   12.50194454  123.88600159    4.90999985    2.69000006
   12.50500011  119.09799957    4.90999985    2.69000006
   12.50833321  121.53600311    4.90999985    2.67000008
   12.51138878  113.62500000    4.90999985    2.69000006
   12.51472187  104.88700104    4.90999985    2.67000008
   12.51805496  112.41600037    4.90999985    2.69000006
   12.52138901  115.89299774    4.90999985    2.67000008
   12.52444458  121.34300232    4.90999985    2.67000008
   12.52777767  173.63699341    4.90999985    2.67000008
   12.53111076  111.63300323    4.90999985    2.67000008
   12.53416729  116.56600189    4.90999985    2.67000008
   12.53500080  116.77600098    4.90999985    2.67000008
   12.54055595  116.77600098    4.90999985    2.69000006
   12.54472256  130.20599365    4.90999985    2.67000008
   12.54777813  136.42599487    4.90999985    2.69000006
   12.55111122  128.90499878    4.90999985    2.69000006
   12.55444431  123.14199829    4.90999985    2.69000006
   12.55749989  137.53999329    4.90999985    2.69000006
   12.56083393  142.93400574    4.90999985    2.69000006
   12.56388950  126.59300232    4.90999985    2.71000004
   12.56722260  122.54199982    4.90999985    2.71000004
   12.56833363  131.33999634    4.90999985    2.71000004
   12.57083321  123.00399780    4.90999985    2.69000006
   12.57416630  118.82499695    4.90999985    2.69000006
   12.57722187  122.32499695    4.90999985    2.69000006
   12.58333302  122.32499695    4.90999985    2.71000004
   12.58749962  110.37799835    4.90999985    2.69000006
   12.59055519  126.90100098    4.90999985    2.69000006
   12.59388828  124.74900055    4.90999985    2.71000004
   12.59722233  130.12500000    4.90999985    2.69000006
   12.60027790  138.48699951    4.90999985    2.69000006
   12.60166740  121.68199921    4.90999985    2.69000006
   12.60388947  125.88200378    4.90999985    2.69000006
   12.60722256  110.43000031    4.90999985    2.69000006
   12.61055565  117.15299988    4.90999985    2.71000004
   12.61361122  180.87600708    4.90999985    2.71000004
   12.61694431  127.92400360    4.90999985    2.71000004
   12.61999989  131.76699829    4.90999985    2.71000004
   12.62611103  131.76699829    4.90999985    2.71000004
   12.63027763  117.52300262    4.90999985    2.71000004
   12.63361073  133.49499512    4.90999985    2.69000006
   12.63500023  122.21199799    4.90999985    2.71000004
   12.63694477  121.62899780    4.90999985    2.71000004
   12.64027786  128.48899841    4.90999985    2.73000002
   12.64361095  119.89499664    4.90999985    2.71000004
   12.64666653  116.30000305    4.90999985    2.71000004
   12.64999962  121.53399658    4.90999985    2.71000004
   12.65333271  127.91899872    4.90999985    2.71000004
   12.65638828  103.96299744    4.90999985    2.73000002
   12.65972137  121.50700378    4.90999985    2.71000004
   12.66277695  125.05500031    4.90999985    2.71000004
   12.66916656  125.05500031    4.90999985    2.71000004
   12.67305565  118.38899994    4.90999985    2.71000004
   12.67638874  129.48599243    4.90999985    2.71000004
   12.67972279  117.81400299    4.90999985    2.71000004
   12.68305588  118.37699890    4.90999985    2.71000004
   12.68611145  110.44300079    4.90999985    2.71000004
   12.68944454  114.49500275    4.90999985    2.69000006
   12.69250011  121.62400055    4.90999985    2.71000004
   12.69583321  125.10099792    4.90999985    2.71000004
   12.69916630  110.81800079    4.90999985    2.71000004
   12.70166683  108.77400208    4.90999985    2.71000004
   12.70277786  121.46099854    4.90999985    2.69000006
   12.70583344  125.19000244    4.90999985    2.71000004
   12.71194458  125.19000244    4.90999985    2.71000004
   12.71611118  117.22899628    4.90999985    2.71000004
   12.71916580  137.74499512    4.90999985    2.69000006
   12.72249985  108.83999634    4.90999985    2.71000004
   12.72583294  115.30000305    4.90999985    2.71000004
   12.72888851  115.52500153    4.90999985    2.73000002
   12.73222160  114.42600250    4.90999985    2.73000002
   12.73500061  117.14399719    4.90999985    2.73000002
   12.73555565  113.08200073    4.90999985    2.73000002
   12.73888874  119.43399811    4.90999985    2.73000002
   12.74194431  128.28599548    4.90999985    2.73000002
   12.74527836  133.25599670    4.90999985    2.73000002
   12.74861145  127.39399719    4.90999985    2.71000004
   12.75472260  127.39399719    4.90999985    2.73000002
   12.75888920  113.98699951    4.90999985    2.73000002
   12.76194477  110.73000336    4.90999985    2.73000002
   12.76527786  119.57199860    4.90999985    2.75000000
   12.76833344  114.73100281    4.90999985    2.73000002
   12.76888847  118.23799896    4.90999985    2.73000002
   12.77222157  119.58799744    4.90999985    2.73000002
   12.77555561  110.25299835    4.90999985    2.75000000
   12.77861118  113.72000122    4.90999985    2.73000002
   12.78194427  110.85399628    4.90999985    2.73000002
   12.78500080  120.83999634    4.90999985    2.73000002
   12.78833389  114.34999847    4.90999985    2.73000002
   12.79166698  112.94300079    4.90999985    2.73000002
   12.79750061  112.94300079    4.90999985    2.73000002
   12.80166721  119.46299744    4.90999985    2.73000002
   12.80500031  118.43800354    4.90999985    2.73000002
   12.80805588  107.10900116    4.90999985    2.73000002
   12.81138897  110.26399994    4.90999985    2.73000002
   12.81444454  111.13400269    4.90999985    2.73000002
   12.81777763  111.76499939    4.90999985    2.73000002
   12.82111073  111.69999695    4.90999985    2.73000002
   12.82416630  125.01799774    4.90999985    2.73000002
   12.82750034  118.29100037    4.90999985    2.73000002
   12.83083344  113.64399719    4.90999985    2.73000002
   12.83388901  116.11000061    4.90999985    2.73000002
   12.83500004  112.95600128    4.90999985    2.73000002
   12.85555553  112.95600128    4.90999985    2.75000000
   12.85972214  113.72799683    4.90999985    2.73000002
   12.86305618  116.36199951    4.90999985    2.73000002
   12.86611176  121.51699829    4.90999985    2.73000002
   12.86833382  128.78300476    4.90999985    2.73000002
   12.86972237  122.23600006    4.90999985    2.73000002
   12.87305546  121.57800293    4.90999985    2.75000000
   12.87638855  117.92299652    4.90999985    2.73000002
   12.87944412  120.94999695    4.90999985    2.73000002
   12.88277817  121.59799957    4.90999985    2.73000002
   12.88583279  114.07700348    4.90999985    2.75000000
   12.88916683  120.52100372    4.90999985    2.75000000
   12.89249992  110.26100159    4.90999985    2.73000002
   12.89833355  110.26100159    4.90999985    2.75000000
   12.90249920  116.65200043    4.90999985    2.75000000
   12.90583324  120.64199829    4.90999985    2.75000000
   12.90888882  120.11599731    4.90999985    2.73000002
   12.91222191  118.34999847    4.90999985    2.73000002
   12.91527748  111.93299866    4.90999985    2.75000000
   12.91861153  116.79599762    4.90999985    2.75000000
   12.92194462  114.00900269    4.90999985    2.75000000
   12.92500019  124.57599640    4.90999985    2.75000000
   12.92833328  119.22799683    4.90999985    2.75000000
   12.93166733  119.03399658    4.90999985    2.75000000
   12.93472195  120.14499664    4.90999985    2.75000000
   12.93527794  122.06700134    4.90999985    2.75000000
   12.94111156  122.06700134    4.90999985    2.75000000
   12.94527817  118.21499634    4.90999985    2.75000000
   12.94861126  113.18000031    4.90999985    2.75000000
   12.95166683  109.89800262    4.90999985    2.75000000
   12.95499992  120.99900055    4.90999985    2.75000000
   12.95833302  118.83899689    4.90999985    2.75000000
   12.96138859  120.82299805    4.90999985    2.75000000
   12.96472168  124.12400055    4.90999985    2.75000000
   12.96777725  124.00199890    4.90999985    2.75000000
   12.96861076  127.94699860    4.90999985    2.75000000
   12.97166634  119.80999756    4.90999985    2.75000000
   12.97472191  114.79699707    4.90999985    2.76999998
   12.97805500  115.73100281    4.90999985    2.75000000
   12.98388958  115.73100281    4.90999985    2.75000000
   12.98805618  112.90299988    4.90999985    2.75000000
   12.99138927  112.51499939    4.90999985    2.76999998
   12.99472237  115.09999847    4.90999985    2.76999998
   12.99777794  116.77100372    4.90999985    2.75000000
   13.00111103  125.63800049    4.90999985    2.76999998
   13.00194454  122.17800140    4.90999985    2.75000000
   13.00472260  125.04799652    4.90999985    2.75000000
   13.00777817  116.94899750    4.90999985    2.76999998
   13.01111126  134.15100098    4.90999985    2.75000000
   13.01444435  117.24700165    4.90999985    2.76999998
   13.01749992  122.67500305    4.90999985    2.75000000
   13.02083302  123.16899872    4.90999985    2.75000000
   13.02694416  123.16899872    4.90999985    2.75000000
   13.03111076  121.80699921    4.90999985    2.75000000
   13.03416729  127.07499695    4.90999985    2.75000000
   13.03527832  117.44200134    4.90999985    2.75000000
   13.03777790  111.24800110    4.90999985    2.76999998
   13.04083347  128.08399963    4.90999985    2.76999998
   13.04416752  118.57900238    4.90999985    2.76999998
   13.04750061  121.65499878    4.90999985    2.76999998
   13.05055618  115.59400177    4.90999985    2.76999998
   13.05388927  118.42400360    4.90999985    2.76999998
   13.05694485  121.22299957    4.90999985    2.75000000
   13.06027794  121.23300171    4.90999985    2.78999996
   13.06361103  115.60399628    4.90999985    2.76999998
   13.06972218  115.60399628    4.90999985    2.78999996
   13.07388878  126.88899994    4.90999985    2.76999998
   13.07694435  118.49800110    4.90999985    2.76999998
   13.08027744  115.45700073    4.90999985    2.75000000
   13.08361053  122.30200195    4.90999985    2.76999998
   13.08666611  119.55400085    4.90999985    2.75000000
   13.09000015  127.46700287    4.90999985    2.75000000
   13.09333324  125.13800049    4.90999985    2.76999998
   13.09638882  126.41899872    4.90999985    2.76999998
   13.09972191  115.44999695    4.90999985    2.76999998
   13.10194492  121.39800262    4.90999985    2.78999996
   13.10333347  121.81199646    4.90999985    2.76999998
   13.10638905  124.43299866    4.90999985    2.76999998
   13.11250019  124.43299866    4.90999985    2.76999998
   13.11666679  127.51300049    4.90999985    2.76999998
   13.11999989  105.70500183    4.90999985    2.76999998
   13.12305546  118.65000153    4.90999985    2.76999998
   13.12638855  125.95400238    4.90999985    2.76999998
   13.12972260  116.15399933    4.90999985    2.78999996
   13.13277817  121.15299988    4.90999985    2.76999998
   13.13527775  118.98500061    4.90999985    2.76999998
   13.13638878  124.44699860    4.90999985    2.78999996
   13.13944435  130.17900085    4.90999985    2.76999998
   13.14277744  127.37899780    4.90999985    2.76999998
   13.14611053  108.27899933    4.90999985    2.78999996
   13.14916611  110.62300110    4.90999985    2.78999996
   13.15527725  110.62300110    4.90999985    2.76999998
   13.15944386  115.73899841    4.90999985    2.76999998
   13.16277695  109.05100250    4.90999985    2.78999996
   13.16611099  112.66100311    4.90999985    2.78999996
   13.16861153  125.50700378    4.90999985    2.76999998
   13.16972256  108.37799835    4.90999985    2.76999998
   13.17277813  112.47399902    4.90999985    2.78999996
   13.17611122  112.84400177    4.90999985    2.78999996
   13.17944431  118.66500092    4.90999985    2.76999998
   13.18249989  107.38200378    4.90999985    2.78999996
   13.18583298  118.44499969    4.90999985    2.76999998
   13.18916702  121.98699951    4.90999985    2.76999998
   13.19222260  107.62799835    4.90999985    2.78999996
   13.19833374  107.62799835    4.90999985    2.78999996
   13.20249939  121.87000275    4.90999985    2.78999996
   13.20555496  120.61599731    4.90999985    2.78999996
   13.20888901  130.33399963    4.90999985    2.78999996
   13.21194458  118.25800323    4.90999985    2.78999996
   13.21527767  122.91600037    4.90999985    2.78999996
   13.21861076  122.75299835    4.90999985    2.76999998
   13.22166634  119.41699982    4.90999985    2.78999996
   13.22499943  125.41400146    4.90999985    2.76999998
   13.22833252  115.04299927    4.90999985    2.78999996
   13.23138809  121.61199951    4.90999985    2.76999998
   13.23472214  124.71499634    4.90999985    2.76999998
   13.23527813  110.01399994    4.90999985    2.78999996
   13.24111176  110.01399994    4.90999985    2.78999996
   13.24527836  133.38999939    4.90999985    2.78999996
   13.24833393  119.47799683    4.90999985    2.78999996
   13.25166702  109.37699890    4.90999985    2.78999996
   13.25500011  106.82800293    4.90999985    2.78999996
   13.25805569  126.94899750    4.90999985    2.78999996
   13.26138878  113.50199890    4.90999985    2.76999998
   13.26472187  119.62200165    4.90999985    2.76999998
   13.26777744  121.56600189    4.90999985    2.78999996
   13.26861095  110.65399933    4.90999985    2.78999996
   13.27138901  122.95700073    4.90999985    2.78999996
   13.27472210  122.78900146    4.90999985    2.78999996
   13.27777767  123.53399658    4.90999985    2.78999996
   13.28388977  123.53399658    4.90999985    2.78999996
   13.28805637  120.68499756    4.90999985    2.78999996
   13.29138947  131.20500183    4.90999985    2.78999996
   13.29444504  124.36799622    4.90999985    2.76999998
   13.29777813  116.00900269    4.90999985    2.78999996
   13.30111122  128.44900513    4.90999985    2.78999996
   13.30194473  128.32200623    4.90999985    2.78999996
   13.30472279  115.51300049    4.90999985    2.76999998
   13.30777836  116.71399689    4.90999985    2.78999996
   13.31111145  113.65000153    4.90999985    2.78999996
   13.31444454  114.32299805    4.90999985    2.78999996
   13.31750011  106.41100311    4.90999985    2.80999994
   13.32083321  114.79499817    4.90999985    2.78999996
   13.32666683  114.79499817    4.90999985    2.78999996
   13.33083344  111.18199921    4.90999985    2.78999996
   13.33416653  112.37500000    4.90999985    2.78999996
   13.33527756  114.45700073    4.90999985    2.80999994
   13.33777714  116.94499969    4.90999985    2.80999994
   13.34111118  114.04499817    4.90999985    2.80999994
   13.34416676  118.49400330    4.90999985    2.80999994
   13.34749985  110.69300079    4.90999985    2.80999994
   13.35055637  108.82399750    4.90999985    2.80999994
   13.35388947  112.78700256    4.90999985    2.80999994
   13.35722256  111.15100098    4.90999985    2.80999994
   13.36027813  119.47599792    4.90999985    2.78999996
   13.36361122  109.64900208    4.90999985    2.78999996
   13.36972237  109.64900208    4.90999985    2.80999994
   13.37388897  112.75700378    4.90999985    2.78999996
   13.37694454  105.93900299    4.90999985    2.80999994
   13.38027763  115.68399811    4.90999985    2.78999996
   13.38333321  114.88600159    4.90999985    2.78999996
   13.38666630  121.08300018    4.90999985    2.78999996
   13.39000034  113.14600372    4.90999985    2.78999996
   13.39305496  116.77400208    4.90999985    2.78999996
   13.39638901  115.67500305    4.90999985    2.78999996
   13.39972210  122.05200195    4.90999985    2.80999994
   13.40194416  113.23999786    4.90999985    2.80999994
   13.40333271  113.11799622    4.90999985    2.78999996
   13.40666676  108.47000122    4.90999985    2.78999996
   13.41249943  108.47000122    4.90999985    2.80999994
   13.41666698  115.44699860    4.90999985    2.78999996
   13.42000008  114.14099884    4.90999985    2.78999996
   13.42305565  115.31700134    4.90999985    2.80999994
   13.42638874  107.32199860    4.90999985    2.80999994
   13.42944431  111.74299622    4.90999985    2.78999996
   13.43277836  104.80500031    4.90999985    2.80999994
   13.43527794  113.20200348    4.90999985    2.80999994
   13.43638897  114.04599762    4.90999985    2.80999994
   13.43972206  117.51399994    4.90999985    2.80999994
   13.44277763  114.26499939    4.90999985    2.80999994
   13.44611073  118.23899841    4.90999985    2.80999994
   13.44944477  115.44799805    4.90999985    2.80999994
   13.45527744  115.44799805    4.90999985    2.82999992
   13.45944405  120.18099976    4.90999985    2.80999994
   13.46277714  105.43599701    4.90999985    2.80999994
   13.46583271  108.25299835    4.90999985    2.80999994
   13.46861076  111.97100067    4.90999985    2.80999994
   13.46944427  116.73000336    4.90999985    2.80999994
   13.47277737  111.21900177    4.90999985    2.80999994
   13.47583294  112.80899811    4.90999985    2.80999994
   13.47916603  116.84600067    4.90999985    2.80999994
   13.48222160  108.13899994    4.90999985    2.80999994
   13.48555565  113.43399811    4.90999985    2.82999992
   13.48888874  118.26200104    4.90999985    2.80999994
   13.49194431  113.18599701    4.90999985    2.80999994
   13.49805546  113.18599701    4.90999985    2.80999994
   13.50222206  116.50900269    4.90999985    2.80999994
   13.50555515  117.44200134    4.90999985    2.80999994
   13.50888920  109.07399750    4.90999985    2.80999994
   13.51194477  112.33300018    4.90999985    2.80999994
   13.51527786  107.31099701    4.90999985    2.80999994
   13.51833344  116.28800201    4.90999985    2.80999994
   13.52166653  116.31999969    4.90999985    2.80999994
   13.52499962  109.60800171    4.90999985    2.80999994
   13.52805519  107.55599976    4.90999985    2.80999994
   13.53138828  107.03800201    4.90999985    2.80999994
   13.53472233  106.96399689    4.90999985    2.80999994
   13.53527832  109.78800201    4.90999985    2.80999994
   13.54111195  109.78800201    4.90999985    2.80999994
   13.54500008  113.07499695    4.90999985    2.80999994
   13.54833412  120.87699890    4.90999985    2.80999994
   13.55166721  116.59999847    4.90999985    2.80999994
   13.55472279  114.88700104    4.90999985    2.82999992
   13.55805588  115.03399658    4.90999985    2.82999992
   13.56138897  114.44799805    4.90999985    2.82999992
   13.56444454  116.20800018    4.90999985    2.82999992
   13.56777763  104.52999878    4.90999985    2.82999992
   13.56861115  116.92500305    4.90999985    2.80999994
   13.57138920  112.08200073    4.90999985    2.84999990
   13.57472229  110.65100098    4.90999985    2.82999992
   13.57777786  120.64600372    4.90999985    2.82999992
   13.58388901  120.64600372    4.90999985    2.80999994
   13.58805561  112.36799622    4.90999985    2.82999992
   13.59111118  111.34500122    4.90999985    2.82999992
   13.59444427  104.70300293    4.90999985    2.82999992
   13.59777737  103.54100037    4.90999985    2.80999994
   13.60083389  121.21499634    4.90999985    2.84999990
   13.60194492  106.93299866    4.90999985    2.82999992
   13.60444450  112.77999878    4.90999985    2.84999990
   13.60777855  107.12999725    4.90999985    2.82999992
   13.61083412  115.23799896    4.90999985    2.82999992
   13.61416721  109.07199860    4.90999985    2.82999992
   13.61750031  113.31700134    4.90999985    2.80999994
   13.62055588  115.94999695    4.90999985    2.80999994
   13.62666702  115.94999695    4.90999985    2.82999992
   13.63083363  109.84400177    4.90999985    2.82999992
   13.63416672  111.55400085    4.90999985    2.82999992
   13.63527775  107.92500305    4.90999985    2.82999992
   13.63777733  111.56500244    4.90999985    2.80999994
   13.64111137  108.07199860    4.90999985    2.82999992
   13.64416695  104.41699982    4.90999985    2.82999992
   13.64750004  107.73699951    4.90999985    2.84999990
   13.65083313  104.46299744    4.90999985    2.84999990
   13.65388870  113.38999939    4.90999985    2.86999989
   13.65722179  107.46199799    4.88999987    2.84999990
   13.66027737  113.48699951    4.84999990    2.84999990
   13.66361046  108.94300079    4.80999994    2.84999990
   13.66944504  108.94300079    4.78000021    2.84999990
   13.67361164  112.20600128    4.76000023    2.84999990
   13.67694473  103.51100159    4.73999977    2.82999992
   13.68027782  109.81600189    4.71999979    2.84999990
   13.68333340  103.95800018    4.73999977    2.84999990
   13.68666649  110.39499664    4.76000023    2.84999990
   13.69000053  116.77500153    4.80000019    2.84999990
   13.69305515  112.40399933    4.82999992    2.84999990
   13.69638920  117.42400360    4.90999985    2.84999990
   13.69944477  110.67199707    4.90999985    2.82999992
   13.70194435  116.93900299    4.90999985    2.84999990
   13.70305538  106.26799774    4.90999985    2.84999990
   13.70638847  111.44200134    4.90999985    2.84999990
   13.71249962  111.44200134    4.90999985    2.84999990
   13.71666622  112.32199860    4.90999985    2.82999992
   13.71972179  109.46099854    4.90999985    2.82999992
   13.72305489  114.50199890    4.90999985    2.82999992
   13.72611046  115.29299927    4.90999985    2.84999990
   13.72944355  114.51000214    4.90999985    2.82999992
   13.73277760  117.35900116    4.90999985    2.82999992
   13.73527813  116.52999878    4.90999985    2.84999990
   13.73638916  112.90399933    4.90999985    2.82999992
   13.73972225  112.81300354    4.90999985    2.82999992
   13.74277782  112.48200226    4.90999985    2.82999992
   13.74611092  112.27600098    4.90999985    2.84999990
   13.74944496  109.59600067    4.90999985    2.82999992
   13.75527763  109.59600067    4.90999985    2.82999992
   13.75944424  103.98400116    4.90999985    2.82999992
   13.76249981  108.33999634    4.90999985    2.82999992
   13.76583290  112.60399628    4.90999985    2.84999990
   13.76861095  111.30699921    4.90999985    2.82999992
   13.76944447  110.66100311    4.90999985    2.84999990
   13.77277756  107.77700043    4.90999985    2.84999990
   13.77583313  108.39399719    4.90999985    2.84999990
   13.77916622  113.89299774    4.90999985    2.84999990
   13.78249931  110.86599731    4.90999985    2.84999990
   13.78555584  119.62400055    4.90999985    2.82999992
   13.78888893  117.60099792    4.90999985    2.82999992
   13.79222298  110.70899963    4.90999985    2.82999992
   13.79805565  110.70899963    4.90999985    2.84999990
   13.80222225  105.22499847    4.90999985    2.84999990
   13.80555534   98.57540131    4.90999985    2.84999990
   13.80861092   99.85980225    4.90999985    2.84999990
   13.81194496  110.21499634    4.90999985    2.82999992
   13.81500053  104.86499786    4.90999985    2.84999990
   13.81833363  118.06800079    4.90999985    2.82999992
   13.82166672  107.74600220    4.90999985    2.82999992
   13.82472229  109.09999847    4.86999989    2.84999990
   13.82805538  106.95800018    4.82999992    2.86999989
   13.83138847  114.77200317    4.82999992    2.84999990
   13.83444405  105.56300354    4.80999994    2.84999990
   13.83527756  106.46199799    4.80999994    2.86999989
   13.84083271  106.46199799    4.80000019    2.84999990
   13.84499931  110.75900269    4.80999994    2.84999990
   13.84833336  105.87799835    4.82999992    2.84999990
   13.85138893  107.46299744    4.84999990    2.84999990
   13.86916637  103.88400269    4.90999985    2.84999990
   13.87166691  101.60600281    4.90999985    2.84999990
   13.87472248  113.10600281    4.90999985    2.84999990
   13.87805557  108.81600189    4.90999985    2.84999990
   13.88388920  108.81600189    4.90999985    2.84999990
   13.88805580  114.58200073    4.90999985    2.84999990
   13.89138889  112.51499939    4.90999985    2.84999990
   13.89444447  132.19599915    4.90999985    2.84999990
   13.89777756  125.09100342    4.90999985    2.84999990
   13.90111065  121.43399811    4.90999985    2.84999990
   13.90222168  121.47699738    4.90999985    2.84999990
   13.90444374  126.18199921    4.90999985    2.84999990
   13.90777779  118.40299988    4.90999985    2.84999990
   13.91083336  115.20899963    4.90999985    2.84999990
   13.91416645  116.50399780    4.90999985    2.84999990
   13.91750050  122.70200348    4.90999985    2.84999990
   13.92055607  114.66699982    4.90999985    2.84999990
   13.92666721  114.66699982    4.90999985    2.84999990
   13.93083382  121.69000244    4.90999985    2.82999992
   13.93416691  104.22100067    4.90999985    2.84999990
   13.93555546  106.51499939    4.90999985    2.84999990
   13.93777752  123.58699799    4.90999985    2.84999990
   13.94111156  106.44400024    4.90999985    2.84999990
   13.94416714  117.50499725    4.90999985    2.82999992
   13.94750023  115.42199707    4.90999985    2.84999990
   13.95083332  114.84500122    4.90999985    2.84999990
   13.95416641  119.62400055    4.90999985    2.84999990
   13.95722198  112.14399719    4.90999985    2.84999990
   13.96055508  127.09700012    4.90999985    2.84999990
   13.96388912  113.13400269    4.90999985    2.82999992
   13.96972179  113.13400269    4.90999985    2.84999990
   13.97388840  115.25199890    4.90999985    2.89000010
   13.97694397  113.64099884    4.90999985    2.84999990
   13.98027706  123.07499695    4.90999985    2.84999990
   13.98361111  120.18900299    4.90999985    2.82999992
   13.98666668  117.05000305    4.90999985    2.84999990
   13.99000072  116.78299713    4.90999985    2.84999990
   13.99305534  119.57299805    4.90999985    2.82999992
   13.99638939  112.11100006    4.90999985    2.84999990
   13.99972248  120.93900299    4.90999985    2.82999992
   14.00249958  114.42800140    4.90999985    2.84999990
   14.00305557  122.51300049    4.90999985    2.84999990
   14.00638866  121.77899933    4.90999985    2.84999990
   14.01249981  121.77899933    4.90999985    2.84999990
   14.01666641  116.71199799    4.90999985    2.86999989
   14.01972198  113.69799805    4.90999985    2.86999989
   14.02305508  117.32700348    4.90999985    2.84999990
   14.02638817  114.48799896    4.90999985    2.84999990
   14.02944374  108.90499878    4.90999985    2.84999990
   14.03277779  119.81999969    4.90999985    2.84999990
   14.03583336  116.92199707    4.90999985    2.84999990
   14.03638935  122.15399933    4.90999985    2.84999990
   14.03972244  107.72399902    4.90999985    2.84999990
   14.04305553  110.96800232    4.90999985    2.84999990
   14.04611111  109.12100220    4.90999985    2.84999990
   14.04944515  115.66200256    4.90999985    2.84999990
   14.05527782  115.66200256    4.90999985    2.84999990
   14.05944443  120.86699677    4.90999985    2.84999990
   14.06277752  117.21199799    4.90999985    2.84999990
   14.06583309  111.62599945    4.90999985    2.84999990
   14.06916618  115.32399750    4.90999985    2.84999990
   14.06944466  112.03299713    4.90999985    2.84999990
   14.07277775  115.40399933    4.90999985    2.84999990
   14.07583332  121.41400146    4.90999985    2.82999992
   14.07916641  111.19699860    4.90999985    2.84999990
   14.08249950  114.54699707    4.90999985    2.82999992
   14.08555508  109.73000336    4.90999985    2.84999990
   14.08888817  108.04000092    4.90999985    2.84999990
   14.09222221  110.53700256    4.90999985    2.82999992
   14.09805489  110.53700256    4.90999985    2.84999990
   14.10222244  103.68900299    4.90999985    2.84999990
   14.10277843  103.75800323    4.90999985    2.84999990
   14.10611153  105.83300018    4.90999985    2.84999990
   14.10916710  112.51100159    4.90999985    2.82999992
   14.11250019  115.20800018    4.90999985    2.84999990
   14.11583328  118.88099670    4.90999985    2.84999990
   14.11888885  112.36900330    4.90999985    2.84999990
   14.12222195  121.35900116    4.90999985    2.84999990
   14.12555599  119.36499786    4.90999985    2.84999990
   14.12861156  107.24600220    4.90999985    2.84999990
   14.13194466  113.73899841    4.90999985    2.84999990
   14.13527775  107.22499847    4.90999985    2.84999990
   14.13611126  111.03600311    4.90999985    2.84999990
   14.14111137  111.03600311    4.90999985    2.84999990
   14.14499950  106.58699799    4.90999985    2.84999990
   14.14833355  114.45999908    4.90999985    2.84999990
   14.15166664  103.64900208    4.90999985    2.84999990
   14.15472221  109.60800171    4.90999985    2.82999992
   14.15805531  114.07900238    4.90999985    2.80999994
   14.16138840  115.98000336    4.90999985    2.84999990
   14.16444397  118.16300201    4.90999985    2.82999992
   14.16777802  115.48799896    4.90999985    2.82999992
   14.16944504  111.39800262    4.90999985    2.84999990
   14.17138958  111.14600372    4.90999985    2.84999990
   14.17444515  109.69499969    4.90999985    2.84999990
   14.17777824  116.35299683    4.90999985    2.84999990
   14.18388939  116.35299683    4.90999985    2.86999989
   14.18805599  113.41200256    4.90999985    2.86999989
   14.19111156  107.09899902    4.90999985    2.84999990
   14.19444466  104.91899872    4.90999985    2.86999989
   14.19777775  103.85099792    4.90999985    2.86999989
   14.20083332  114.45300293    4.90999985    2.86999989
   14.20277786  112.01899719    4.90999985    2.84999990
   14.20444393  119.04199982    4.90999985    2.86999989
   14.20749950  105.78800201    4.90999985    2.84999990
   14.21083355  112.78399658    4.90999985    2.84999990
   14.21416664  104.70999908    4.90999985    2.86999989
   14.21722221  105.47100067    4.90999985    2.86999989
   14.22055531  109.30300140    4.90999985    2.86999989
   14.22666645  109.30300140    4.90999985    2.86999989
   14.23083305  108.42099762    4.90999985    2.86999989
   14.23416710  109.51699829    4.90999985    2.86999989
   14.23611164  105.98000336    4.90999985    2.86999989
   14.23777771  108.55500031    4.90999985    2.84999990
   14.24111176  108.62200165    4.90999985    2.86999989
   14.24416733  104.16000366    4.90999985    2.84999990
   14.24750042  109.22499847    4.90999985    2.86999989
   14.25055599  106.60900116    4.90999985    2.86999989
   14.25388908  102.38200378    4.90999985    2.86999989
   14.25722218  109.24500275    4.90999985    2.86999989
   14.26027775  100.65599823    4.90999985    2.86999989
   14.26361084  101.77400208    4.90999985    2.86999989
   14.26944447  101.77400208    4.90999985    2.84999990
   14.27361107   99.99510193    4.90999985    2.84999990
   14.27694416  104.34600067    4.90999985    2.84999990
   14.27999973  117.53199768    4.90999985    2.86999989
   14.28333378  104.43499756    4.90999985    2.84999990
   14.28666687   97.65319824    4.90999985    2.84999990
   14.29000092  113.55100250    4.90999985    2.86999989
   14.29305553  109.89399719    4.90999985    2.86999989
   14.29638958  108.57900238    4.90999985    2.89000010
   14.29944515  106.94300079    4.90999985    2.86999989
   14.30277824  111.51999664    4.90999985    2.86999989
   14.30333328  111.31700134    4.90999985    2.86999989
   14.30666733  107.20899963    4.90999985    2.86999989
   14.31250000  107.20899963    4.90999985    2.86999989
   14.31638908  113.02600098    4.90999985    2.86999989
   14.31972218  122.08300018    4.90999985    2.84999990
   14.32305527  104.00399780    4.90999985    2.86999989
   14.32611084  107.66600037    4.90999985    2.86999989
   14.32944393  104.34200287    4.90999985    2.86999989
   14.33277798  105.25499725    4.90999985    2.86999989
   14.33583260  120.44300079    4.90999985    2.86999989
   14.33666611  112.20099640    4.90999985    2.86999989
   14.33972168  110.50599670    4.90999985    2.86999989
   14.34277725  113.08100128    4.90999985    2.84999990
   14.34611034  114.62999725    4.90999985    2.86999989
   14.34916592  116.81199646    4.90999985    2.84999990
   14.35527802  116.81199646    4.90999985    2.86999989
   14.35944462  116.62699890    4.84999990    2.86999989
   14.36250019  104.13200378    4.80000019    2.89000010
   14.36583328  103.24500275    4.76000023    2.89000010
   14.36916637  108.10800171    4.76000023    2.89000010
   14.36999989  109.56099701    4.76000023    2.89000010
   14.37277794  112.15799713    4.76000023    2.86999989
   14.37583351  108.00499725    4.82999992    2.86999989
   14.37916660  109.26699829    4.84999990    2.86999989
   14.38249969  104.93499756    4.84999990    2.86999989
   14.38555527   98.65149689    4.86999989    2.89000010
   14.38888836  112.01000214    4.90999985    2.86999989
   14.39222240  110.20600128    4.90999985    2.86999989
   14.39805508  110.20600128    4.90999985    2.89000010
   14.40222168  106.58999634    4.90999985    2.89000010
   14.40333271  103.03299713    4.90999985    2.89000010
   14.40583324  108.91600037    4.90999985    2.86999989
   14.40888882  110.87500000    4.90999985    2.86999989
   14.41222191  100.83699799    4.90999985    2.89000010
   14.41527748  104.31900024    4.82999992    2.89000010
   14.41861153  108.43199921    4.80999994    2.89000010
   14.42194462  109.86199951    4.78000021    2.86999989
   14.42500019  121.01499939    4.76000023    2.89000010
   14.42833328  105.50900269    4.76000023    2.89000010
   14.43166733  109.51699829    4.76000023    2.89000010
   14.43472195  109.02799988    4.73999977    2.86999989
   14.43666649  109.52600098    4.76000023    2.86999989
   14.44083309  109.52600098    4.73999977    2.86999989
   14.44499969  111.72100067    4.71999979    2.86999989
   14.44833374  107.17900085    4.71999979    2.86999989
   14.45138836  112.58100128    4.76000023    2.89000010
   14.45472240  103.82700348    4.76000023    2.89000010
   14.45805550  110.75599670    4.80999994    2.89000010
   14.46138859  104.93499756    4.84999990    2.86999989
   14.46444416  114.49299622    4.88999987    2.89000010
   14.46777725  116.13700104    4.88999987    2.86999989
   14.46999931  104.02200317    4.86999989    2.89000010
   14.47138882  106.89600372    4.82999992    2.89000010
   14.47444439  105.59799957    4.82999992    2.89000010
   14.47777748  105.96099854    4.84999990    2.89000010
   14.48388958  105.96099854    4.80000019    2.89000010
   14.48777771  101.69000244    4.84999990    2.86999989
   14.49111176  109.18699646    4.82999992    2.89000010
   14.49444485  109.99400330    4.84999990    2.86999989
   14.49750042  103.73999786    4.90999985    2.86999989
   14.50083351  106.03399658    4.90999985    2.89000010
   14.50333309  106.70400238    4.90999985    2.86999989
   14.50444412  107.63999939    4.90999985    2.89000010
   14.50749969  110.92700195    4.90999985    2.86999989
   14.51083374  111.69899750    4.90999985    2.86999989
   14.51416683  113.44400024    4.90999985    2.86999989
   14.51722240  111.25499725    4.90999985    2.86999989
   14.52055550  114.48100281    4.90999985    2.89000010
   14.52666664  114.48100281    4.90999985    2.91000009
   14.53083324  108.86199951    4.90999985    2.82999992
   14.53388977  106.51999664    4.90999985    2.86999989
   14.53666687  106.17500305    4.86999989    2.89000010
   14.53777790  111.65599823    4.80999994    2.89000010
   14.54083347   98.19999695    4.63999987    2.91000009
   14.54416752  106.26399994    4.46999979    2.89000010
   14.54750061  112.61000061    4.32999992    2.89000010
   14.55055618  107.67600250    4.21999979    2.91000009
   14.55388927  103.96499634    4.13999987    2.91000009
   14.55694485  109.28800201    4.03999996    2.89000010
   14.56027794  111.16000366    4.01999998    2.91000009
   14.56361103  111.49199677    4.07999992    2.89000010
   14.56944466  111.49199677    4.00000000    2.91000009
   14.57361126  111.65599823    3.97000003    2.91000009
   14.57694435  106.64800262    4.03999996    2.91000009
   14.57999992  109.07499695    4.01999998    2.91000009
   14.58333302  112.56800079    4.05999994    2.89000010
   14.58666611  117.86399841    4.07999992    2.91000009
   14.58972168  112.71800232    4.07999992    2.89000010
   14.59305477  112.50299835    4.03999996    2.91000009
   14.59638882  101.03399658    4.05999994    2.91000009
   14.59944439  115.82199860    4.05999994    2.89000010
   14.60277843  114.96600342    4.11999989    2.91000009
   14.60444450  109.23899841    4.11999989    2.89000010
   14.60638905  116.42700195    4.11999989    2.89000010
   14.61250019  116.42700195    4.05999994    2.89000010
   14.61638927  118.03500366    4.07999992    2.91000009
   14.61972237  124.07599640    4.05999994    2.91000009
   14.62305546  117.52999878    4.01999998    2.91000009
   14.62638855  140.30799866    3.95000005    2.91000009
   14.62944412  122.60299683    3.82999992    2.91000009
   14.63277817  129.09599304    3.75000000    2.91000009
   14.63583279  119.77600098    3.73000002    2.91000009
   14.63805580  135.69500732    3.75000000    2.93000007
   14.63944435  135.24499512    3.72000003    2.91000009
   14.64277744  134.37500000    3.57999992    2.91000009
   14.64583302  142.65199280    3.51999998    2.93000007
   14.64916611  135.11999512    3.55999994    2.93000007
   14.65527725  135.11999512    3.64000010    2.93000007
   14.65944386  123.93599701    3.75000000    2.93000007
   14.66249943  126.10099792    3.91000009    2.91000009
   14.66583252  130.40899658    4.07999992    2.91000009
   14.66888905  159.03500366    4.30999994    2.91000009
   14.67138958  134.06500244    4.42999983    2.89000010
   14.67277813  144.26499939    4.44999981    2.89000010
   14.67583370  162.22999573    4.51000023    2.91000009
   14.67916679  155.30599976    4.53000021    2.89000010
   14.68249989  145.10499573    4.53999996    2.91000009
   14.68555546  158.45899963    4.46999979    2.91000009
   14.68888855  164.09599304    4.46999979    2.89000010
   14.69194412  177.17900085    4.53999996    2.91000009
   14.69805527  177.17900085    4.53000021    2.89000010
   14.70222187  152.93200684    4.55999994    2.91000009
   14.70472240  145.77499390    4.59999990    2.89000010
   14.70583344  161.02099609    4.59999990    2.89000010
   14.70888901  170.00900269    4.57999992    2.89000010
   14.71222210  166.32800293    4.55999994    2.91000009
   14.71555519  161.33500671    4.57999992    2.89000010
   14.71861076  164.26499939    4.59999990    2.89000010
   14.72194386  152.12300110    4.63999987    2.89000010
   14.72527695  152.46000671    4.69999981    2.89000010
   14.72833252  152.18600464    4.80000019    2.89000010
   14.73166656  177.71499634    4.82999992    2.89000010
   14.73472214  165.71000671    4.88999987    2.89000010
   14.74083328  165.71000671    4.90999985    2.89000010
   14.74499989  157.84300232    4.90999985    2.89000010
   14.74833393  179.67199707    4.88999987    2.89000010
   14.75138855  140.64399719    4.90999985    2.89000010
   14.75472260  145.76600647    4.80999994    2.89000010
   14.75805569  156.34100342    4.42999983    2.91000009
   14.76111126  141.52299500    4.21999979    2.91000009
   14.76444435  147.53300476    4.03999996    2.91000009
   14.76749992  159.17999268    3.75000000    2.91000009
   14.77083302  143.02400208    3.66000009    2.91000009
   14.77166653  145.32000732    3.64000010    2.93000007
   14.77444458  154.23300171    3.61999989    2.93000007
   14.77777767  155.38999939    3.64000010    2.93000007
   14.78361130  155.38999939    3.68000007    2.91000009
   14.78777790  139.40899658    3.61999989    2.93000007
   14.79111195  157.19299316    3.72000003    2.91000009
   14.79444504  139.77099609    3.75000000    2.89000010
   14.79777813  152.77099609    3.73000002    2.93000007
   14.80083370  161.19500732    3.76999998    2.93000007
   14.80416679  153.34300232    3.78999996    2.93000007
   14.80500031  131.54800415    3.76999998    2.93000007
   14.80777836  138.62500000    3.80999994    2.93000007
   14.81111145  168.58000183    3.82999992    2.93000007
   14.81416702  160.14799500    3.86999989    2.91000009
   14.81750011  153.42599487    3.91000009    2.91000009
   14.82083321  165.81900024    3.91000009    2.93000007
   14.82666683  165.81900024    4.00000000    2.91000009
   14.83083344  173.47300720    4.07999992    2.91000009
   14.83388901  161.75000000    4.01999998    2.91000009
   14.83722210  147.62800598    3.93000007    2.91000009
   14.83861065  134.91600037    3.93000007    2.93000007
   14.84083271  148.50599670    3.95000005    2.91000009
   14.84388828  143.40199280    3.95000005    2.93000007
   14.84722233  130.93600464    3.93000007    2.93000007
   14.85055637  156.23300171    3.99000001    2.91000009
   14.85361195  156.91900635    4.00000000    2.91000009
   14.85694504  141.79699707    4.00000000    2.91000009
   14.86027813  147.80700684    4.01999998    2.91000009
   14.86333370  159.99000549    4.05999994    2.93000007
   14.86944485  159.99000549    4.17999983    2.89000010
   14.88777733  135.77699280    4.26999998    2.89000010
   14.89111137  150.01600647    4.21999979    2.91000009
   14.89416695  140.03900146    4.28999996    2.91000009
   14.89750004  147.73399353    4.28999996    2.91000009
   14.90083313  145.27699280    4.23999977    2.93000007
   14.90388870  133.52200317    4.11999989    2.93000007
   14.90722179  143.14700317    4.01999998    2.91000009
   14.91249943  143.14700317    3.91000009    2.93000007
   14.91666698  133.16600037    3.82999992    2.91000009
   14.91972256  140.39100647    3.82999992    2.93000007
   14.92083359  138.63600159    3.80999994    2.93000007
   14.92361164  145.17799377    3.80999994    2.91000009
   14.92666721  137.46899414    3.82999992    2.91000009
   14.93000031  144.20199585    3.86999989    2.93000007
   14.93333340  141.19900513    3.91000009    2.91000009
   14.93638897  134.03100586    3.91000009    2.93000007
   14.93972206  132.18099976    3.93000007    2.93000007
   14.94277763  132.77299500    4.00000000    2.91000009
   14.94611073  124.74099731    4.05999994    2.91000009
   14.94944477  122.60299683    4.11999989    2.91000009
   14.95527744  122.60299683    4.05999994    2.91000009
   14.95944405  124.96399689    4.01999998    2.91000009
   14.96277714  142.77299500    4.09999990    2.91000009
   14.96583271  137.88400269    4.17999983    2.91000009
   14.96916580  135.80499268    4.30999994    2.91000009
   14.97249985  144.96800232    4.40999985    2.91000009
   14.97555542  123.72299957    4.36999989    2.91000009
   14.97888851  137.56900024    4.34999990    2.91000009
   14.98194408  138.51300049    4.36999989    2.91000009
   14.98527813  150.56399536    4.28999996    2.91000009
   14.98750019  138.19599915    4.15999985    2.91000009
   14.98888874  135.36700439    4.09999990    2.91000009
   14.99194431  135.52499390    3.97000003    2.93000007
   14.99805546  135.52499390    3.91000009    2.91000009
   15.00222206  120.16500092    3.93000007    2.93000007
   15.00555515  152.63000488    3.97000003    2.91000009
   15.00861073  131.03199768    3.95000005    2.93000007
   15.01194477  153.04600525    3.95000005    2.91000009
   15.01527786  144.99200439    3.97000003    2.91000009
   15.01833344  128.08900452    3.86999989    2.93000007
   15.02083302  132.29899597    3.68000007    2.94000006
   15.02222157  148.27799988    3.64000010    2.93000007
   15.02527714  129.89199829    3.68000007    2.93000007
   15.12583351   -1.00000000   -1.00000000   -1.00000000
   15.24555588   -1.00000000   -1.00000000   -1.00000000
   15.35666752   -1.00000000   -1.00000000   -1.00000000
   15.39027786  145.57899475    2.91000009    2.94000006
   15.39361095  143.46600342    2.86999989    2.94000006
   15.39694405  136.21400452    2.86999989    2.94000006
   15.40583324  145.73199463    2.75000000    2.94000006
   15.40916634  149.53900146    2.76999998    2.94000006
   15.41249943  153.35600281    2.78999996    2.94000006
   15.41555500  142.38400269    2.82999992    2.94000006
   15.41888905  145.56300354    2.82999992    2.94000006
   15.42333412  145.56300354    2.76999998    2.94000006
   15.42722225  155.47900391    2.76999998    2.94000006
   15.43055630  137.49800110    2.78999996    2.94000006
   15.43388939  138.18899536    2.82999992    2.94000006
   15.43694496  142.02400208    2.86999989    2.94000006
   15.44027805  147.05700684    2.86999989    2.94000006
   15.44361115  136.17999268    2.91000009    2.94000006
   15.44666672  127.04599762    2.91000009    2.93000007
   15.44999981  132.86700439    2.86999989    2.94000006
   15.45305538  114.37699890    2.89000010    2.94000006
   15.45638847  140.35499573    2.93000007    2.94000006
   15.45833302  154.31700134    2.93000007    2.94000006
   15.46000004  131.25100708    2.93000007    2.94000006
   15.46611118  131.25100708    3.05999994    2.93000007
   15.47027779  152.28199768    3.11999989    2.93000007
   15.47333336  141.96600342    3.07999992    2.93000007
   15.47666645  143.00100708    3.01999998    2.93000007
   15.47999954  139.85099792    3.00000000    2.94000006
   15.48333359  123.68900299    3.01999998    2.94000006
   15.48638916  159.74000549    3.01999998    2.96000004
   15.48972225  132.06700134    3.01999998    2.93000007
   15.49166679  128.49699402    3.01999998    2.94000006
   15.49305534  146.05400085    3.00000000    2.94000006
   15.49638939  127.95099640    2.98000002    2.94000006
   15.49972248  134.19299316    3.00000000    2.94000006
   15.50277805  124.05999756    3.01999998    2.94000006
   15.50888920  124.05999756    2.98000002    2.94000006
   15.51305580  141.03100586    2.91000009    2.94000006
   15.51638889  145.22200012    2.84999990    2.94000006
   15.51944447  132.10099792    2.82999992    2.94000006
   15.52277756  138.67199707    2.80999994    2.94000006
   15.52499962  132.35600281    2.76999998    2.96000004
   15.52638817  143.28999329    2.75000000    2.94000006
   15.52972221  130.71499634    2.71000004    2.94000006
   15.53277779  131.66900635    2.71000004    2.94000006
   15.53611183  123.78800201    2.71000004    2.94000006
   15.53944492  137.92100525    2.71000004    2.94000006
   15.54250050  139.29100037    2.69000006    2.94000006
   15.54583359  139.98199463    2.69000006    2.94000006
   15.55166721  139.98199463    2.67000008    2.96000004
   15.55583382  131.49000549    2.71000004    2.96000004
   15.55861092  138.87500000    2.78999996    2.94000006
   15.55944443  125.78500366    2.80999994    2.94000006
   15.56277752  128.35800171    2.84999990    2.94000006
   15.56611156  134.87399292    2.80999994    2.94000006
   15.56916618  130.08500671    2.80999994    2.94000006
   15.57250023  138.64100647    2.82999992    2.94000006
   15.57583332  112.81400299    2.71000004    2.94000006
   15.57888889  123.38200378    2.57999992    2.94000006
   15.58222198  127.30200195    2.51999998    2.96000004
   15.58555508  123.31700134    2.53999996    2.94000006
   15.58861065  133.09899902    2.51999998    2.96000004
   15.59472179  133.09899902    2.51999998    2.96000004
   15.59861088  127.28399658    2.48000002    2.94000006
   15.60194492  129.34700012    2.44000006    2.96000004
   15.60527802  111.12100220    2.46000004    2.94000006
   15.60833359  119.51599884    2.46000004    2.94000006
   15.61166668  116.53700256    2.44000006    2.96000004
   15.61500072  118.51999664    2.46000004    2.96000004
   15.61805534  109.07399750    2.50000000    2.94000006
   15.62138939  118.04799652    2.55999994    2.96000004
   15.62444496  120.49900055    2.61999989    2.94000006
   15.62555599  139.29200745    2.61999989    2.94000006
   15.62805557  109.55300140    2.59999990    2.94000006
   15.63138866  131.52499390    2.57999992    2.96000004
   15.63749981  131.52499390    2.57999992    2.98000002
   15.64166641  110.65399933    2.66000009    2.94000006
   15.64472198  128.38400269    2.73000002    2.96000004
   15.64805508  119.59400177    2.71000004    2.94000006
   15.65138817  125.26100159    2.69000006    2.94000006
   15.65444374  124.48100281    2.69000006    2.94000006
   15.65777779  121.32299805    2.71000004    2.94000006
   15.65888882  121.74500275    2.75000000    2.96000004
   15.66111088  133.05000305    2.76999998    2.96000004
   15.66444397  130.87300110    2.76999998    2.94000006
   15.66777802  123.98999786    2.80999994    2.94000006
   15.67083359  124.12799835    2.93000007    2.94000006
   15.67416668  119.12100220    3.05999994    2.94000006
   15.68027782  119.12100220    3.09999990    2.94000006
   15.68444443  105.59100342    3.16000009    2.94000006
   15.68777752  142.22399902    3.20000005    2.94000006
   15.69083309  124.26499939    3.23000002    2.93000007
   15.69222260  117.24199677    3.25000000    2.93000007
   15.69444466  128.81700134    3.23000002    2.94000006
   15.69777775  123.69799805    3.25000000    2.94000006
   15.70083332  123.63700104    3.25000000    2.94000006
   15.70416641  114.49199677    3.25000000    2.94000006
   15.70749950  123.04799652    3.21000004    2.94000006
   15.71055508  126.89399719    3.18000007    2.94000006
   15.71388912  126.02100372    3.21000004    2.94000006
   15.71694374  124.45999908    3.23000002    2.94000006
   15.72305489  124.45999908    3.14000010    2.94000006
   15.72722149  107.59999847    3.01999998    2.94000006
   15.73055553  109.01200104    2.96000004    2.94000006
   15.73361111  117.51300049    2.96000004    2.94000006
   15.73694515  114.59999847    2.96000004    2.94000006
   15.74027824  124.74299622    2.98000002    2.93000007
   15.74333382  126.53299713    2.94000006    2.94000006
   15.74666691  118.21900177    2.86999989    2.94000006
   15.74972248  121.75700378    2.82999992    2.94000006
   15.75305557  127.73999786    2.84999990    2.94000006
   15.75638866  116.30599976    2.84999990    2.94000006
   15.75916672  127.40100098    2.93000007    2.94000006
   15.76000023  106.02999878    2.91000009    2.94000006
   15.76583290  106.02999878    2.93000007    2.94000006
   15.76999950  103.40100098    2.82999992    2.94000006
   15.77333355  106.16500092    2.80999994    2.94000006
   15.77666664   99.90720367    2.84999990    2.94000006
   15.77972221  105.41899872    2.89000010    2.96000004
   15.78305531  130.37399292    2.93000007    2.96000004
   15.78638935  107.18399811    2.94000006    2.94000006
   15.78944492  121.24800110    2.91000009    2.94000006
   15.79250050  106.75299835    2.91000009    2.94000006
   15.79305553  122.76000214    2.89000010    2.94000006
   15.79638958  111.66899872    2.86999989    2.94000006
   15.79944515  105.98899841    2.86999989    2.96000004
   15.80277824  107.20999908    2.89000010    2.94000006
   15.80888939  107.20999908    2.82999992    2.94000006
   15.81305599  107.14600372    2.93000007    2.94000006
   15.81611156  120.86599731    3.01999998    2.96000004
   15.81944466  111.15200043    3.00000000    2.94000006
   15.82277775  117.26000214    2.94000006    2.94000006
   15.82583332  119.33300018    2.96000004    2.93000007
   15.82611084  108.62599945    2.96000004    2.93000007
   15.82944393  122.50900269    2.91000009    2.94000006
   15.83277798  116.27100372    2.86999989    2.94000006
   15.83583260  121.30200195    2.91000009    2.94000006
   15.83916664  106.48899841    2.89000010    2.94000006
   15.84222221  122.15599823    2.86999989    2.94000006
   15.84555531  113.30699921    2.86999989    2.94000006
   15.85166740  113.30699921    2.75000000    2.94000006
   15.85583401  102.24900055    2.76999998    2.96000004
   15.85916710  107.10099792    2.75000000    2.94000006
   15.85944462  100.32900238    2.75000000    2.94000006
   15.86277771  104.26100159    2.80999994    2.94000006
   15.86583328  109.09300232    3.05999994    2.94000006
   15.86916637  121.12300110    3.07999992    2.94000006
   15.87250042  106.13200378    3.09999990    2.94000006
   15.87555599  107.64199829    3.16000009    2.94000006
   15.87888908  118.57800293    3.14000010    2.94000006
   15.88222218  112.12599945    3.21000004    2.94000006
   15.88527775  112.58200073    3.26999998    2.94000006
   15.88861084  109.95600128    3.28999996    2.94000006
   15.89444447  109.95600128    3.41000009    2.93000007
   15.89861107  111.60399628    3.39000010    2.93000007
   15.90194416  109.02400208    3.41000009    2.93000007
   15.90499973  112.82099915    3.50000000    2.93000007
   15.90833282  117.22000122    3.48000002    2.94000006
   15.91138840  109.39499664    3.45000005    2.93000007
   15.91472149  108.78800201    3.50000000    2.93000007
   15.91805553  118.01000214    3.46000004    2.93000007
   15.92111111  108.89800262    3.41000009    2.94000006
   15.92444515  118.33899689    3.32999992    2.94000006
   15.92583370  108.35800171    3.28999996    2.94000006
   15.92805576  104.87000275    3.21000004    2.94000006
   15.93138885  112.27300262    3.20000005    2.94000006
   15.93722248  112.27300262    3.05999994    2.93000007
   15.94138908  108.11799622    3.05999994    2.94000006
   15.94472218  104.99099731    3.00000000    2.94000006
   15.94805527  113.00800323    2.89000010    2.94000006
   15.95111084  112.58200073    2.78999996    2.96000004
   15.95444393  114.16799927    2.75000000    2.94000006
   15.95749950  113.80000305    2.75000000    2.94000006
   15.95916653  107.22100067    2.75000000    2.94000006
   15.96111107  109.60700226    2.73000002    2.96000004
   15.96444416  108.29599762    2.64000010    2.94000006
   15.96777725  108.01200104    2.59999990    2.96000004
   15.97083282  116.54900360    2.55999994    2.96000004
   15.97416592  118.35900116    2.59999990    2.96000004
   15.98027706  118.35900116    2.64000010    2.94000006
   15.98444462  111.29299927    2.57999992    2.96000004
   15.98750019  117.98999786    2.51999998    2.94000006
   15.99083328  106.89199829    2.51999998    2.94000006
   15.99250031  107.93900299    2.57999992    2.96000004
   15.99444485  106.41300201    2.55999994    2.96000004
   15.99777794  108.56300354    2.57999992    2.96000004
   16.00083351  116.78900146    2.57999992    2.96000004
   16.00416756  115.39700317    2.59999990    2.96000004
   16.00749969  108.85900116    2.61999989    2.96000004
   16.01055527  111.59100342    2.66000009    2.96000004
   16.01388931  111.98500061    2.86999989    2.94000006
   16.01694489  111.35800171    3.09999990    2.94000006
   16.02305603  111.35800171    3.21000004    2.94000006
   16.02722168  101.49299622    3.53999996    2.94000006
   16.03027725  110.37100220    3.66000009    2.94000006
   16.03361130  109.72599792    3.66000009    2.93000007
   16.03694344  111.68599701    3.73000002    2.93000007
   16.03999901  117.20099640    3.66000009    2.93000007
   16.04333305  108.17800140    3.57999992    2.94000006
   16.04638863  111.53700256    3.59999990    2.93000007
   16.04972076  110.07399750    3.64000010    2.93000007
   16.05305481  111.49900055    3.72000003    2.93000007
   16.05611038  114.12200165    3.72000003    2.93000007
   16.05916595  113.11799622    3.68000007    2.94000006
   16.05972099  106.37000275    3.68000007    2.94000006
   16.06583214  106.37000275    3.41000009    2.93000007
   16.07000160  107.25299835    3.30999994    2.93000007
   16.07333374  118.13899994    3.18000007    2.94000006
   16.07638931  109.90299988    3.03999996    2.94000006
   16.07972336  114.10800171    3.03999996    2.96000004
   16.08305550  122.16000366    3.01999998    2.94000006
   16.08611107  111.95099640    3.01999998    2.94000006
   16.08944511  107.91799927    2.93000007    2.94000006
   16.09250069  116.89299774    2.86999989    2.94000006
   16.09305573  112.88800049    2.86999989    2.94000006
   16.09638977  108.31400299    2.84999990    2.94000006
   16.09944534  102.36299896    2.82999992    2.94000006
   16.10277748  106.99099731    2.80999994    2.94000006
   16.10861206  106.99099731    2.66000009    2.96000004
   16.11277771  110.09500122    2.64000010    2.96000004
   16.11611176  112.27500153    2.59999990    2.94000006
   16.11944389  100.22399902    2.57999992    2.96000004
   16.12249947  107.54000092    2.48000002    2.96000004
   16.12583351  105.35199738    2.48000002    2.93000007
   16.12638855  107.85199738    2.48000002    2.93000007
   16.12944412  104.41300201    2.42000008    2.96000004
   16.13277817  114.70300293    2.30999994    2.96000004
   16.13611031  108.44499969    2.30999994    2.96000004
   16.13916588  120.72499847    2.25000000    2.96000004
   16.14249992  105.51899719    2.19000006    2.96000004
   16.14583397  107.98000336    2.28999996    2.96000004
   16.15166664  107.98000336    2.40000010    2.96000004
   16.15583229  107.76100159    2.44000006    2.96000004
   16.15888786  108.84799957    2.40000010    2.96000004
   16.15972137  101.16600037    2.40000010    2.96000004
   16.16250038  113.97699738    2.44000006    2.94000006
   16.16583252  117.46800232    2.48000002    2.96000004
   16.16916656  106.99400330    2.50000000    2.96000004
   16.17222214  121.27100372    2.51999998    2.96000004
   16.17555428  108.26000214    2.67000008    2.96000004
   16.17860985  114.21800232    2.69000006    2.96000004
   16.18194389  110.89900208    2.64000010    2.94000006
   16.18527603  109.78800201    2.67000008    2.96000004
   16.18833160  113.11399841    2.73000002    2.96000004
   16.19444275  113.11399841    0.38000000    0.80000001
   16.19861031  104.83399963    0.15000001    0.41999999
   16.20166779  123.19899750    0.07000000    0.05000000
   16.20499992  117.77400208    0.07000000    0.05000000
   16.20833397  106.48799896    0.07000000    0.05000000
   16.21138954  113.77300262    0.07000000    0.05000000
   16.21472359  104.95500183    0.07000000    0.05000000
   16.21777916  107.50000000    0.07000000    0.05000000
   16.22111130  112.39900208    0.07000000    0.05000000
   16.22444534  112.81400299    0.07000000    0.05000000
   16.22638893  110.58100128    0.07000000    0.05000000
   16.22777748  110.73999786    0.07000000    0.05000000
   16.23111153  104.52100372    0.07000000    0.05000000
   16.23722267  104.52100372    0.07000000    0.05000000
   16.24138832  114.26100159    0.07000000    0.05000000
   16.24472237  104.28500366    0.07000000    0.05000000
   16.24777794  101.91999817    0.07000000    0.05000000
   16.25111198  106.80300140    0.07000000    0.05000000
   16.25444412  111.26599884    0.07000000    0.05000000
   16.25749969  106.84799957    0.07000000    0.05000000
   16.25972176  114.93900299    0.07000000    0.05000000
   16.26111031  113.17099762    0.07000000    0.05000000
   16.26444435  112.17600250    0.07000000    0.05000000
   16.26777840  107.36399841    0.07000000    0.05000000
   16.27083397  103.94999695    0.07000000    0.05000000
   16.27416611  105.01200104    0.07000000    0.05000000
   16.28000069  105.01200104    0.07000000    0.05000000
   16.28416634   99.08779907    0.07000000    0.05000000
   16.28750038  107.20099640    0.07000000    0.05000000
   16.29055595  107.08599854    0.07000000    0.05000000
   16.29305458  107.21900177    0.07000000    0.05000000
   16.29416656  101.78600311    0.07000000    0.05000000
   16.29749870  101.96299744    0.07000000    0.05000000
   16.30083275  110.15100098    0.07000000    0.05000000
   16.30388832  109.64800262    0.07000000    0.05000000
   16.30722237  113.87899780    0.07000000    0.05000000
   16.31055450  104.59100342    0.07000000    0.05000000
   16.31361008  110.22000122    0.07000000    0.05000000
   16.31694603  112.73200226    0.07000000    0.05000000
   16.32305717  112.73200226    0.07000000    0.05000000
   16.32694626  123.63300323    0.07000000    0.05000000
   16.33027840  115.35600281    0.07000000    0.05000000
   16.33361244  111.79299927    0.07000000    0.05000000
   16.33666801  109.47599792    0.07000000    0.05000000
   16.34000015  106.22000122    0.07000000    0.05000000
   16.34333420  110.68399811    0.07000000    0.05000000
   16.34638977  100.81199646    0.07000000    0.05000000
   16.34972191  109.82700348    0.07000000    0.05000000
   16.35277748  105.51999664    0.07000000    0.05000000
   16.35611153  101.10399628    0.07000000    0.05000000
   16.35944557  110.16500092    0.07000000    0.05000000
   16.36000061  106.79199982    0.07000000    0.05000000
   16.36583328  106.79199982    0.07000000    0.05000000
   16.37000084  110.11799622    0.07000000    0.05000000
   16.37305641  105.68099976    0.07000000    0.05000000
   16.37638855  108.52100372    0.07000000    0.05000000
   16.37972260  109.04699707    0.07000000    0.05000000
   16.38277817  106.58799744    0.07000000    0.05000000
   16.38611031  107.17400360    0.07000000    0.05000000
   16.38916588  101.83599854    0.07000000    0.05000000
   16.39249992  105.43199921    0.07000000    0.05000000
   16.39361191  107.08100128    0.07000000    0.05000000
   16.39638901  106.70999908    0.07000000    0.05000000
   16.39972115  106.40100098    0.07000000    0.05000000
   16.40305519  103.37500000    0.07000000    0.05000000
   16.42388916  103.37500000    0.07000000    0.05000000
   16.42805481  109.41200256    0.07000000    0.05000000
   16.43111038  105.72399902    0.07000000    0.05000000
   16.43444443  104.61199951    0.07000000    0.05000000
   16.43750000  101.42299652    0.07000000    0.05000000
   16.44083214  105.80200195    0.07000000    0.05000000
   16.44416618  105.09799957    0.07000000    0.05000000
   16.44722176  105.39700317    0.07000000    0.05000000
   16.45055580  108.77400208    0.07000000    0.05000000
   16.45388985  107.22499847    0.07000000    0.05000000
   16.45694542   99.79959869    0.07000000    0.05000000
   16.46000099   98.15689850    0.07000000    0.05000000
   16.46083450  108.45700073    0.07000000    0.05000000
   16.46638870  108.45700073    0.07000000    0.05000000
   16.47055626  103.89099884    0.07000000    0.05000000
   16.47389030  107.82700348    0.07000000    0.05000000
   16.47722244  103.52600098    0.07000000    0.05000000
   16.48027802  102.21600342    0.07000000    0.05000000
   16.48361206   96.60559845    0.07000000    0.05000000
   16.48666763  101.05699921    0.07000000    0.05000000
   16.48999977  100.93599701    0.07000000    0.05000000
   16.49333382  107.24199677    0.07000000    0.05000000
   16.49388885  100.01599884    0.07000000    0.05000000
   16.49694443   98.74629974    0.07000000    0.05000000
   16.50027847  107.74800110    0.07000000    0.05000000
   16.50361061  102.25399780    0.07000000    0.05000000
   16.50944519  102.25399780    0.07000000    0.05000000
   16.51361084  105.41500092    0.07000000    0.05000000
   16.51666641  115.07599640    0.07000000    0.05000000
   16.52000046  101.37300110    0.07000000    0.05000000
   16.52305603   98.60189819    0.07000000    0.05000000
   16.52638817  108.81300354    0.07000000    0.05000000
   16.52722168  109.89199829    0.07000000    0.05000000
   16.53000069  108.75399780    0.07000000    0.05000000
   16.53333282  115.16300201    0.07000000    0.05000000
   16.53638840  112.93599701    0.07000000    0.05000000
   16.53972244  114.11000061    0.07000000    0.05000000
   16.54305458  118.67299652    0.07000000    0.05000000
   16.54611015  111.59500122    0.07000000    0.05000000
   16.55222130  111.59500122    0.07000000    0.05000000
   16.55638885  119.81199646    0.07000000    0.05000000
   16.55972099  113.77200317    0.07000000    0.05000000
   16.56055450  121.10099792    0.07000000    0.05000000
   16.56305504  109.13600159    0.07000000    0.05000000
   16.56638718  121.87400055    0.07000000    0.05000000
   16.56972313  119.97699738    0.07000000    0.05000000
   16.57277870  123.32800293    0.07000000    0.05000000
   16.57611275  115.12000275    0.07000000    0.05000000
   16.57916832  115.38200378    0.07000000    0.05000000
   16.58250046  113.31900024    0.07000000    0.05000000
   16.58583450  108.20899963    0.07000000    0.05000000
   16.58889008  100.57700348    0.07000000    0.05000000
   16.59500122  100.57700348    0.07000000    0.05000000
   16.59916687  110.06500244    0.07000000    0.05000000
   16.60250092  116.60700226    0.07000000    0.05000000
   16.60555649  111.91600037    0.07000000    0.05000000
   16.60888863  109.94100189    0.07000000    0.05000000
   16.61222267  104.51100159    0.07000000    0.05000000
   16.61527824  114.48300171    0.07000000    0.05000000
   16.61861038  109.12200165    0.07000000    0.05000000
   16.62166595  109.19999695    0.07000000    0.05000000
   16.62500000  121.51599884    0.07000000    0.05000000
   16.62722206  114.95300293    0.07000000    0.05000000
   16.62861061  110.90399933    0.07000000    0.05000000
   16.63194466  105.13600159    0.07000000    0.05000000
   16.63833237  105.13600159    0.07000000    0.05000000
   16.64249992  106.52899933    0.07000000    0.05000000
   16.64555550  107.86699677    0.07000000    0.05000000
   16.64888954  105.20500183    0.07000000    0.05000000
   16.65194321  103.13800049    0.07000000    0.05000000
   16.65527725  108.58599854    0.07000000    0.05000000
   16.65861130   97.39739990    0.07000000    0.05000000
   16.66055489  106.08100128    0.07000000    0.05000000
   16.66194344   98.90830231    0.07000000    0.05000000
   16.66527748  109.88200378    0.07000000    0.05000000
   16.66860962  113.29399872    0.07000000    0.05000000
   16.67194366  113.06400299    0.07000000    0.05000000
   16.67499924  108.45400238    0.07000000    0.05000000
   16.68083191  108.45400238    0.07000000    0.05000000
   16.68499947   98.18740082    0.07000000    0.05000000
   16.68805504  106.27400208    0.07000000    0.05000000
   16.69138718  110.71800232    0.07000000    0.05000000
   16.69388771   99.23210144    0.07000000    0.05000000
   16.69499969  104.16400146    0.07000000    0.05000000
   16.69833183  105.77899933    0.07000000    0.05000000
   16.70166779  100.80699921    0.07000000    0.05000000
   16.70472336  100.53299713    0.07000000    0.05000000
   16.70805550  106.96399689    0.07000000    0.05000000
   16.71111107   98.90229797    0.07000000    0.05000000
   16.71444511  104.70500183    0.07000000    0.05000000
   16.71777916  103.19000244    0.07000000    0.05000000
   16.72361183  103.19000244    0.07000000    0.05000000
   16.72777748  106.84400177    0.07000000    0.05000000
   16.73083305  110.01899719    0.07000000    0.05000000
   16.73416710  107.48300171    0.07000000    0.05000000
   16.73750114   99.93599701    0.07000000    0.05000000
   16.74055672  103.30899811    0.07000000    0.05000000
   16.74388885  100.21900177    0.07000000    0.05000000
   16.74722290  102.11100006    0.07000000    0.05000000
   16.75027847  101.48300171    0.07000000    0.05000000
   16.75361061  102.76100159    0.07000000    0.05000000
   16.75694466  109.10800171    0.07000000    0.05000000
   16.76000023  104.29299927    0.07000000    0.05000000
   16.76055527  104.01899719    0.07000000    0.05000000
   16.76638794  104.01899719    0.07000000    0.05000000
   16.77055550  101.03800201    0.07000000    0.05000000
   16.77388954  103.07599640    0.07000000    0.05000000
   16.77694511  107.36499786    0.07000000    0.05000000
   16.78027725  109.55400085    0.07000000    0.05000000
   16.78361130  108.91899872    0.07000000    0.05000000
   16.78666687  106.14099884    0.07000000    0.05000000
   16.78999901  101.48400116    0.07000000    0.05000000
   16.79305458  104.78800201    0.07000000    0.05000000
   16.79388809  107.13800049    0.07000000    0.05000000
   16.79694366   99.59709930    0.07000000    0.05000000
   16.79999924  100.34999847    0.07000000    0.05000000
   16.80333328   99.29910278    0.07000000    0.05000000
   16.80916595   99.29910278    0.07000000    0.05000000
   16.81333351  103.43900299    0.07000000    0.05000000
   16.81666756  101.75800323    0.07000000    0.05000000
   16.82000160  102.91300201    0.07000000    0.05000000
   16.82305717   99.26329803    0.07000000    0.05000000
   16.82638931  106.84500122    0.07000000    0.05000000
   16.82722282  105.05799866    0.07000000    0.05000000
   16.83000183  105.13400269    0.07000000    0.05000000
   16.83333397  102.77999878    0.07000000    0.05000000
   16.83638954   99.45140076    0.07000000    0.05000000
   16.83972359  105.92500305    0.07000000    0.05000000
   16.84305573  105.37599945    0.07000000    0.05000000
   16.84611130  100.60700226    0.07000000    0.05000000
   16.85222244  100.60700226    0.07000000    0.05000000
   16.85639000  101.39199829    0.07000000    0.05000000
   16.85944557  105.58799744    0.07000000    0.05000000
   16.86055565  104.81500244    0.07000000    0.05000000
   16.86305618  107.74500275    0.07000000    0.05000000
   16.86638832  102.30300140    0.07000000    0.05000000
   16.86944389  105.63899994    0.07000000    0.05000000
   16.87277794  102.50299835    0.07000000    0.05000000
   16.87583351  104.71499634    0.07000000    0.05000000
   16.87916756   99.01830292    0.07000000    0.05000000
   16.88249969  102.80999756    0.07000000    0.05000000
   16.88555527   98.04019928    0.07000000    0.05000000
   16.88888931  102.83799744    0.07000000    0.05000000
   16.89500046  102.83799744    0.07000000    0.05000000
   16.89916611   99.62870026    0.07000000    0.05000000
   16.90250015  105.69999695    0.07000000    0.05000000
   16.90555573  109.51200104    0.07000000    0.05000000
   16.90888786  101.18099976    0.07000000    0.05000000
   16.91194344  103.16699982    0.07000000    0.05000000
   16.91527748  103.03900146    0.07000000    0.05000000
   16.91860962  104.58200073    0.07000000    0.05000000
   16.92166519  102.38300323    0.07000000    0.05000000
   16.92499924  103.68000031    0.07000000    0.05000000
   16.92722130  104.41400146    0.07000000    0.05000000
   16.92860985  105.84300232    0.07000000    0.05000000
   16.93166542  103.06600189    0.07000000    0.05000000
   16.93777657  103.06600189    0.07000000    0.05000000
   16.94194412  104.01699829    0.07000000    0.05000000
   16.94527626  102.54399872    0.07000000    0.05000000
   16.94833183  102.56099701    0.07000000    0.05000000
   16.95166779  103.28500366    0.07000000    0.05000000
   16.95499992  108.86900330    0.07000000    0.05000000
   16.95805550  104.83000183    0.07000000    0.05000000
   16.96055603  105.19699860    0.07000000    0.05000000
   16.96166801  100.95800018    0.07000000    0.05000000
   16.96500015  103.47699738    0.07000000    0.05000000
   16.96805573  105.56800079    0.07000000    0.05000000
   16.97138977  102.26100159    0.07000000    0.05000000
   16.97444534  105.21800232    0.07000000    0.05000000
   16.98055649  105.21800232    0.07000000    0.05000000
   16.98472214  110.25099945    0.07000000    0.05000000
   16.98805618   99.94329834    0.07000000    0.05000000
   16.99138832  105.21600342    0.07000000    0.05000000
   16.99388885  102.51699829    0.07000000    0.05000000
   16.99500084  107.71499634    0.07000000    0.05000000
   16.99833298  107.84600067    0.07000000    0.05000000
   17.00138855  103.78199768    0.07000000    0.05000000
   17.00472260  106.63300323    0.07000000    0.05000000
   17.00805473  103.52999878    0.07000000    0.05000000
   17.01111031  101.78399658    0.07000000    0.05000000
   17.01444435  108.33000183    0.07000000    0.05000000
   17.01749992  103.42600250    0.07000000    0.05000000
   17.02361107  103.42600250    0.07000000    0.05000000
   17.02777672  110.62699890    0.07000000    0.05000000
   17.03083229  104.93099976    0.07000000    0.05000000
   17.03416634  100.42299652    0.07000000    0.05000000
   17.03750038  104.63800049    0.07000000    0.05000000
   17.04055595  104.85399628    0.07000000    0.05000000
   17.04388809  105.80999756    0.07000000    0.05000000
   17.04694366  110.62999725    0.07000000    0.05000000
   17.05027771  107.09400177    0.07000000    0.05000000
   17.05360985  105.92500305    0.07000000    0.05000000
   17.05666542  105.31999969    0.07000000    0.05000000
   17.06027794  108.10900116    0.07000000    0.05000000
   17.06083298  106.60199738    0.07000000    0.05000000
   17.06638718  106.60199738    0.07000000    0.05000000
   17.07055664  106.48000336    0.07000000    0.05000000
   17.07389069  103.51899719    0.07000000    0.05000000
   17.07694626  104.78800201    0.07000000    0.05000000
   17.08027840  105.06999969    0.07000000    0.05000000
   17.08333397  104.27799988    0.07000000    0.05000000
   17.08666801  104.56900024    0.07000000    0.05000000
   17.09000015  108.83399963    0.07000000    0.05000000
   17.09305573  109.15299988    0.07000000    0.05000000
   17.09416771  106.50499725    0.07000000    0.05000000
   17.09694481  105.06900024    0.07000000    0.05000000
   17.10000038  108.97299957    0.07000000    0.05000000
   17.10333443  106.80500031    0.07000000    0.05000000
   17.10916710  106.80500031    0.07000000    0.05000000
   17.11333466  103.84500122    0.07000000    0.05000000
   17.11666679  109.56099701    0.07000000    0.05000000
   17.11972237  103.61499786    0.07000000    0.05000000
   17.12305641  105.55799866    0.07000000    0.05000000
   17.12638855  102.65000153    0.07000000    0.05000000
   17.12750053  102.97499847    0.07000000    0.05000000
   17.13000107  105.97200012    0.07000000    0.05000000
   17.13305473  104.90899658    0.07000000    0.05000000
   17.13638878  106.32800293    0.07000000    0.05000000
   17.13972282  106.04100037    0.07000000    0.05000000
   17.14277840  101.18399811    0.07000000    0.05000000
   17.14611053  105.95200348    0.07000000    0.05000000
   17.15222168  105.95200348    0.07000000    0.05000000
   17.15638924  104.54000092    0.07000000    0.05000000
   17.15944481  103.33399963    0.07000000    0.05000000
   17.16083336  104.48600006    0.07000000    0.05000000
   17.16305542  107.77500153    0.07000000    0.05000000
   17.16611099  103.99099731    0.07000000    0.05000000
   17.16944313  101.93499756    0.07000000    0.05000000
   17.17277718  105.24500275    0.07000000    0.05000000
   17.17583275  106.12699890    0.07000000    0.05000000
   17.17916679  101.76100159    0.07000000    0.05000000
   17.18249893  105.12000275    0.07000000    0.05000000
   17.18555450  102.69499969    0.07000000    0.05000000
   17.18888855  104.10099792    0.07000000    0.05000000
   17.19499969  104.10099792    0.07000000    0.05000000
   17.19916534  108.35500336    0.07000000    0.05000000
   17.20222282  107.79199982    0.07000000    0.05000000
   17.20555687  105.12799835    0.07000000    0.05000000
   17.20888901  113.60399628    0.07000000    0.05000000
   17.21194458  111.01799774    0.07000000    0.05000000
   17.21527863  107.60099792    0.07000000    0.05000000
   17.21861076  108.93499756    0.07000000    0.05000000
   17.22166634  114.91000366    0.07000000    0.05000000
   17.22500038  109.18099976    0.07000000    0.05000000
   17.22750092  103.69400024    0.07000000    0.05000000
   17.22861099  107.01200104    0.07000000    0.05000000
   17.23166656  104.31800079    0.07000000    0.05000000
   17.23777771  104.31800079    0.07000000    0.05000000
   17.24194527  104.94000244    0.07000000    0.05000000
   17.24527740  103.69999695    0.07000000    0.05000000
   17.24833298  106.55999756    0.07000000    0.05000000
   17.25166702   99.38150024    0.07000000    0.05000000
   17.25472260  103.83799744    0.07000000    0.05000000
   17.25805473  104.99800110    0.07000000    0.05000000
   17.26083374  105.79900360    0.07000000    0.05000000
   17.26194382  103.81400299    0.07000000    0.05000000
   17.26499939  104.68800354    0.07000000    0.05000000
   17.26833344  102.81900024    0.07000000    0.05000000
   17.27166557  109.00599670    0.07000000    0.05000000
   17.27472115  109.49600220    0.07000000    0.05000000
   17.28055573  109.49600220    0.07000000    0.05000000
   17.28472137  107.28199768    0.07000000    0.05000000
   17.28805542  109.79100037    0.07000000    0.05000000
   17.29111099  110.95999908    0.07000000    0.05000000
   17.29416656  118.03299713    0.07000000    0.05000000
   17.29500008  114.87400055    0.07000000    0.05000000
   17.29805565  117.54799652    0.07000000    0.05000000
   17.30138779  126.72899628    0.07000000    0.05000000
   17.30472183  136.43600464    0.07000000    0.05000000
   17.30777740  142.08500671    0.07000000    0.05000000
   17.31110954  146.43299866    0.07000000    0.05000000
   17.31444359  163.00599670    0.07000000    0.05000000
   17.31750107  141.98100281    0.07000000    0.05000000
   17.32333374  141.98100281    0.07000000    0.05000000
   17.32750130  131.59800720    0.07000000    0.05000000
   17.33083344  125.91999817    0.07000000    0.05000000
   17.33416748  126.03700256    0.07000000    0.05000000
   17.33722305  123.64399719    0.07000000    0.05000000
   17.34055710  107.68000031    0.07000000    0.05000000
   17.34388924  107.05300140    0.07000000    0.05000000
   17.34694481  104.21900177    0.07000000    0.05000000
   17.35027885  104.80699921    0.07000000    0.05000000
   17.35361099  115.74800110    0.07000000    0.05000000
   17.35666656  106.83000183    0.07000000    0.05000000
   17.36000061  107.48000336    0.07000000    0.05000000
   17.36083412  107.01100159    0.07000000    0.05000000
   17.36638832  107.01100159    0.07000000    0.05000000
   17.37055588  110.05000305    0.07000000    0.05000000
   17.37361145  106.76499939    0.07000000    0.05000000
   17.37694550  106.08100128    0.07000000    0.05000000
   17.38027763  101.49500275    0.07000000    0.05000000
   17.38333321  103.36299896    0.07000000    0.05000000
   17.38666725  106.61900330    0.07000000    0.05000000
   17.38972282  108.83999634    0.07000000    0.05000000
   17.39305496  104.64600372    0.07000000    0.05000000
   17.39416695  104.41600037    0.07000000    0.05000000
   17.39666748  108.48100281    0.07000000    0.05000000
   17.39972115  104.08300018    0.07000000    0.05000000
   17.40305519  107.90100098    0.07000000    0.05000000
   17.40916634  107.90100098    0.07000000    0.05000000
   17.41333389  106.88300323    0.07000000    0.05000000
   17.41666603  106.39800262    0.07000000    0.05000000
   17.41972160  107.02600098    0.07000000    0.05000000
   17.43722153  110.07800293    0.07000000    0.05000000
   17.43972206  106.94699860    0.07000000    0.05000000
   17.44305420  110.75599670    0.07000000    0.05000000
   17.44610977  107.06199646    0.07000000    0.05000000
   17.45222282  107.06199646    0.07000000    0.05000000
   17.45639038  103.77799988    0.07000000    0.05000000
   17.45944595  111.30699921    0.07000000    0.05000000
   17.46277809  109.43599701    0.07000000    0.05000000
   17.46611214  111.01999664    0.07000000    0.05000000
   17.46916771  103.39800262    0.07000000    0.05000000
   17.47055626  107.58599854    0.07000000    0.05000000
   17.47277832  104.82599640    0.07000000    0.05000000
   17.47583389  106.29900360    0.07000000    0.05000000
   17.47916794  104.55400085    0.07000000    0.05000000
   17.48250008  106.53900146    0.07000000    0.05000000
   17.48555565  104.51200104    0.07000000    0.05000000
   17.48888969  110.98500061    0.07000000    0.05000000
   17.49500084  110.98500061    0.07000000    0.05000000
   17.49916649  107.50800323    0.07000000    0.05000000
   17.50250053  109.05100250    0.07000000    0.05000000
   17.50388908  103.31500244    0.07000000    0.05000000
   17.50611115  107.71099854    0.07000000    0.05000000
   17.50916672  109.06600189    0.07000000    0.05000000
   17.51250076  107.11499786    0.07000000    0.05000000
   17.51583290  107.73000336    0.07000000    0.05000000
   17.51888847  106.35700226    0.07000000    0.05000000
   17.52222252  109.07599640    0.07000000    0.05000000
   17.52555466  105.44400024    0.07000000    0.05000000
   17.52888870  106.69699860    0.07000000    0.05000000
   17.53194427  103.77100372    0.07000000    0.05000000
   17.53777695  103.77100372    0.07000000    0.05000000
   17.54194450  106.64499664    0.07000000    0.05000000
   17.54527664  102.98899841    0.07000000    0.05000000
   17.54833221  104.76300049    0.07000000    0.05000000
   17.55166626  109.90399933    0.07000000    0.05000000
   17.55499840  106.23000336    0.07000000    0.05000000
   17.55805397  109.30300140    0.07000000    0.05000000
   17.56138802  109.33899689    0.07000000    0.05000000
   17.56472206  108.16100311    0.07000000    0.05000000
   17.56777954  104.54900360    0.07000000    0.05000000
   17.57055664  109.84899902    0.07000000    0.05000000
   17.57139015  116.13800049    0.07000000    0.05000000
   17.57444572  107.03099823    0.07000000    0.05000000
   17.58083344  107.03099823    0.07000000    0.05000000
   17.58472252  105.55100250    0.07000000    0.05000000
   17.58805656  105.11900330    0.07000000    0.05000000
   17.59138870  112.05999756    0.07000000    0.05000000
   17.59472275  104.45899963    0.07000000    0.05000000
   17.59777832  103.59200287    0.07000000    0.05000000
   17.60111237  100.61000061    0.07000000    0.05000000
   17.60416794   99.36810303    0.07000000    0.05000000
   17.60499954  103.26100159    0.07000000    0.05000000
   17.60805511  103.42099762    0.07000000    0.05000000
   17.61138916  108.70700073    0.07000000    0.05000000
   17.61472321  107.70700073    0.07000000    0.05000000
   17.61777878  111.78299713    0.07000000    0.05000000
   17.62361145  111.78299713    0.07000000    0.05000000
   17.62777710  106.42700195    0.07000000    0.05000000
   17.63083267  112.60399628    0.07000000    0.05000000
   17.63416672  109.87200165    0.07000000    0.05000000
   17.63722229  111.76799774    0.07000000    0.05000000
   17.63777733  103.93800354    0.07000000    0.05000000
   17.64111137  109.60399628    0.07000000    0.05000000
   17.64416695  111.83799744    0.07000000    0.05000000
   17.64749908  112.80999756    0.07000000    0.05000000
   17.65055466  110.02200317    0.07000000    0.05000000
   17.65388870  103.50099945    0.07000000    0.05000000
   17.65722275  102.68599701    0.07000000    0.05000000
   17.66027832  106.15100098    0.07000000    0.05000000
   17.66638756  106.15100098    0.07000000    0.05000000
   17.67055511  116.94000244    0.07000000    0.05000000
   17.67111015  115.30899811    0.07000000    0.05000000
   17.67416573  116.55799866    0.07000000    0.05000000
   17.67749977  112.53299713    0.07000000    0.05000000
   17.68083191  103.46199799    0.07000000    0.05000000
   17.68388748  109.48600006    0.07000000    0.05000000
   17.68722153  108.96299744    0.07000000    0.05000000
   17.69055557  106.39600372    0.07000000    0.05000000
   17.69361115  109.55100250    0.07000000    0.05000000
   17.69694328  105.49299622    0.07000000    0.05000000
   17.70027924  119.63099670    0.07000000    0.05000000
   17.70333481  114.19999695    0.07000000    0.05000000
   17.70444489  106.39399719    0.07000000    0.05000000
   17.70916748  106.39399719    0.07000000    0.05000000
   17.71333504  105.62100220    0.07000000    0.05000000
   17.71666718  110.19799805    0.07000000    0.05000000
   17.71972275  106.47899628    0.07000000    0.05000000
   17.72305679  106.66200256    0.07000000    0.05000000
   17.72638893  107.46399689    0.07000000    0.05000000
   17.72944450  103.56600189    0.07000000    0.05000000
   17.73277855  104.33699799    0.07000000    0.05000000
   17.73611069  106.22299957    0.07000000    0.05000000
   17.73777771  107.29799652    0.07000000    0.05000000
   17.73944473  101.59200287    0.07000000    0.05000000
   17.74277878  105.32399750    0.07000000    0.05000000
   17.74611092  106.31900024    0.07000000    0.05000000
   17.75222206  106.31900024    0.07000000    0.05000000
   17.75611115  105.63999939    0.07000000    0.05000000
   17.75944519  102.95300293    0.07000000    0.05000000
   17.76277733  108.17400360    0.07000000    0.05000000
   17.76583290  106.72399902    0.07000000    0.05000000
   17.76916695  107.02999878    0.07000000    0.05000000
   17.77111053  103.30200195    0.07000000    0.05000000
   17.77249908  106.68199921    0.07000000    0.05000000
   17.77583313  104.38899994    0.07000000    0.05000000
   17.77916718  107.45800018    0.07000000    0.05000000
   17.78222275  105.18900299    0.07000000    0.05000000
   17.78555489  110.03299713    0.07000000    0.05000000
   17.78888893  105.82099915    0.07000000    0.05000000
   17.79500008  105.82099915    0.07000000    0.05000000
   17.79916573  107.31600189    0.07000000    0.05000000
   17.80222130  104.00099945    0.07000000    0.05000000
   17.80444336  105.35900116    0.07000000    0.05000000
   17.80611038  105.12300110    0.07000000    0.05000000
   17.80916595  104.20200348    0.07000000    0.05000000
   17.81250000  107.86199951    0.07000000    0.05000000
   17.81555557  109.13800049    0.07000000    0.05000000
   17.81888962   99.57869720    0.07000000    0.05000000
   17.82222366  104.00499725    0.07000000    0.05000000
   17.82527924  103.75399780    0.07000000    0.05000000
   17.82861137  103.05200195    0.07000000    0.05000000
   17.83194542  104.79499817    0.07000000    0.05000000
   17.83777809  104.79499817    0.07000000    0.05000000
   17.84194565  106.52300262    0.07000000    0.05000000
   17.84527779  102.55400085    0.07000000    0.05000000
   17.84833336  103.79000092    0.07000000    0.05000000
   17.85166740  107.35900116    0.07000000    0.05000000
   17.85472298  106.37999725    0.07000000    0.05000000
   17.85805511  110.97299957    0.07000000    0.05000000
   17.86138916  108.68399811    0.07000000    0.05000000
   17.86472321  103.58899689    0.07000000    0.05000000
   17.86777878  105.47799683    0.07000000    0.05000000
   17.87111092  106.77300262    0.07000000    0.05000000
   17.87166595  108.75800323    0.07000000    0.05000000
   17.87472153  111.92600250    0.07000000    0.05000000
   17.88055611  111.92600250    0.07000000    0.05000000
   17.88472176  109.54499817    0.07000000    0.05000000
   17.88805580  110.14700317    0.07000000    0.05000000
   17.89111137  111.28700256    0.07000000    0.05000000
   17.89444351  106.37100220    0.07000000    0.05000000
   17.89777756  107.23300171    0.07000000    0.05000000
   17.90083313  112.89600372    0.07000000    0.05000000
   17.90416718  107.05100250    0.07000000    0.05000000
   17.90472221  105.24500275    0.07000000    0.05000000
   17.90777779  104.31500244    0.07000000    0.05000000
   17.91110992  104.65299988    0.07000000    0.05000000
   17.91444397  108.45099640    0.07000000    0.05000000
   17.91749954  107.41000366    0.07000000    0.05000000
   17.92333221  107.41000366    0.07000000    0.05000000
   17.92749977  107.14499664    0.07000000    0.05000000
   17.93083191  102.68199921    0.07000000    0.05000000
   17.93416595  103.24800110    0.07000000    0.05000000
   17.93722153  104.29499817    0.07000000    0.05000000
   17.93805504  102.13800049    0.07000000    0.05000000
   17.94111061  102.99600220    0.07000000    0.05000000
   17.94416618  106.63099670    0.07000000    0.05000000
   17.94749832  104.92800140    0.07000000    0.05000000
   17.95083427  106.09999847    0.07000000    0.05000000
   17.95388985  101.66000366    0.07000000    0.05000000
   17.95722389  105.70700073    0.07000000    0.05000000
   17.96027946  108.81500244    0.07000000    0.05000000
   17.96638870  108.81500244    0.07000000    0.05000000
   17.97055626  103.48999786    0.07000000    0.05000000
   17.97138977  105.78399658    0.07000000    0.05000000
   17.97389030  106.95800018    0.07000000    0.05000000
   17.97722244  105.33000183    0.07000000    0.05000000
   17.98055649   99.72360229    0.07000000    0.05000000
   17.98361206  100.91000366    0.07000000    0.05000000
   17.98694420  101.75199890    0.07000000    0.05000000
   17.99027824  106.50499725    0.07000000    0.05000000
   17.99333382  102.07299805    0.07000000    0.05000000
   17.99666786  104.63400269    0.07000000    0.05000000
   17.99972153  103.48699951    0.07000000    0.05000000
   18.00305557  104.19799805    0.07000000    0.05000000
   18.00472260  105.14099884    0.07000000    0.05000000
   18.00916672  105.14099884    0.07000000    0.05000000
   18.01333427  200.52200317    0.07000000    0.05000000
   18.01666641  104.54799652    0.07000000    0.05000000
   18.01972198  101.19699860    0.07000000    0.05000000
   18.02305603  101.80699921    0.07000000    0.05000000
   18.02638817  104.53900146    0.07000000    0.05000000
   18.02972221  111.16300201    0.07000000    0.05000000
   18.03277779  107.55799866    0.07000000    0.05000000
   18.03610992  106.58200073    0.07000000    0.05000000
   18.03805542  106.57399750    0.07000000    0.05000000
   18.03972244  107.57299805    0.07000000    0.05000000
   18.04277802  113.46700287    0.07000000    0.05000000
   18.04611015  108.93099976    0.07000000    0.05000000
   18.05194283  108.93099976    0.07000000    0.05000000
   18.05611038  104.17800140    0.07000000    0.05000000
   18.05944443  106.72699738    0.07000000    0.05000000
   18.06250000  107.82800293    0.07000000    0.05000000
   18.06583214  103.64199829    0.07000000    0.05000000
   18.06916809  103.47299957    0.07000000    0.05000000
   18.07139015  101.66200256    0.07000000    0.05000000
   18.07277870  105.04599762    0.07000000    0.05000000
   18.07583427  100.40499878    0.07000000    0.05000000
   18.07916832  105.39800262    0.07000000    0.05000000
   18.08277893  102.50000000    0.07000000    0.05000000
   18.08611107  106.62300110    0.07000000    0.05000000
   18.08916664  101.62999725    0.07000000    0.05000000
   18.09500122  101.62999725    0.07000000    0.05000000
   18.09916687  106.39299774    0.07000000    0.05000000
   18.10222244  100.13700104    0.07000000    0.05000000
   18.10472298  103.26100159    0.07000000    0.05000000
   18.10611153  104.16999817    0.07000000    0.05000000
   18.10916710  102.55799866    0.07000000    0.05000000
   18.11250114  105.33799744    0.07000000    0.05000000
   18.11583328  106.00199890    0.07000000    0.05000000
   18.11888885  107.56400299    0.07000000    0.05000000
   18.12222290  107.48600006    0.07000000    0.05000000
   18.12555504  104.83000183    0.07000000    0.05000000
   18.12861061  109.78399658    0.07000000    0.05000000
   18.13194466   98.40429688    0.07000000    0.05000000
   18.13777733   98.40429688    0.07000000    0.05000000
   18.14194489  107.70999908    0.07000000    0.05000000
   18.14527702  100.74400330    0.07000000    0.05000000
   18.14833260  104.26000214    0.07000000    0.05000000
   18.15166664  105.34500122    0.07000000    0.05000000
   18.15499878  101.25700378    0.07000000    0.05000000
   18.15805435  102.27400208    0.07000000    0.05000000
   18.16138840  105.87400055    0.07000000    0.05000000
   18.16472244  105.41899872    0.07000000    0.05000000
   18.16777802  108.43599701    0.07000000    0.05000000
   18.17111015  102.91300201    0.07000000    0.05000000
   18.17277718  103.41999817    0.07000000    0.05000000
   18.17472076  103.95999908    0.07000000    0.05000000
   18.18055534  103.95999908    0.07000000    0.05000000
   18.18472099  106.54399872    0.07000000    0.05000000
   18.18805504  106.04000092    0.07000000    0.05000000
   18.19138718  105.84300232    0.07000000    0.05000000
   18.19472122  107.18099976    0.07000000    0.05000000
   18.19777679  106.55300140    0.07000000    0.05000000
   18.20111275  104.59300232    0.07000000    0.05000000
   18.20416832  108.17700195    0.07000000    0.05000000
   18.20611191  104.39499664    0.07000000    0.05000000
   18.20777893  105.53700256    0.07000000    0.05000000
   18.21111107  102.23699951    0.07000000    0.05000000
   18.21416664  105.40799713    0.07000000    0.05000000
   18.21750069  104.80100250    0.07000000    0.05000000
   18.22361183  104.80100250    0.07000000    0.05000000
   18.22777748  102.85099792    0.07000000    0.05000000
   18.23083305  105.52799988    0.07000000    0.05000000
   18.23416710  101.65499878    0.07000000    0.05000000
   18.23722267  102.65599823    0.07000000    0.05000000
   18.23972321  101.85500336    0.07000000    0.05000000
   18.24083328  103.22699738    0.07000000    0.05000000
   18.24416733  101.77500153    0.07000000    0.05000000
   18.24749947  107.95899963    0.07000000    0.05000000
   18.25055504  105.66699982    0.07000000    0.05000000
   18.25388908  103.60800171    0.07000000    0.05000000
   18.25722313  100.66500092    0.07000000    0.05000000
   18.26027870  106.87699890    0.07000000    0.05000000
   18.26638794  106.87699890    0.07000000    0.05000000
   18.27055550  104.53399658    0.07000000    0.05000000
   18.27305603  106.44599915    0.07000000    0.05000000
   18.27388954  105.16600037    0.07000000    0.05000000
   18.27722168  106.46099854    0.07000000    0.05000000
   18.28055573  101.66699982    0.07000000    0.05000000
   18.28361130  105.87699890    0.07000000    0.05000000
   18.28694344  100.13800049    0.07000000    0.05000000
   18.29027748  104.79499817    0.07000000    0.05000000
   18.29333305  104.57199860    0.07000000    0.05000000
   18.29666710  100.14800262    0.07000000    0.05000000
   18.29972076  102.66500092    0.07000000    0.05000000
   18.30305481  104.53900146    0.07000000    0.05000000
   18.30916595  104.53900146    0.07000000    0.05000000
   18.31333351  107.50800323    0.07000000    0.05000000
   18.31638718  100.25199890    0.07000000    0.05000000
   18.31972313  103.41000366    0.07000000    0.05000000
   18.32305717  102.49800110    0.07000000    0.05000000
   18.32611275  101.57499695    0.07000000    0.05000000
   18.32944489  105.36000061    0.07000000    0.05000000
   18.33277893  105.85800171    0.07000000    0.05000000
   18.33583450  105.45300293    0.07000000    0.05000000
   18.33916664  110.73100281    0.07000000    0.05000000
   18.34000015  105.40799713    0.07000000    0.05000000
   18.34277916  105.85500336    0.07000000    0.05000000
   18.34583473  104.13200378    0.07000000    0.05000000
   18.35194397  104.13200378    0.07000000    0.05000000
   18.35611153  106.11900330    0.07000000    0.05000000
   18.35944557  104.29599762    0.07000000    0.05000000
   18.36277771  102.23999786    0.07000000    0.05000000
   18.36583328  104.58899689    0.07000000    0.05000000
   18.36916733  103.45099640    0.07000000    0.05000000
   18.37249947  103.67900085    0.07000000    0.05000000
   18.37333298  102.91400146    0.07000000    0.05000000
   18.37611198  103.44699860    0.07000000    0.05000000
   18.37916756  102.79299927    0.07000000    0.05000000
   18.38249969  100.60099792    0.07000000    0.05000000
   18.38583374  100.75199890    0.07000000    0.05000000
   18.38888931  100.44000244    0.07000000    0.05000000
   18.39472198  100.44000244    0.07000000    0.05000000
   18.39888954  102.97799683    0.07000000    0.05000000
   18.40222168  103.36100006    0.07000000    0.05000000
   18.40527725   99.65299988    0.07000000    0.05000000
   18.40694427  102.62699890    0.07000000    0.05000000
   18.40888786  101.36199951    0.07000000    0.05000000
   18.41222191  102.05500031    0.07000000    0.05000000
   18.41555595  105.66600037    0.07000000    0.05000000
   18.41860962  104.42700195    0.07000000    0.05000000
   18.42194366  101.13899994    0.07000000    0.05000000
   18.42527771  102.05300140    0.07000000    0.05000000
   18.42833328  105.39199829    0.07000000    0.05000000
   18.43166542  104.33399963    0.07000000    0.05000000
   18.43777657  104.33399963    0.07000000    0.05000000
   18.45611191  105.09500122    0.07000000    0.05000000
   18.45916748  106.43199921    0.07000000    0.05000000
   18.46250153  104.81800079    0.07000000    0.05000000
   18.46583366  101.88899994    0.07000000    0.05000000
   18.46888924  102.00000000    0.07000000    0.05000000
   18.47222328  103.07099915    0.07000000    0.05000000
   18.47555542  106.22699738    0.07000000    0.05000000
   18.48083305  106.22699738    0.07000000    0.05000000
   18.48472214  104.16400146    0.07000000    0.05000000
   18.48805618  104.35800171    0.07000000    0.05000000
   18.48916626  102.66600037    0.07000000    0.05000000
   18.49166679  108.13600159    0.07000000    0.05000000
   18.49500084  102.36199951    0.07000000    0.05000000
   18.49833298  106.47100067    0.07000000    0.05000000
   18.50138855  104.04499817    0.07000000    0.05000000
   18.50499916  104.30400085    0.07000000    0.05000000
   18.50833321  109.05000305    0.07000000    0.05000000
   18.51138878  103.97200012    0.07000000    0.05000000
   18.51472282  100.52200317    0.07000000    0.05000000
   18.51805496  104.94599915    0.07000000    0.05000000
   18.52361107  104.94599915    0.07000000    0.05000000
   18.52777672  103.57299805    0.07000000    0.05000000
   18.53083229  101.79900360    0.07000000    0.05000000
   18.53416634  102.14600372    0.07000000    0.05000000
   18.53750038  103.10099792    0.07000000    0.05000000
   18.54055595  107.25099945    0.07000000    0.05000000
   18.54388809  102.84400177    0.07000000    0.05000000
   18.54694366  106.40399933    0.07000000    0.05000000
   18.55027771  100.89900208    0.07000000    0.05000000
   18.55360985  108.27999878    0.07000000    0.05000000
   18.55583191  104.40100098    0.07000000    0.05000000
   18.55694389  103.14900208    0.07000000    0.05000000
   18.56027794  105.28900146    0.07000000    0.05000000
   18.56638718  105.28900146    0.07000000    0.05000000
   18.57055664  103.47599792    0.07000000    0.05000000
   18.57389069  102.13500214    0.07000000    0.05000000
   18.57694626  104.31400299    0.07000000    0.05000000
   18.58027840  104.64600372    0.07000000    0.05000000
   18.58361244  105.53900146    0.07000000    0.05000000
   18.58666801  103.95899963    0.07000000    0.05000000
   18.58916664  103.28900146    0.07000000    0.05000000
   18.59027863  106.66000366    0.07000000    0.05000000
   18.59361267  103.86199951    0.07000000    0.05000000
   18.59694481  107.65499878    0.07000000    0.05000000
   18.60000038  103.04599762    0.07000000    0.05000000
   18.60333443  104.11799622    0.07000000    0.05000000
   18.60916710  104.11799622    0.07000000    0.05000000
   18.61333466  105.18900299    0.07000000    0.05000000
   18.61666679  108.48699951    0.07000000    0.05000000
   18.62000084  102.83499908    0.07000000    0.05000000
   18.62249947  105.76699829    0.07000000    0.05000000
   18.62333298  107.84899902    0.07000000    0.05000000
   18.62805557  105.27799988    0.07000000    0.05000000
   18.63138962  106.72100067    0.07000000    0.05000000
   18.63472176  102.26999664    0.07000000    0.05000000
   18.63777733  104.18199921    0.07000000    0.05000000
   18.64111137  105.45700073    0.07000000    0.05000000
   18.64444351  106.66699982    0.07000000    0.05000000
   18.64749908  105.75000000    0.07000000    0.05000000
   18.65250015  105.75000000    0.07000000    0.05000000
   18.65666580  106.20800018    0.07000000    0.05000000
   18.65999985  103.67099762    0.07000000    0.05000000
   18.66305542  104.10299683    0.07000000    0.05000000
   18.66638756  106.08599854    0.07000000    0.05000000
   18.66944313  104.61199951    0.07000000    0.05000000
   18.67277718  103.85199738    0.07000000    0.05000000
   18.67611122  104.58799744    0.07000000    0.05000000
   18.67916679  102.86199951    0.07000000    0.05000000
   18.68249893  106.02899933    0.07000000    0.05000000
   18.68583298  106.52899933    0.07000000    0.05000000
   18.68888855  104.79799652    0.07000000    0.05000000
   18.68944359  105.38600159    0.07000000    0.05000000
   18.69527626  105.38600159    0.07000000    0.05000000
   18.69944382  106.06400299    0.07000000    0.05000000
   18.70277786  109.17700195    0.07000000    0.05000000
   18.70583344  104.36599731    0.07000000    0.05000000
   18.70916748  101.86699677    0.07000000    0.05000000
   18.71250153  105.73899841    0.07000000    0.05000000
   18.71583366  108.81300354    0.07000000    0.05000000
   18.71888924  103.56400299    0.07000000    0.05000000
   18.72222328  104.08000183    0.07000000    0.05000000
   18.72277832  108.12300110    0.07000000    0.05000000
   18.72583389  105.48500061    0.07000000    0.05000000
   18.72916794  105.44200134    0.07000000    0.05000000
   18.73222351  105.64600372    0.07000000    0.05000000
   18.73833275  105.64600372    0.07000000    0.05000000
   18.74222183  107.27999878    0.07000000    0.05000000
   18.74555588  108.50099945    0.07000000    0.05000000
   18.74888992  104.23000336    0.07000000    0.05000000
   18.75194359  102.22299957    0.07000000    0.05000000
   18.75527763  106.54799652    0.07000000    0.05000000
   18.75611115  104.80999756    0.07000000    0.05000000
   18.75888824  104.71099854    0.07000000    0.05000000
   18.76194382  104.61399841    0.07000000    0.05000000
   18.76527786  102.93399811    0.07000000    0.05000000
   18.76861000  103.52300262    0.07000000    0.05000000
   18.77166557  102.87899780    0.07000000    0.05000000
   18.77499962  107.46399689    0.07000000    0.05000000
   18.78111076  107.46399689    0.07000000    0.05000000
   18.78527641  102.26499939    0.07000000    0.05000000
   18.78833199  103.37599945    0.07000000    0.05000000
   18.78944397  105.69400024    0.07000000    0.05000000
   18.79222107  104.74900055    0.07000000    0.05000000
   18.79527664  104.90699768    0.07000000    0.05000000
   18.79861069  106.80400085    0.07000000    0.05000000
   18.80194283  104.17700195    0.07000000    0.05000000
   18.80499840  104.66400146    0.07000000    0.05000000
   18.80833244  103.69000244    0.07000000    0.05000000
   18.81166649  103.70600128    0.07000000    0.05000000
   18.81472206  110.55799866    0.07000000    0.05000000
   18.81805611  105.85600281    0.07000000    0.05000000
   18.82389069  105.85600281    0.07000000    0.05000000
   18.82805634  105.50499725    0.07000000    0.05000000
   18.83139038  105.67299652    0.07000000    0.05000000
   18.83472252  105.55500031    0.07000000    0.05000000
   18.83777809  105.56099701    0.07000000    0.05000000
   18.84111214  103.93099976    0.07000000    0.05000000
   18.84416771  106.88300323    0.07000000    0.05000000
   18.84749985  107.69499969    0.07000000    0.05000000
   18.85083389  105.31099701    0.07000000    0.05000000
   18.85388947  109.63300323    0.07000000    0.05000000
   18.85611153  114.49900055    0.07000000    0.05000000
   18.85750008  109.85500336    0.07000000    0.05000000
   18.86083412  110.50599670    0.07000000    0.05000000
   18.86694527  110.50599670    0.07000000    0.05000000
   18.87111092  108.86799622    0.07000000    0.05000000
   18.87416649  109.09300232    0.07000000    0.05000000
   18.87750053  105.97599792    0.07000000    0.05000000
   18.88083267  113.98500061    0.07000000    0.05000000
   18.88388824  102.15100098    0.07000000    0.05000000
   18.88722229  114.13200378    0.07000000    0.05000000
   18.88944435  107.12300110    0.07000000    0.05000000
   18.89083290  107.53800201    0.07000000    0.05000000
   18.89416695  112.90899658    0.07000000    0.05000000
   18.89749908  110.21900177    0.07000000    0.05000000
   18.90055466  114.62599945    0.07000000    0.05000000
   18.90388870  116.01899719    0.07000000    0.05000000
   18.90972137  116.01899719    0.07000000    0.05000000
   18.91388893  113.10099792    0.07000000    0.05000000
   18.91694450  112.81999969    0.07000000    0.05000000
   18.92027664  108.67500305    0.07000000    0.05000000
   18.92277718  112.47200012    0.07000000    0.05000000
   18.92388916  115.58399963    0.07000000    0.05000000
   18.92722130  113.20500183    0.07000000    0.05000000
   18.93027687  114.45700073    0.07000000    0.05000000
   18.93361092  114.84200287    0.07000000    0.05000000
   18.93694305  110.15699768    0.07000000    0.05000000
   18.93999863  118.89199829    0.07000000    0.05000000
   18.94333267  100.73300171    0.07000000    0.05000000
   18.94638824  107.17099762    0.07000000    0.05000000
   18.95250130  107.17099762    0.07000000    0.05000000
   18.95666695  105.35900116    0.07000000    0.05000000
   18.96000099  105.74900055    0.07000000    0.05000000
   18.96305656  111.21199799    0.07000000    0.05000000
   18.96638870  106.17199707    0.07000000    0.05000000
   18.96972275  110.91799927    0.07000000    0.05000000
   18.97277832  107.52899933    0.07000000    0.05000000
   18.97611237  105.62000275    0.07000000    0.05000000
   18.97916794  111.17900085    0.07000000    0.05000000
   18.98250008  113.42299652    0.07000000    0.05000000
   18.98555565  109.09700012    0.07000000    0.05000000
   18.98888969  112.84400177    0.07000000    0.05000000
   18.98944473  116.83599854    0.07000000    0.05000000
   18.99527740  116.83599854    0.07000000    0.05000000
   18.99944496  113.96700287    0.07000000    0.05000000
   19.00277710  111.87999725    0.07000000    0.05000000
   19.00583267  110.25000000    0.07000000    0.05000000
   19.00916672  111.26100159    0.07000000    0.05000000
   19.01222229  106.12500000    0.07000000    0.05000000
   19.01555634  104.86100006    0.07000000    0.05000000
   19.01888847  112.09600067    0.07000000    0.05000000
   19.02194405  112.66200256    0.07000000    0.05000000
   19.02277756  101.57700348    0.07000000    0.05000000
   19.02583313  108.83200073    0.07000000    0.05000000
   19.02888870  110.10700226    0.07000000    0.05000000
   19.03222275  107.66899872    0.07000000    0.05000000
   19.03805542  107.66899872    0.07000000    0.05000000
   19.04222107  108.36699677    0.07000000    0.05000000
   19.04555511  107.52999878    0.07000000    0.05000000
   19.04888916  107.04599762    0.07000000    0.05000000
   19.05194283  113.02700043    0.07000000    0.05000000
   19.05527687  108.96800232    0.07000000    0.05000000
   19.05611038  108.45999908    0.07000000    0.05000000
   19.05888748  107.45099640    0.07000000    0.05000000
   19.06194305  111.74800110    0.07000000    0.05000000
   19.06527710  112.97599792    0.07000000    0.05000000
   19.06861115  108.26899719    0.07000000    0.05000000
   19.07194519  113.28700256    0.07000000    0.05000000
   19.07500076  110.91400146    0.07000000    0.05000000
   19.08111191  110.91400146    0.07000000    0.05000000
   19.08527756  107.84899902    0.07000000    0.05000000
   19.08833313  104.61000061    0.07000000    0.05000000
   19.08944511  110.08699799    0.07000000    0.05000000
   19.09194565  109.90699768    0.07000000    0.05000000
   19.09527779  107.22299957    0.07000000    0.05000000
   19.09833336  110.07800293    0.07000000    0.05000000
   19.10166740  107.24199677    0.07000000    0.05000000
   19.10499954  104.31400299    0.07000000    0.05000000
   19.10805511  106.34300232    0.07000000    0.05000000
   19.11138916  104.32399750    0.07000000    0.05000000
   19.11444473  106.11499786    0.07000000    0.05000000
   19.11777878  127.48000336    0.07000000    0.05000000
   19.12388992  127.48000336    0.07000000    0.05000000
   19.12805557  108.16300201    0.07000000    0.05000000
   19.13111115  112.80999756    0.07000000    0.05000000
   19.13444519  110.46800232    0.07000000    0.05000000
   19.13777733  108.80300140    0.07000000    0.05000000
   19.14083290  107.18499756    0.07000000    0.05000000
   19.14416695  107.71199799    0.07000000    0.05000000
   19.14722252  113.29199982    0.07000000    0.05000000
   19.15055466  111.82499695    0.07000000    0.05000000
   19.15388870  109.93800354    0.07000000    0.05000000
   19.15611076  114.36299896    0.07000000    0.05000000
   19.15749931  108.24700165    0.07000000    0.05000000
   19.16055489  109.95899963    0.07000000    0.05000000
   19.16666603  109.95899963    0.07000000    0.05000000
   19.17083359  107.58100128    0.07000000    0.05000000
   19.17388916  110.94899750    0.07000000    0.05000000
   19.17722130  104.41600037    0.07000000    0.05000000
   19.18055534  105.97200012    0.07000000    0.05000000
   19.18361092  117.51499939    0.07000000    0.05000000
   19.18694305  116.21600342    0.07000000    0.05000000
   19.18944359  113.29699707    0.07000000    0.05000000
   19.19055557  120.03600311    0.07000000    0.05000000
   19.19361115  121.64700317    0.07000000    0.05000000
   19.19694328  117.92700195    0.07000000    0.05000000
