    HOUR (UT)   FLARE FACTOR    SKY TESTER    SUN TESTER
   11.75555515   -1.00000000   -1.00000000   -1.00000000
   11.79444504   89.88480377    0.09000000    0.17000000
   11.79750061   93.18969727    0.30000001    0.40000001
   11.80083370   97.12460327    2.46000004    0.73000002
   11.80416679   94.80190277    4.90999985    1.78999996
   11.80722237  100.14299774    4.90999985    1.75000000
   11.81055546   91.59850311    4.90999985    1.78999996
   11.81472206   91.59850311    4.90999985    1.78999996
   11.81861115   93.00279999    4.90999985    1.78999996
   11.82194424   99.66429901    4.90999985    1.78999996
   11.82527733  100.17500305    4.90999985    1.78999996
   11.82750034   97.12460327    4.90999985    1.78999996
   11.82888889   92.77339935    4.90999985    1.78999996
   11.83222198   91.49770355    4.90999985    1.78999996
   11.83527756   94.50640106    4.90999985    1.78999996
   11.83888817   95.99659729    4.90999985    1.78999996
   11.84222221   91.46130371    4.90999985    1.78999996
   11.84527779   93.86080170    4.90999985    1.78999996
   11.84861088   91.05049896    4.90999985    1.80999994
   11.85194492   86.90339661    4.90999985    1.83000004
   11.85750008   86.90339661    4.90999985    1.83000004
   11.86166668   90.27850342    4.90999985    1.83000004
   11.86472225  101.88999939    4.90999985    1.83000004
   11.86805534   95.54479980    4.90999985    1.83000004
   11.87138939   91.75810242    4.90999985    1.83000004
   11.87416649   86.19010162    4.90999985    1.83000004
   11.87750053   91.05639648    4.90999985    1.83000004
   11.88055611   98.31079865    4.90999985    1.83000004
   11.88388920   84.70220184    4.90999985    1.85000002
   11.88694477   91.88790131    4.90999985    1.85000002
   11.89027786   88.93750000    4.90999985    1.85000002
   11.89361095   89.90209961    4.90999985    1.85000002
   11.89388847   92.94550323    4.90999985    1.85000002
   11.89999962   92.94550323    4.90999985    1.85000002
   11.90416622   80.61669922    4.90999985    1.86000001
   11.90722179   89.07800293    4.90999985    1.86000001
   11.91055489   90.13169861    4.90999985    1.86000001
   11.91388893   86.07469940    4.90999985    1.86000001
   11.91694450   96.17890167    4.90999985    1.86000001
   11.92027855   95.84819794    4.90999985    1.86000001
   11.92333412   79.98380280    4.90999985    1.86000001
   11.92666721   91.11620331    4.90999985    1.88000000
   11.92722225   93.90899658    4.90999985    1.88000000
   11.93027782   93.77870178    4.90999985    1.88000000
   11.93361092   89.13590240    4.90999985    1.89999998
   11.93666649   90.11620331    4.90999985    1.88000000
   11.94277763   90.11620331    4.90999985    1.89999998
   11.94694424   98.04640198    4.90999985    1.89999998
   11.95027733   93.08850098    4.90999985    1.89999998
   11.95333290   88.93319702    4.90999985    1.89999998
   11.95694447   91.34580231    4.90999985    1.91999996
   11.96027756   88.00129700    4.90999985    1.91999996
   11.96111107   80.99130249    4.90999985    1.89999998
   11.96361065   91.02349854    4.90999985    1.91999996
   11.96694374   95.70249939    4.90999985    1.91999996
   11.97027779   87.33850098    4.90999985    1.91999996
   11.97333336   98.08959961    4.90999985    1.91999996
   11.97666645   90.87909698    4.90999985    1.91999996
   11.97972202   95.20839691    4.90999985    1.91999996
   11.98611164   95.20839691    4.90999985    1.91999996
   11.99000072   90.85130310    4.90999985    1.94000006
   11.99333382   86.13950348    4.90999985    1.94000006
   11.99444485   87.42060089    4.90999985    1.94000006
   11.99694443   90.76349640    4.90999985    1.94000006
   12.00027752   94.96910095    4.90999985    1.94000006
   12.00361156   86.42510223    4.90999985    1.96000004
   12.00666714   86.93769836    4.90999985    1.96000004
   12.01000023   82.24759674    4.90999985    1.96000004
   12.01333332   88.21199799    4.90999985    1.94000006
   12.01638889   85.59950256    4.90999985    1.94000006
   12.01972198   82.25270081    4.90999985    1.96000004
   12.02277756   84.02310181    4.90999985    1.94000006
   12.02888870   84.02310181    4.90999985    1.96000004
   12.03305531   83.11209869    4.90999985    1.96000004
   12.03611183   88.02359772    4.90999985    1.96000004
   12.03944492   77.86949921    4.90999985    1.98000002
   12.04277802   91.61579895    4.90999985    1.98000002
   12.04583359   77.39050293    4.90999985    1.98000002
   12.04916668   82.72329712    4.90999985    1.96000004
   12.05222225   84.67469788    4.90999985    1.98000002
   12.05555534   80.90010071    4.90999985    1.98000002
   12.05888939   79.79419708    4.90999985    1.98000002
   12.06111145   84.60520172    4.90999985    1.98000002
   12.06222248   79.21250153    4.90999985    1.98000002
   12.06555557   86.60910034    4.90999985    1.98000002
   12.07166672   86.60910034    4.90999985    2.00000000
   12.07583332   92.49620056    4.90999985    2.00000000
   12.07916641   83.17700195    4.90999985    2.00000000
   12.08222198   94.11340332    4.90999985    2.00000000
   12.08555508   85.09850311    4.90999985    2.00000000
   12.08861065   86.02130127    4.90999985    2.00000000
   12.09194374   86.67939758    4.90999985    2.00000000
   12.09444427   93.94909668    4.90999985    2.00000000
   12.09555531   85.07720184    4.90999985    2.01999998
   12.09888840   85.07360077    4.90999985    2.01999998
   12.10222244   85.28440094    4.90999985    2.01999998
   12.10527802   87.09069824    4.90999985    2.01999998
   12.10861111   81.12889862    4.90999985    2.01999998
   12.11444473   81.12889862    4.90999985    2.01999998
   12.11861134   81.27400208    4.90999985    2.01999998
   12.12194443   80.28379822    4.90999985    2.03999996
   12.12500000   83.77410126    4.90999985    2.01999998
   12.12777805   89.61840057    4.90999985    2.01999998
   12.12861156   81.11229706    4.90999985    2.01999998
   12.13194466   81.06390381    4.90999985    2.01999998
   12.13527775   87.11759949    4.90999985    2.01999998
   12.13833332   84.71350098    4.90999985    2.03999996
   12.14166641   77.70249939    4.90999985    2.03999996
   12.14499950   81.28430176    4.90999985    2.05999994
   12.14805508   81.97910309    4.90999985    2.05999994
   12.15138817   82.06349945    4.90999985    2.05999994
   12.15749931   82.06349945    4.90999985    2.05999994
   12.16138840   80.45989990    4.90999985    2.05999994
   12.16472149   84.73159790    4.90999985    2.05999994
   12.16805553   77.49140167    4.90999985    2.05999994
   12.17111111   84.94960022    4.90999985    2.07999992
   12.17444515   83.69370270    4.90999985    2.05999994
   12.17777824   81.17680359    4.90999985    2.07999992
   12.18083382   81.05599976    4.90999985    2.07999992
   12.18416691   94.80130005    4.90999985    2.07999992
   12.18722248   84.68009949    4.90999985    2.05999994
   12.19055557   80.07489777    4.90999985    2.07999992
   12.19388866   81.20700073    4.90999985    2.07999992
   12.19444466   77.65519714    4.90999985    2.07999992
   12.20027733   77.65519714    4.90999985    2.07999992
   12.20444393   84.15969849    4.90999985    2.07999992
   12.20749950   87.81040192    4.90999985    2.07999992
   12.21083355   87.83679962    4.90999985    2.09999990
   12.21416664   85.87110138    4.90999985    2.09999990
   12.21722221   85.91200256    4.90999985    2.09999990
   12.22055531   77.00240326    4.90999985    2.07999992
   12.22361088   78.81729889    4.90999985    2.09999990
   12.22694397   74.88140106    4.90999985    2.09999990
   12.22777748   72.54119873    4.90999985    2.09999990
   12.23055553   76.50530243    4.90999985    2.07999992
   12.23361111   80.99150085    4.90999985    2.09999990
   12.23694515   77.89189911    4.90999985    2.09999990
   12.24305534   77.89189911    4.90999985    2.09999990
   12.24722290   85.46320343    4.90999985    2.09999990
   12.25055599   81.19650269    4.90999985    2.09999990
   12.25361156   87.41130066    4.90999985    2.09999990
   12.25694466   85.67890167    4.88999987    2.09999990
   12.26000023   85.79989624    4.86999989    2.11999989
   12.26111126   85.35189819    4.86999989    2.11999989
   12.26388931   75.36389923    4.86999989    2.11999989
   12.26694393   84.41970062    4.80999994    2.11999989
   12.27027798   85.51599884    4.80999994    2.11999989
   12.27333355   85.45410156    4.80999994    2.11999989
   12.27666664   85.69159698    4.80999994    2.11999989
   12.27999973   88.71379852    4.80999994    2.11999989
   12.28583336   88.71379852    4.78000021    2.13000011
   12.29000092   82.09889984    4.80000019    2.13000011
   12.29333401   87.65550232    4.84999990    2.13000011
   12.29444504   79.94300079    4.84999990    2.11999989
   12.29694462   86.86579895    4.86999989    2.13000011
   12.30000019   81.92089844    4.88999987    2.13000011
   12.30333328   84.95079803    4.90999985    2.11999989
   12.30638885   80.48470306    4.90999985    2.13000011
   12.30972195   85.07740021    4.88999987    2.13000011
   12.31305599   85.70210266    4.86999989    2.13000011
   12.31611156   82.86470032    4.84999990    2.15000010
   12.31944466   85.80400085    4.82999992    2.13000011
   12.32277775   84.89890289    4.84999990    2.15000010
   12.32888889   84.89890289    4.88999987    2.13000011
   12.33277798   86.00599670    4.90999985    2.15000010
   12.33611107   76.41529846    4.84999990    2.15000010
   12.33944416   90.88939667    4.73999977    2.13000011
   12.34249973   84.68260193    4.67999983    2.15000010
   12.34583282   85.27780151    4.65999985    2.15000010
   12.34916592   78.86229706    4.63999987    2.15000010
   12.35222244   76.69989777    4.61999989    2.15000010
   12.35555553   84.52549744    4.57999992    2.17000008
   12.35861111   79.41000366    4.53999996    2.15000010
   12.36111164   78.65239716    4.53000021    2.17000008
   12.36250019   79.47109985    4.53000021    2.15000010
   12.36555576   84.11530304    4.53000021    2.17000008
   12.37166691   84.11530304    4.44999981    2.17000008
   12.37583351   83.30619812    4.44999981    2.17000008
   12.37888908   86.45899963    4.42999983    2.17000008
   12.38222218   91.05390167    4.38999987    2.17000008
   12.38555527   79.44969940    4.36999989    2.17000008
   12.38861084   86.94709778    4.36999989    2.19000006
   12.39194393   79.98590088    4.36999989    2.19000006
   12.39444447   76.08879852    4.32999992    2.17000008
   12.39555550   76.08370209    4.32999992    2.17000008
   12.39861107   89.87259674    4.26999998    2.19000006
   12.40194416   73.99639893    4.23999977    2.17000008
   12.40499973   75.61959839    4.23999977    2.19000006
   12.40833282   78.20290375    4.28999996    2.17000008
   12.41444397   78.20290375    4.26000023    2.19000006
   12.41861153   74.46060181    4.26000023    2.19000006
   12.42194462   78.31020355    4.21999979    2.19000006
   12.42500019   77.71759796    4.17999983    2.19000006
   12.42777824   77.48580170    4.17999983    2.19000006
   12.42888927   74.41760254    4.19999981    2.19000006
   12.43194485   75.37190247    4.21999979    2.21000004
   12.43527794   75.32309723    4.19999981    2.17000008
   12.43833351   78.27690125    4.19999981    2.19000006
   12.44166660   80.78469849    4.15999985    2.19000006
   12.44499969   78.06449890    4.19999981    2.19000006
   12.44805527   81.32810211    4.21999979    2.21000004
   12.45138836   75.75499725    4.19999981    2.21000004
   12.45722198   75.75499725    4.15999985    2.19000006
   12.46138859   76.40889740    4.15999985    2.21000004
   12.46472168   77.76599884    4.11999989    2.21000004
   12.46777725   78.81030273    4.07999992    2.21000004
   12.47111034   77.73840332    4.01999998    2.21000004
   12.47444439   74.30549622    4.01999998    2.21000004
   12.47749996   83.64859772    3.99000001    2.21000004
   12.48083305   87.46959686    4.00000000    2.21000004
   12.48416710   88.93959808    4.01999998    2.21000004
   12.48722267   86.63559723    4.01999998    2.21000004
   12.49055576   78.31020355    4.03999996    2.21000004
   12.49361134   83.98000336    3.97000003    2.21000004
   12.49444485   89.62770081    3.97000003    2.21000004
   12.50027752   89.62770081    3.91000009    2.23000002
   12.50416660   91.28530121    3.82999992    2.23000002
   12.50749969   89.47149658    3.76999998    2.23000002
   12.51083374   84.95670319    3.76999998    2.25000000
   12.51388931   96.51740265    3.80999994    2.23000002
   12.51722240   93.19210052    3.78999996    2.21000004
   12.52055550   85.54789734    3.76999998    2.23000002
   12.52361107   78.80999756    3.76999998    2.23000002
   12.52694416   80.08260345    3.80999994    2.25000000
   12.52777767   88.91549683    3.80999994    2.25000000
   12.53055573   80.22760010    3.80999994    2.25000000
   12.53361130   87.10810089    3.82999992    2.25000000
   12.53694534   92.80740356    3.86999989    2.25000000
   12.54305553   92.80740356    3.89000010    2.23000002
   12.54722309   95.05999756    3.91000009    2.25000000
   12.55027771   85.11009979    3.89000010    2.25000000
   12.55361176   91.35369873    3.84999990    2.25000000
   12.55694485   84.45420074    3.82999992    2.25000000
   12.56000042   92.13899994    3.80999994    2.25000000
   12.56111145   83.10569763    3.82999992    2.25000000
   12.56361103   86.61409760    3.82999992    2.26999998
   12.56666660   90.94190216    3.84999990    2.26999998
   12.56999969   93.37629700    3.82999992    2.26999998
   12.57333374   87.57440186    3.80999994    2.25000000
   12.57638836   83.32170105    3.75000000    2.25000000
   12.57972240   87.82150269    3.70000005    2.25000000
   12.58583260   87.82150269    3.53999996    2.28999996
   12.59000015   83.00260162    3.46000004    2.26999998
   12.59333324   89.30799866    3.41000009    2.25000000
   12.59444427   87.88059998    3.41000009    2.26999998
   12.59694386   88.88520050    3.41000009    2.26999998
   12.60000038   92.43440247    3.41000009    2.26999998
   12.60333347   89.92140198    3.41000009    2.26999998
   12.60666752   89.66320038    3.43000007    2.25000000
   12.60972214   86.59420013    3.41000009    2.25000000
   12.61305618   95.74060059    3.39000010    2.26999998
   12.61611176   87.26580048    3.32999992    2.25000000
   12.61944485   87.19300079    3.26999998    2.26999998
   12.62277794   85.75559998    3.23000002    2.26999998
   12.62861156   85.75559998    3.23000002    2.28999996
   12.63277817   88.79789734    3.11999989    2.26999998
   12.63611126   91.05889893    3.07999992    2.28999996
   12.63916683   94.17520142    3.05999994    2.28999996
   12.64249992   82.90699768    3.03999996    2.28999996
   12.64583302   87.50900269    3.03999996    2.28999996
   12.64916611   89.45349884    3.01999998    2.28999996
   12.65222168   89.99019623    3.05999994    2.28999996
   12.65555477   86.37509918    3.07999992    2.28999996
   12.65888882   90.44490051    3.07999992    2.28999996
   12.66111088   91.48899841    3.09999990    2.28999996
   12.66249943   89.86409760    3.09999990    2.28999996
   12.66555500   92.00980377    3.16000009    2.28999996
   12.67138958   92.00980377    3.20000005    2.28999996
   12.67555618   84.58930206    3.16000009    2.28999996
   12.67888927   90.02870178    3.16000009    2.30999994
   12.68222237   84.79720306    3.11999989    2.28999996
   12.68527794   87.28199768    3.16000009    2.28999996
   12.68861103   92.65589905    3.16000009    2.28999996
   12.69194412   88.16210175    3.16000009    2.30999994
   12.69444466   87.06739807    3.09999990    2.30999994
   12.69555569   91.21959686    3.09999990    2.30999994
   12.69861126   87.67960358    3.09999990    2.30999994
   12.70194435   87.58889771    3.09999990    2.30999994
   12.70527744   88.52169800    3.14000010    2.28999996
   12.70833302   95.83910370    3.14000010    2.30999994
   12.71444416   95.83910370    3.16000009    2.30999994
   12.71861076   85.17230225    3.18000007    2.30999994
   12.72166634   91.73149872    3.21000004    2.32999992
   12.72499943   92.95159912    3.23000002    2.28999996
   12.72777748   88.83670044    3.25000000    2.28999996
   12.72861099   86.21910095    3.23000002    2.30999994
   12.73194408   93.19339752    3.26999998    2.30999994
   12.73500061   91.96179962    3.28999996    2.30999994
   12.73833370   88.11820221    3.34999990    2.32999992
   12.74138927   91.94190216    3.41000009    2.32999992
   12.74472237   91.45269775    3.41000009    2.30999994
   12.74805546   87.34110260    3.36999989    2.30999994
   12.75111103   90.42849731    3.36999989    2.30999994
   12.75722218   90.42849731    3.32999992    2.30999994
   12.76138878   81.29620361    3.34999990    2.32999992
   12.76472187   84.72740173    3.34999990    2.30999994
   12.76777744   88.63950348    3.26999998    2.34999990
   12.77111053   88.85520172    3.28999996    2.32999992
   12.77416611   86.23539734    3.26999998    2.32999992
   12.77750015   86.53839874    3.25000000    2.32999992
   12.78083324   87.01799774    3.20000005    2.32999992
   12.78388977   88.78730011    3.18000007    2.32999992
   12.78722286   88.29250336    3.18000007    2.32999992
   12.79055595   85.52790070    3.26999998    2.32999992
   12.79361153   87.74130249    3.28999996    2.32999992
   12.79444504   91.31919861    3.28999996    2.32999992
   12.81500053   91.31919861    3.61999989    2.32999992
   12.81916618   88.58779907    3.53999996    2.32999992
   12.82250023   91.18240356    3.41000009    2.32999992
   12.82583332   90.18679810    3.26999998    2.32999992
   12.82777786   86.15229797    3.20000005    2.32999992
   12.82944393   90.16059875    3.07999992    2.34999990
   12.83277798   89.66519928    3.07999992    2.34999990
   12.83583260   89.75370026    3.14000010    2.34999990
   12.83916664   87.86889648    3.16000009    2.32999992
   12.84249973   87.29309845    3.21000004    2.34999990
   12.84555531   85.50440216    3.26999998    2.32999992
   12.84888840   85.05919647    3.36999989    2.32999992
   12.85194492   84.40409851    3.48000002    2.32999992
   12.85777855   84.40409851    3.64000010    2.32999992
   12.86194515   84.68109894    3.61999989    2.34999990
   12.86527824   89.28040314    3.55999994    2.32999992
   12.86861134   85.45559692    3.46000004    2.34999990
   12.87166691   85.62490082    3.41000009    2.32999992
   12.87500000   90.74500275    3.36999989    2.32999992
   12.87805557   93.80899811    3.34999990    2.34999990
   12.88138866   91.42089844    3.34999990    2.34999990
   12.88472176   92.21990204    3.32999992    2.34999990
   12.88777733   85.54350281    3.28999996    2.34999990
   12.89111137   84.47000122    3.23000002    2.34999990
   12.89416695   89.75800323    3.16000009    2.34999990
   12.89499950   89.27239990    3.16000009    2.34999990
   12.90083313   89.27239990    3.01999998    2.34999990
   12.90472221   84.33509827    2.94000006    2.36999989
   12.90805531   85.47889709    2.96000004    2.36999989
   12.91138840   91.85990143    2.98000002    2.34999990
   12.91444397   87.28089905    2.91000009    2.36999989
   12.91777802   88.19370270    2.93000007    2.36999989
   12.92111111   87.37210083    2.94000006    2.36999989
   12.92416668   90.87359619    2.94000006    2.36999989
   12.92750072   89.51529694    2.93000007    2.36999989
   12.92805576   85.79579926    2.93000007    2.36999989
   12.93111134   95.68720245    2.89000010    2.36999989
   12.93444443   86.92220306    2.86999989    2.36999989
   12.93750000   83.15969849    2.89000010    2.36999989
   12.94361115   83.15969849    2.94000006    2.34999990
   12.94777775   84.59159851    3.05999994    2.36999989
   12.95083332   93.58599854    3.05999994    2.36999989
   12.95416641   86.33869934    3.05999994    2.36999989
   12.95749950   85.64679718    3.05999994    2.36999989
   12.96055508   81.67459869    3.07999992    2.36999989
   12.96138859   87.55829620    3.07999992    2.36999989
   12.96416664   78.93630219    3.05999994    2.36999989
   12.96749973   86.72440338    3.03999996    2.36999989
   12.97055531   81.09349823    3.03999996    2.36999989
   12.97388840   87.31340027    3.01999998    2.39000010
   12.97722149   84.30719757    2.98000002    2.36999989
   12.98027706   80.78790283    2.93000007    2.36999989
   12.98638916   80.78790283    2.86999989    2.39000010
   12.99055576   91.85019684    2.82999992    2.36999989
   12.99388885   86.70020294    2.80999994    2.39000010
   12.99472237   87.97190094    2.80999994    2.39000010
   12.99750042   87.54759979    2.80999994    2.39000010
   13.00083351   92.89859772    2.78999996    2.39000010
   13.00388908   91.47689819    2.76999998    2.39000010
   13.00722218   95.87779999    2.76999998    2.39000010
   13.01055527   90.58619690    2.73000002    2.39000010
   13.01361084   83.77960205    2.69000006    2.39000010
   13.01694393   80.47409821    2.66000009    2.39000010
   13.01999950   87.76709747    2.69000006    2.39000010
   13.02333355   94.75810242    2.73000002    2.39000010
   13.02916622   94.75810242    2.76999998    2.40000010
   13.03333378   93.77169800    2.75000000    2.40000010
   13.03666687   85.74739838    2.75000000    2.39000010
   13.04000092   88.46769714    2.76999998    2.40000010
   13.04305553   93.83540344    2.80999994    2.36999989
   13.04638958   85.04139709    2.84999990    2.39000010
   13.04944515   87.94200134    2.84999990    2.39000010
   13.05277824   86.31759644    2.80999994    2.40000010
   13.05611134   89.87670135    2.75000000    2.40000010
   13.05916691   84.17870331    2.76999998    2.40000010
   13.06138897   90.20850372    2.76999998    2.39000010
   13.06277752   85.51210022    2.76999998    2.39000010
   13.06611156   90.24849701    2.82999992    2.39000010
   13.07222176   90.24849701    2.78999996    2.40000010
   13.07638836   90.19290161    2.76999998    2.40000010
   13.07944393   94.37000275    2.76999998    2.40000010
   13.08277798   89.11849976    2.78999996    2.40000010
   13.08611107   89.79540253    2.80999994    2.40000010
   13.08916664   94.79519653    2.80999994    2.40000010
   13.09249973   92.92369843    2.76999998    2.40000010
   13.09472179   93.50389862    2.75000000    2.40000010
   13.09611034   92.87380219    2.76999998    2.40000010
   13.09944439   91.32250214    2.84999990    2.40000010
   13.10249996   94.11990356    2.91000009    2.40000010
   13.10583401   95.90409851    2.94000006    2.40000010
   13.10916710   96.61209869    2.93000007    2.40000010
   13.11500072   96.61209869    2.82999992    2.40000010
   13.11916637   90.11889648    2.73000002    2.40000010
   13.12222195   93.75260162    2.67000008    2.42000008
   13.12555599   89.86689758    2.64000010    2.40000010
   13.12805557   88.33470154    2.59999990    2.42000008
   13.12916660   89.74739838    2.59999990    2.40000010
   13.13249969   91.64550018    2.59999990    2.42000008
   13.13555527   87.91280365    2.57999992    2.42000008
   13.13888836   84.49150085    2.57999992    2.42000008
   13.14194393   88.58580017    2.59999990    2.42000008
   13.14527798   89.62909698    2.61999989    2.40000010
   13.14861107   87.28980255    2.67000008    2.40000010
   13.15166664   88.16230011    2.78999996    2.42000008
   13.15777779   88.16230011    2.94000006    2.40000010
   13.16194439   96.56870270    2.96000004    2.40000010
   13.16527748   90.52110291    2.96000004    2.40000010
   13.16833401   92.10449982    2.94000006    2.40000010
   13.17166710   88.41480255    3.09999990    2.42000008
   13.17500019   89.20120239    3.00000000    2.40000010
   13.17805576   87.76770020    2.75000000    2.40000010
   13.18138885   91.73459625    2.69000006    2.40000010
   13.18472195   90.93949890    2.64000010    2.44000006
   13.18777752   96.61309814    2.57999992    2.40000010
   13.19111156   97.76689911    2.55999994    2.40000010
   13.19416714   95.59629822    2.61999989    2.42000008
   13.19472218   94.71050262    2.61999989    2.42000008
   13.20055580   94.71050262    2.59999990    2.42000008
   13.20472240  101.13600159    2.66000009    2.42000008
   13.20805550   95.79129791    2.67000008    2.44000006
   13.21111107   92.32050323    2.67000008    2.42000008
   13.21444416   91.71230316    2.59999990    2.44000006
   13.21777725   90.37020111    2.57999992    2.44000006
   13.22083282   91.33219910    2.53999996    2.42000008
   13.22416592   94.77880096    2.53999996    2.40000010
   13.22749996   94.59140015    2.53999996    2.42000008
   13.22805500   92.81439972    2.53999996    2.42000008
   13.23083305   87.58000183    2.53999996    2.42000008
   13.23416710   98.02860260    2.53999996    2.44000006
   13.23722267   90.37729645    2.51999998    2.42000008
   13.24361134   90.37729645    2.44000006    2.44000006
   13.24777794   95.19360352    2.46000004    2.44000006
   13.25083351   95.55750275    2.50000000    2.42000008
   13.25416660   93.69229889    2.51999998    2.44000006
   13.25722218   92.32029724    2.53999996    2.44000006
   13.26055527   85.66560364    2.53999996    2.44000006
   13.26138878   87.68250275    2.51999998    2.42000008
   13.26416683   89.61569977    2.53999996    2.42000008
   13.26749992   88.27960205    2.57999992    2.44000006
   13.27055550   90.92479706    2.59999990    2.44000006
   13.27388859   93.71690369    2.59999990    2.44000006
   13.27722168   94.90750122    2.59999990    2.44000006
   13.28027725   93.20960236    2.61999989    2.44000006
   13.28638935   93.20960236    2.64000010    2.42000008
   13.29055595   94.44300079    2.64000010    2.44000006
   13.29361153   93.61920166    2.59999990    2.44000006
   13.29472256   89.02639771    2.59999990    2.44000006
   13.29722309   89.87870026    2.57999992    2.44000006
   13.30055618   90.93280029    2.51999998    2.44000006
   13.30361176   92.99310303    2.50000000    2.44000006
   13.30694485   90.10980225    2.53999996    2.44000006
   13.31027794   90.37809753    2.55999994    2.44000006
   13.31333351   87.57289886    2.51999998    2.44000006
   13.31666660   91.13140106    2.48000002    2.44000006
   13.31972218   89.90049744    2.50000000    2.44000006
   13.32305527   92.37740326    2.51999998    2.44000006
   13.32916641   92.37740326    2.51999998    2.46000004
   13.33333302   92.24069977    2.50000000    2.44000006
   13.33666611   89.82859802    2.46000004    2.44000006
   13.33972168   91.27349854    2.42000008    2.44000006
   13.34305477   94.58899689    2.39000010    2.44000006
   13.34611034   93.46499634    2.34999990    2.44000006
   13.34944439   95.00319672    2.30999994    2.44000006
   13.35277843   85.48339844    2.26999998    2.44000006
   13.35583401   90.70950317    2.21000004    2.46000004
   13.35916710   95.66970062    2.17000008    2.44000006
   13.36138916   96.04290009    2.15000010    2.46000004
   13.36277771  101.51699829    2.15000010    2.44000006
   13.36611176   97.07740021    2.15000010    2.46000004
   13.37194443   97.07740021    2.17000008    2.46000004
   13.37611103   98.09449768    2.17000008    2.46000004
   13.37944412   89.61550140    2.23000002    2.44000006
   13.38249969   81.90599823    2.25000000    2.46000004
   13.38583279   90.55760193    2.28999996    2.44000006
   13.38916683   83.23940277    2.28999996    2.46000004
   13.39222240   88.47160339    2.28999996    2.46000004
   13.39472198   91.16560364    2.25000000    2.44000006
   13.39611053   92.36660004    2.25000000    2.44000006
   13.39944458   87.86630249    2.19000006    2.46000004
   13.40249920   87.63860321    2.17000008    2.46000004
   13.40583324   85.42459869    2.17000008    2.46000004
   13.40916634   87.82189941    2.15000010    2.46000004
   13.41499996   87.82189941    2.17000008    2.46000004
   13.41888905   86.46440125    2.15000010    2.48000002
   13.42222214   86.57060242    2.13000011    2.46000004
   13.42555618   94.04440308    2.17000008    2.46000004
   13.42805576   91.91349792    2.21000004    2.48000002
   13.42916679   87.44120026    2.23000002    2.46000004
   13.43249989   97.73960114    2.28999996    2.46000004
   13.43555546   87.11710358    2.28999996    2.46000004
   13.43888855   88.99579620    2.26999998    2.46000004
   13.44222260   98.79940033    2.28999996    2.48000002
   13.44527817   89.30840302    2.32999992    2.48000002
   13.44861126   94.40270233    2.30999994    2.48000002
   13.45166683   97.50900269    2.28999996    2.46000004
   13.45777798   97.50900269    2.26999998    2.46000004
   13.46194458   90.94239807    2.25000000    2.46000004
   13.46500015   89.13269806    2.21000004    2.48000002
   13.46833324   91.89469910    2.19000006    2.46000004
   13.47166634   86.93099976    2.19000006    2.48000002
   13.47472191   85.62940216    2.23000002    2.48000002
   13.47805500   90.54650116    2.26999998    2.48000002
   13.48111057   89.81459808    2.28999996    2.48000002
   13.48444462   86.38510132    2.28999996    2.48000002
   13.48777771   90.09880066    2.28999996    2.48000002
   13.49083328   89.18849945    2.26999998    2.48000002
   13.49416733   87.96849823    2.28999996    2.48000002
   13.49472237   86.75990295    2.30999994    2.48000002
   13.50055599   86.75990295    2.34999990    2.48000002
   13.50472260   91.77200317    2.36999989    2.48000002
   13.50805569   89.56539917    2.40000010    2.48000002
   13.51111126   93.38140106    2.40000010    2.48000002
   13.51444435   92.27770233    2.40000010    2.48000002
   13.51777744   90.16369629    2.34999990    2.48000002
   13.52083302   93.19129944    2.32999992    2.48000002
   13.52416611   89.11859894    2.34999990    2.48000002
   13.52750015   84.64630127    2.30999994    2.48000002
   13.52833271   86.14569855    2.30999994    2.48000002
   13.53083324   91.73480225    2.30999994    2.50000000
   13.53416729   87.11599731    2.28999996    2.48000002
   13.53722286   94.56819916    2.28999996    2.48000002
   13.54333401   94.56819916    2.26999998    2.51999998
   13.54750061   90.48870087    2.23000002    2.48000002
   13.55083370   91.34780121    2.21000004    2.50000000
   13.55388927   94.15059662    2.19000006    2.48000002
   13.55722237   92.68270111    2.19000006    2.48000002
   13.56055546   93.29190063    2.19000006    2.48000002
   13.56166649   93.90249634    2.21000004    2.48000002
   13.56388950   91.74819946    2.23000002    2.48000002
   13.56722260   94.72160339    2.25000000    2.50000000
   13.57027817   92.31639862    2.28999996    2.50000000
   13.57361126   90.32730103    2.28999996    2.48000002
   13.57694435   93.15769958    2.28999996    2.50000000
   13.57999992   88.85679626    2.28999996    2.48000002
   13.58638859   88.85679626    2.23000002    2.48000002
   13.59027767   94.31790161    2.19000006    2.50000000
   13.59361076   91.83799744    2.19000006    2.48000002
   13.59499931   92.39839935    2.19000006    2.50000000
   13.59722233   95.58920288    2.17000008    2.48000002
   13.60055637   94.95210266    2.13000011    2.48000002
   13.60388947   94.05390167    2.11999989    2.48000002
   13.60694504   94.63379669    2.15000010    2.48000002
   13.61027813  100.88800049    2.17000008    2.51999998
   13.61361122   97.49990082    2.48000002    2.50000000
   13.61666679   91.75360107    3.26999998    2.48000002
   13.61999989   87.52549744    2.28999996    2.50000000
   13.62305546   94.73169708    2.21000004    2.48000002
   13.62916660   94.73169708    2.21000004    2.50000000
   13.63333321   91.90730286    2.23000002    2.51999998
   13.63638878   92.15730286    2.25000000    2.50000000
   13.63972187   93.92690277    2.23000002    2.50000000
   13.64305496   91.87200165    2.17000008    2.51999998
   13.64611053   92.26629639    2.15000010    2.51999998
   13.64944458   94.34410095    2.15000010    2.50000000
   13.65249920   95.71620178    2.15000010    2.50000000
   13.65583324   92.99819946    2.13000011    2.48000002
   13.65916634  100.12300110    2.13000011    2.50000000
   13.66166592   92.83879852    2.15000010    2.48000002
   13.66249943   96.19170380    2.17000008    2.50000000
   13.66583252  102.28099823    2.23000002    2.51999998
   13.67194462  102.28099823    2.26999998    2.50000000
   13.67611122   99.72419739    2.26999998    2.50000000
   13.67916679   97.93740082    2.25000000    2.50000000
   13.68249989   97.74479675    2.23000002    2.50000000
   13.68583298   96.21759796    2.21000004    2.51999998
   13.68916702  100.62500000    2.19000006    2.50000000
   13.69222260   93.74189758    2.21000004    2.50000000
   13.69499969   91.86759949    2.23000002    2.51999998
   13.69583321   93.62359619    2.23000002    2.50000000
   13.69916630   92.89399719    2.25000000    2.50000000
   13.70222187   91.05470276    2.26999998    2.50000000
   13.70555496   93.68190002    2.28999996    2.50000000
   13.70888901   90.90750122    2.26999998    2.48000002
   13.71472168   90.90750122    2.21000004    2.51999998
   13.71888828   88.20459747    2.23000002    2.51999998
   13.72222137   92.11150360    2.21000004    2.51999998
   13.72527695   89.47709656    2.21000004    2.48000002
   13.72833252   89.98529816    2.19000006    2.50000000
   13.72888851   88.93090057    2.19000006    2.51999998
   13.73222160   92.32170105    2.21000004    2.51999998
   13.73555565   86.32589722    2.23000002    2.51999998
   13.73861122   93.43379974    2.21000004    2.51999998
   13.74194431   94.43070221    2.21000004    2.51999998
   13.74499989   96.07099915    2.19000006    2.51999998
   13.74833393   93.94210052    2.19000006    2.50000000
   13.75166702   93.03769684    2.17000008    2.51999998
   13.75777817   93.03769684    2.17000008    2.51999998
   13.76166630   95.73310089    2.17000008    2.51999998
   13.76500034   96.56020355    2.15000010    2.51999998
   13.76833344   97.30229950    2.17000008    2.51999998
   13.77138901  105.12100220    2.17000008    2.51999998
   13.77472210   95.21970367    2.11999989    2.51999998
   13.77777767   98.91829681    2.07999992    2.50000000
   13.78111076   86.53630066    2.05999994    2.51999998
   13.78444481   95.84459686    2.03999996    2.50000000
   13.78750038   92.83740234    2.05999994    2.51999998
   13.79083347   97.54679871    2.07999992    2.51999998
   13.79416752   90.49710083    2.09999990    2.51999998
   13.79500008   91.95359802    2.09999990    2.51999998
   13.80055618   91.95359802    2.09999990    2.51999998
   13.80472279   94.24990082    2.11999989    2.51999998
   13.80777836   97.67040253    2.13000011    2.51999998
   13.81111145   97.00389862    2.15000010    2.51999998
   13.82861137   90.33370209    2.17000008    2.51999998
   13.83111095   94.09249878    2.15000010    2.51999998
   13.83416653   92.61540222    2.19000006    2.51999998
   13.83749962   93.15489960    2.21000004    2.51999998
   13.84333324   93.15489960    2.23000002    2.51999998
   13.84749985   95.14360046    2.25000000    2.53999996
   13.85083389  100.16400146    2.26999998    2.51999998
   13.85416698   95.89849854    2.25000000    2.51999998
   13.85722256   97.68969727    2.23000002    2.51999998
   13.86055565   98.30069733    2.17000008    2.51999998
   13.86194515   95.44819641    2.17000008    2.51999998
   13.86388969   95.20099640    2.15000010    2.51999998
   13.86722279   93.00370026    2.13000011    2.51999998
   13.87055588   93.66000366    2.11999989    2.55999994
   13.87361145   92.90380096    2.11999989    2.51999998
   13.87694454   95.40239716    2.09999990    2.51999998
   13.88027763   95.18470001    2.07999992    2.53999996
   13.88638878   95.18470001    2.03999996    2.53999996
   13.89055538   93.82039642    2.05999994    2.53999996
   13.89361095   94.76709747    2.07999992    2.51999998
   13.89527798   93.74960327    2.09999990    2.51999998
   13.89722252   92.58699799    2.11999989    2.51999998
   13.90055561   96.76820374    2.09999990    2.51999998
   13.90388870   90.28859711    2.09999990    2.53999996
   13.90694427   93.32859802    2.09999990    2.51999998
   13.91027737   93.21260071    2.09999990    2.53999996
   13.91361046   89.39420319    2.11999989    2.53999996
   13.91666698   93.94129944    2.11999989    2.53999996
   13.92000008   89.08820343    2.13000011    2.51999998
   13.92305565   92.08719635    2.17000008    2.51999998
   13.92916679   92.08719635    2.17000008    2.53999996
   13.93333340   95.93640137    2.13000011    2.53999996
   13.93638897   96.22820282    2.17000008    2.51999998
   13.93972206   98.76560211    2.44000006    2.51999998
   13.94305515   92.75489807    2.66000009    2.51999998
   13.94611073   95.85959625    2.80999994    2.53999996
   13.94944477   96.41649628    2.78999996    2.51999998
   13.95277786   93.41889954    2.73000002    2.51999998
   13.95583344   93.49430084    2.66000009    2.51999998
   13.95916653   91.94640350    2.67000008    2.51999998
   13.96194458   94.50800323    2.64000010    2.51999998
   13.96249962   93.33660126    2.61999989    2.51999998
   13.96583271   91.88359833    2.53999996    2.51999998
   13.97194386   91.88359833    2.23000002    2.53999996
   13.97611046   93.66130066    2.13000011    2.53999996
   13.97944355   96.22499847    2.07999992    2.53999996
   13.98249912   94.12010193    2.01999998    2.53999996
   13.98583317   88.12680054    1.98000002    2.53999996
   13.98916721   87.84750366    1.94000006    2.53999996
   13.99222279   86.71230316    1.94000006    2.51999998
   13.99527836   89.80750275    1.96000004    2.53999996
   13.99611092   84.58399963    1.96000004    2.51999998
   13.99916649   91.08699799    1.96000004    2.51999998
   14.00249958   93.26200104    1.96000004    2.53999996
   14.00555515   93.30729675    1.96000004    2.51999998
   14.00888920   94.31970215    1.94000006    2.51999998
   14.01472187   94.31970215    1.96000004    2.53999996
   14.01888847   94.20230103    1.96000004    2.53999996
   14.02222157   97.08480072    1.96000004    2.55999994
   14.02555561   95.19029999    1.94000006    2.53999996
   14.02861118   96.94830322    1.94000006    2.55999994
   14.02916622   93.95989990    1.94000006    2.55999994
   14.03249931   98.13230133    1.94000006    2.53999996
   14.03555584   93.84809875    1.94000006    2.53999996
   14.03888893   95.35030365    1.94000006    2.55999994
   14.04194450   93.98860168    1.89999998    2.53999996
   14.04527855   92.45480347    1.89999998    2.53999996
   14.04861164   91.48739624    1.89999998    2.53999996
   14.05166721   90.80159760    1.83000004    2.55999994
   14.05777836   90.80159760    1.83000004    2.53999996
   14.06194496   93.64489746    1.85000002    2.55999994
   14.06222248   93.74469757    1.85000002    2.55999994
   14.06555557   92.68360138    1.86000001    2.55999994
   14.06888866   88.80709839    1.86000001    2.51999998
   14.07194424   86.79779816    1.85000002    2.55999994
   14.07527733   87.87439728    1.78999996    2.53999996
   14.07861137   91.80549622    1.78999996    2.55999994
   14.08166695   96.55470276    1.83000004    2.55999994
   14.08500004   97.68609619    1.83000004    2.55999994
   14.08805561   95.04910278    1.85000002    2.53999996
   14.09138870   95.03119659    1.83000004    2.55999994
   14.09472179   91.71269989    1.83000004    2.53999996
   14.09555531   99.27590179    1.83000004    2.53999996
   14.10055637   99.27590179    1.80999994    2.55999994
   14.10472298   94.22799683    1.76999998    2.55999994
   14.10777855   93.68959808    1.76999998    2.55999994
   14.11111164   93.84940338    1.76999998    2.53999996
   14.11444473   93.01020050    1.76999998    2.53999996
   14.11777782   95.41629791    1.73000002    2.55999994
   14.12083340   96.52429962    1.71000004    2.55999994
   14.12416649   90.33059692    1.69000006    2.55999994
   14.12750053   88.14270020    1.69000006    2.55999994
   14.12888908   93.91190338    1.69000006    2.55999994
   14.13111115   92.68119812    1.69000006    2.55999994
   14.13444424   94.58020020    1.69000006    2.55999994
   14.13749981   94.92769623    1.71000004    2.55999994
   14.14333344   94.92769623    1.73000002    2.55999994
   14.14750004   95.72699738    1.73000002    2.55999994
   14.15083313   93.10320282    1.73000002    2.55999994
   14.15388870   97.66300201    1.75000000    2.55999994
   14.15722179  100.20500183    1.75000000    2.55999994
   14.16055489   96.22899628    1.73000002    2.55999994
   14.16222191   98.44149780    1.71000004    2.55999994
   14.16388893   96.16079712    1.71000004    2.55999994
   14.16722298   95.84839630    1.71000004    2.55999994
   14.17027855   98.41870117    1.73000002    2.55999994
   14.17388916   94.55339813    1.76999998    2.55999994
   14.17722225   95.33779907    1.75000000    2.55999994
   14.18027782   91.48950195    1.75000000    2.55999994
   14.18611145   91.48950195    1.75000000    2.55999994
   14.19027805   91.26470184    1.76999998    2.55999994
   14.19361115   91.88069916    1.80999994    2.55999994
   14.19555569   92.37629700    1.80999994    2.55999994
   14.19722271   90.66819763    1.83000004    2.55999994
   14.20055580   93.38919830    1.83000004    2.57999992
   14.20388889   90.95500183    1.80999994    2.55999994
   14.20694447   93.30789948    1.80999994    2.55999994
   14.21027756   97.57689667    1.78999996    2.53999996
   14.21333313  100.82299805    1.83000004    2.55999994
   14.21666622   95.36470032    1.80999994    2.55999994
   14.21999931   95.22239685    1.76999998    2.57999992
   14.22333336   98.64910126    1.76999998    2.57999992
   14.22916603   98.64910126    1.75000000    2.55999994
   14.23333359   93.57980347    1.73000002    2.55999994
   14.23638916   96.97339630    1.75000000    2.55999994
   14.23972225   95.94819641    1.75000000    2.55999994
   14.24277782   96.10089874    1.76999998    2.55999994
   14.24611092  100.12799835    1.78999996    2.55999994
   14.24944496   96.21040344    1.78999996    2.55999994
   14.25249958   92.76429749    1.80999994    2.55999994
   14.25583363  100.99900055    1.80999994    2.55999994
   14.25916672  101.80400085    1.80999994    2.55999994
   14.26222229   90.12079620    1.80999994    2.55999994
   14.26277733   91.62670135    1.80999994    2.55999994
   14.26611137   95.69740295    1.86000001    2.55999994
   14.27194405   95.69740295    1.86000001    2.55999994
   14.27611065   97.96649933    1.85000002    2.55999994
   14.27916622   91.19940186    1.78999996    2.55999994
   14.28249931   94.57340240    1.78999996    2.55999994
   14.28583336   92.28130341    1.76999998    2.55999994
   14.28916740   88.86460114    1.76999998    2.57999992
   14.29222298   96.61979675    1.76999998    2.55999994
   14.29555607   91.53710175    1.76999998    2.55999994
   14.29611111   88.71549988    1.76999998    2.55999994
   14.29916668   86.99040222    1.76999998    2.55999994
   14.30249977   94.95040131    1.76999998    2.57999992
   14.30583382   95.57369995    1.76999998    2.55999994
   14.30888939   94.00160217    1.78999996    2.55999994
   14.31472206   94.00160217    1.76999998    2.55999994
   14.31888866   92.70099640    1.75000000    2.57999992
   14.32222176   95.52519989    1.75000000    2.57999992
   14.32527733  102.30500031    1.73000002    2.55999994
   14.32861137   99.01229858    1.71000004    2.55999994
   14.32944393  104.54399872    1.71000004    2.55999994
   14.33222198  105.29299927    1.66999996    2.55999994
   14.33527756  103.02100372    1.66999996    2.55999994
   14.33861065  105.38300323    1.63000000    2.55999994
   14.34166622  106.60399628    1.61000001    2.57999992
   14.34499931  100.38899994    1.61000001    2.59999990
   14.34833336   99.79370117    1.61000001    2.57999992
   14.35138893  100.51300049    1.60000002    2.57999992
   14.35750008  100.51300049    1.58000004    2.55999994
   14.36166668   99.93789673    1.60000002    2.57999992
   14.36277771  100.26699829    1.60000002    2.57999992
   14.36555576   96.42089844    1.60000002    2.57999992
   14.36861134   99.88770294    1.55999994    2.57999992
   14.37194443   91.10289764    1.53999996    2.57999992
   14.37500000   96.05030060    1.55999994    2.59999990
   14.37833309   95.15090179    1.55999994    2.59999990
   14.38166714  102.21199799    1.55999994    2.59999990
   14.38472176  102.14399719    1.55999994    2.57999992
   14.38805580   96.85109711    1.55999994    2.59999990
   14.39138889  103.46900177    1.60000002    2.57999992
   14.39444447  104.25299835    1.63000000    2.55999994
   14.39611053  101.42800140    1.63000000    2.55999994
   14.40055561  101.42800140    1.63000000    2.59999990
   14.40472221  103.45500183    1.63000000    2.57999992
   14.40777779   98.67099762    1.61000001    2.57999992
   14.41111088  100.75700378    1.60000002    2.57999992
   14.41416645  102.30599976    1.61000001    2.57999992
   14.41750050  101.61000061    1.63000000    2.57999992
   14.42083359  100.68800354    1.66999996    2.57999992
   14.42388916   93.28880310    1.66999996    2.57999992
   14.42722225  103.45600128    1.66999996    2.57999992
   14.42944431  110.37100220    1.69000006    2.57999992
   14.43083382  104.52300262    1.69000006    2.57999992
   14.43388939  103.23999786    1.75000000    2.57999992
   14.43722248  101.02300262    1.73000002    2.59999990
   14.44333363  101.02300262    1.63000000    2.57999992
   14.44750023  101.33899689    1.69000006    2.59999990
   14.45055580  104.99199677    1.76999998    2.59999990
   14.45388889  105.31199646    1.76999998    2.57999992
   14.45722198   97.92430115    1.76999998    2.59999990
   14.46027756  101.77600098    1.76999998    2.55999994
   14.46277714   97.32070160    1.80999994    2.59999990
   14.46416664   95.04560089    1.80999994    2.59999990
   14.46722221  101.16000366    1.75000000    2.57999992
   14.47055531   96.49520111    1.73000002    2.59999990
   14.47388840   90.43419647    1.73000002    2.59999990
   14.47722149   92.68710327    1.73000002    2.59999990
   14.48027706   91.93599701    1.63000000    2.59999990
   14.48611164   91.93599701    1.66999996    2.57999992
   14.49027824   94.75140381    1.73000002    2.57999992
   14.49361134  100.05200195    1.63000000    2.57999992
   14.49611092  104.30300140    1.63000000    2.57999992
   14.49722290  105.69300079    1.61000001    2.59999990
   14.50027752  102.63500214    1.61000001    2.57999992
   14.50361156  109.88700104    1.61000001    2.57999992
   14.50666714  101.00800323    1.60000002    2.59999990
   14.51000023  103.92400360    1.60000002    2.59999990
   14.51333332  110.99299622    1.63000000    2.57999992
   14.51638889  107.15699768    1.66999996    2.59999990
   14.51972198  105.54100037    1.66999996    2.59999990
   14.52305508  102.56500244    1.66999996    2.57999992
   14.52888870  102.56500244    1.63000000    2.59999990
   14.53305531  102.80799866    1.58000004    2.59999990
   14.53638935  111.39299774    1.55999994    2.59999990
   14.53972244  101.25399780    1.55999994    2.59999990
   14.54277802  104.35800171    1.53999996    2.59999990
   14.54611111  107.61699677    1.53999996    2.57999992
   14.54916668  105.77500153    1.51999998    2.59999990
   14.55249977  104.98699951    1.50000000    2.59999990
   14.55583382  106.29000092    1.48000002    2.57999992
   14.55888939  102.98400116    1.50000000    2.59999990
   14.56222248  103.87300110    1.50000000    2.59999990
   14.56388950  101.00399780    1.51999998    2.57999992
   14.56583309  104.40000153    1.51999998    2.57999992
   14.57194424  104.40000153    1.50000000    2.57999992
   14.57611084  103.34500122    1.50000000    2.59999990
   14.57916641  104.13500214    1.50000000    2.59999990
   14.58249950  108.75800323    1.48000002    2.59999990
   14.58555508  106.34700012    1.50000000    2.59999990
   14.58916664  104.39600372    1.50000000    2.59999990
   14.59249973  104.47499847    1.50000000    2.59999990
   14.59555531  106.44300079    1.50000000    2.59999990
   14.59722233  109.31099701    1.50000000    2.59999990
   14.59916592  102.64600372    1.50000000    2.59999990
   14.60249996  101.86000061    1.51999998    2.59999990
   14.60555553  104.35900116    1.51999998    2.59999990
   14.60888958  100.47699738    1.53999996    2.59999990
   14.61472225  100.47699738    1.53999996    2.59999990
   14.61888885  102.90299988    1.53999996    2.59999990
   14.62194443   98.57129669    1.51999998    2.59999990
   14.62527752  103.31700134    1.50000000    2.59999990
   14.62861156  102.90499878    1.51999998    2.59999990
   14.63083363   99.06109619    1.51999998    2.59999990
   14.63222218  102.41300201    1.53999996    2.59999990
   14.63527775  106.65000153    1.51999998    2.59999990
   14.63861084  104.36399841    1.50000000    2.59999990
   14.64194393   99.84819794    1.50000000    2.59999990
   14.64499950  101.35600281    1.48000002    2.59999990
   14.64833355  101.63099670    1.48000002    2.59999990
   14.65166664  102.00299835    1.48000002    2.59999990
   14.65749931  102.00299835    1.50000000    2.59999990
   14.66166592  106.38700104    1.46000004    2.59999990
   14.66416645  102.34600067    1.46000004    2.59999990
   14.66527748  111.14600372    1.46000004    2.59999990
   14.66833401  101.44000244    1.46000004    2.59999990
   14.67166710  107.27200317    1.48000002    2.59999990
   14.67500019  108.58200073    1.53999996    2.59999990
   14.67805576  110.56999969    1.53999996    2.59999990
   14.68138885  103.98600006    1.58000004    2.59999990
   14.68472195  109.86399841    1.55999994    2.59999990
   14.68777752  108.56300354    1.53999996    2.59999990
   14.69111156  104.38600159    1.51999998    2.59999990
   14.69444466  106.31400299    1.53999996    2.59999990
   14.70027733  106.31400299    1.60000002    2.59999990
   14.70444393  113.21700287    1.66999996    2.59999990
   14.70777798  114.23699951    1.66999996    2.59999990
   14.71083355  110.93099976    1.66999996    2.59999990
   14.71416664  102.54699707    1.66999996    2.61999989
   14.71749973  103.81099701    1.64999998    2.59999990
   14.72055531  107.49700165    1.69000006    2.59999990
   14.72388840  110.91799927    1.75000000    2.59999990
   14.72722149  102.77899933    1.83000004    2.59999990
   14.73027706  107.65100098    1.83000004    2.59999990
   14.73138809  102.97000122    1.83000004    2.59999990
   14.73388958  105.72599792    1.83000004    2.59999990
   14.73722267  108.51100159    1.94000006    2.59999990
   14.74333382  108.51100159    2.26999998    2.59999990
   14.74722290  110.69000244    2.40000010    2.59999990
   14.75055599  111.69000244    2.76999998    2.57999992
   14.75388908  100.19499969    2.89000010    2.57999992
   14.75694466  108.67099762    2.76999998    2.57999992
   14.76027775  103.39399719    2.66000009    2.57999992
   14.76361084  104.04699707    2.67000008    2.59999990
   14.76472187  106.60900116    2.71000004    2.61999989
   14.76694393  111.53700256    2.69000006    2.55999994
   14.77027798  110.68399811    2.76999998    2.59999990
   14.77333355  100.31099701    2.66000009    2.57999992
   14.77666664  109.99900055    2.39000010    2.59999990
   14.77999973  101.37500000    2.28999996    2.59999990
   14.78611183  101.37500000    2.07999992    2.59999990
   14.79027843  105.61299896    2.03999996    2.61999989
   14.79333401  101.46499634    1.89999998    2.59999990
   14.79666710  101.60700226    1.88000000    2.59999990
   14.79805565  105.07399750    1.86000001    2.57999992
   14.80027771  103.96199799    1.86000001    2.59999990
   14.80361176   96.57599640    1.96000004    2.59999990
   14.80666733   95.24559784    2.23000002    2.59999990
   14.81000042  102.49700165    2.51999998    2.59999990
   14.81333351  100.64399719    2.59999990    2.57999992
   14.81638908  104.33799744    2.73000002    2.57999992
   14.81972218  103.94000244    2.96000004    2.57999992
   14.82305527  107.48500061    3.21000004    2.59999990
   14.82888889  107.48500061    2.80999994    2.59999990
   14.84722233  103.36299896    2.69000006    2.57999992
   14.85055637   98.20749664    2.91000009    2.57999992
   14.85361195  100.27600098    2.89000010    2.59999990
   14.85694504  104.24600220    3.01999998    2.61999989
   14.86027813  109.88200378    3.18000007    2.55999994
   14.86333370  107.12500000    3.66000009    2.57999992
   14.86666679  102.70600128    3.70000005    2.57999992
   14.87194443  102.70600128    3.25000000    2.59999990
   14.87611103  110.14700317    3.01999998    2.59999990
   14.87916660  107.18499756    2.84999990    2.59999990
   14.88027763  105.44899750    2.78999996    2.57999992
   14.88305569  104.70700073    2.73000002    2.59999990
   14.88611126  104.21600342    3.25000000    2.59999990
   14.88944435  106.40599823    4.90999985    2.50000000
   14.89277744   88.69750214    4.90999985    2.57999992
   14.89583302  107.59300232    4.90999985    2.57999992
   14.89916611   96.01640320    4.90999985    2.51999998
   14.90249920  102.50099945    4.90999985    2.48000002
   14.90555477  109.21499634    4.90999985    2.48000002
   14.90888882  102.45899963    4.90999985    2.55999994
   14.91472149  102.45899963    4.90999985    2.57999992
   14.91888905   99.11109924    4.90999985    2.28999996
   14.92222214  118.71499634    4.90999985    2.28999996
   14.92527771  109.83499908    4.90999985    2.21000004
   14.92861176   98.29620361    4.90999985    2.32999992
   14.93194485  113.29599762    4.90999985    2.40000010
   14.93500042  102.59799957    4.90999985    2.46000004
   14.93833351  106.40299988    4.90999985    2.48000002
   14.94138908  105.97000122    4.90999985    2.51999998
   14.94472218  107.76499939    4.90999985    2.51999998
   14.94694424  104.43099976    4.90999985    2.51999998
   14.94833374  111.14600372    4.90999985    2.50000000
   14.95138836  124.98999786    4.90999985    2.51999998
   14.95749950  124.98999786    4.90999985    2.46000004
   14.96166611  103.34799957    4.90999985    2.48000002
   14.96500015  105.81900024    4.90999985    2.46000004
   14.96833324  118.09400177    4.90999985    2.25000000
   14.97138882  104.85800171    4.90999985    2.15000010
   14.97472191  113.40200043    4.90999985    2.23000002
   14.97777748  117.64800262    4.90999985    2.32999992
   14.98027706  111.67299652    4.90999985    2.36999989
   14.98166656  108.39700317    4.90999985    2.36999989
   14.98472214  103.27300262    4.90999985    2.46000004
   14.98805618  102.65599823    4.90999985    2.46000004
   14.99138927  111.02400208    4.90999985    2.42000008
   14.99444485  109.14900208    4.90999985    2.44000006
   15.00055599  109.14900208    4.90999985    2.36999989
   15.00472260  107.09600067    4.90999985    2.44000006
   15.00777817  106.28600311    4.90999985    2.40000010
   15.01111126  109.28399658    4.90999985    2.50000000
   15.01361084  110.41699982    4.90999985    2.53999996
   15.01472187  104.63999939    4.90999985    2.55999994
   15.01777744  104.14600372    4.13999987    2.59999990
   15.02111053  105.28199768    3.61999989    2.57999992
   15.02444458  105.38400269    3.16000009    2.59999990
   15.02750015  110.67199707    2.89000010    2.61999989
   15.03083324  107.04499817    2.69000006    2.61999989
   15.03388977  104.12500000    2.46000004    2.61999989
   15.03722286  110.36699677    2.46000004    2.61999989
   15.04333401  110.36699677    2.23000002    2.61999989
   15.04750061  115.97899628    2.07999992    2.61999989
   15.14750004   -1.00000000   -1.00000000   -1.00000000
   15.24916649   -1.00000000   -1.00000000   -1.00000000
   15.54055595   -1.00000000   -1.00000000   -1.00000000
   15.67972279   67.50070190    4.69999981    2.55999994
   15.68305588  116.62200165    4.01999998    2.59999990
   15.68638897  105.80100250    4.13999987    2.57999992
   15.68944454  107.61799622    4.90999985    2.57999992
   15.69277763  114.98000336    4.90999985    2.55999994
   15.69611073  103.73699951    4.90999985    2.55999994
   15.69999981  103.73699951    4.90999985    2.55999994
   15.70416641  102.48500061    4.90999985    2.53999996
   15.70749950  103.70600128    4.90999985    2.53999996
   15.71055508  111.11499786    4.90999985    2.53999996
   15.71305561  115.71800232    4.90999985    2.53999996
   15.71444416  125.02200317    4.90999985    2.51999998
   15.71749973  102.00000000    4.90999985    2.55999994
   15.72083282  113.40699768    4.90999985    2.53999996
   15.72388840   97.63009644    4.90999985    2.51999998
   15.72722149  107.79900360    4.90999985    2.51999998
   15.73055553  108.45500183    4.90999985    2.51999998
   15.73361111  102.84799957    4.90999985    2.53999996
   15.73694515   98.32250214    4.90999985    2.51999998
   15.74277782   98.32250214    4.90999985    2.57999992
   15.74694443  101.18800354    4.90999985    2.55999994
   15.75027752  105.48200226    4.90999985    2.55999994
   15.75361156  104.98100281    4.90999985    2.55999994
   15.75666714   99.64409637    4.90999985    2.57999992
   15.76000023   99.74490356    4.90999985    2.59999990
   15.76305580   99.14430237    4.30999994    2.59999990
   15.76638889  110.28900146    4.00000000    2.59999990
   15.76972198  102.72100067    4.61999989    2.55999994
   15.77277756  100.62300110    4.90999985    2.46000004
   15.77611065   94.02670288    4.90999985    2.57999992
   15.77944374  111.11599731    4.65999985    2.61999989
   15.77972221  101.95400238    4.65999985    2.61999989
   15.78583336  101.95400238    4.76000023    2.57999992
   15.79000092   99.77860260    4.90999985    2.57999992
   15.79305553   94.21430206    4.21999979    2.61999989
   15.79638958   90.85250092    3.51999998    2.59999990
   15.79972267   97.66899872    3.05999994    2.64000010
   15.80277824   99.18620300    2.80999994    2.59999990
   15.80611134  102.55999756    2.94000006    2.59999990
   15.80916691   97.40370178    2.69000006    2.61999989
   15.81250000   98.25350189    2.36999989    2.61999989
   15.81305599  105.00000000    2.36999989    2.61999989
   15.81611156  102.90000153    2.42000008    2.64000010
   15.81944466   95.79219818    2.71000004    2.64000010
   15.82250023   91.59190369    3.61999989    2.61999989
   15.82861137   91.59190369    4.90999985    2.42000008
   15.83277798  110.01799774    4.90999985    2.30999994
   15.83611107  114.50199890    4.90999985    2.28999996
   15.83916664  156.23300171    4.90999985    2.09999990
   15.84249973   -1.00000000    4.90999985    2.23000002
   15.84555531  204.50900269    4.90999985    1.53999996
   15.84638882  144.26400757    4.90999985    1.53999996
   15.84916592  117.48799896    4.90999985    1.76999998
   15.85249996  122.64099884    4.90999985    2.50000000
   15.85555553  109.75199890    4.90999985    2.32999992
   15.85888958  104.58799744    4.90999985    2.46000004
   15.86222267  111.60399628    4.90999985    2.50000000
   15.86527824  103.99900055    4.90999985    2.59999990
   15.87138939  103.99900055    4.90999985    2.51999998
   15.87555599  102.10700226    4.73999977    2.57999992
   15.87888908  111.49400330    4.73999977    2.55999994
   15.87972260  100.12200165    4.69999981    2.48000002
   15.88249969  101.38899994    4.90999985    2.57999992
   15.88583279  106.32099915    4.86999989    2.57999992
   15.88888836  102.15299988    4.90999985    2.55999994
   15.89222240  102.92800140    4.90999985    2.57999992
   15.89555550  115.32900238    4.90999985    2.55999994
   15.89861107  101.66999817    4.90999985    2.55999994
   15.90194416   95.50659943    4.90999985    2.57999992
   15.90499973   97.39849854    4.57999992    2.57999992
   15.90833282  101.98600006    4.05999994    2.59999990
   15.91416645  101.98600006    4.40999985    2.61999989
   15.91833401  106.39600372    4.19999981    2.59999990
   15.92166710  105.58799744    4.28999996    2.59999990
   15.92500019  126.97899628    4.90999985    2.61999989
   15.92805576  139.77099609    4.90999985    2.44000006
   15.93138885   97.99870300    4.90999985    1.60000002
   15.93472195  127.04199982    4.90999985    2.61999989
   15.93777752   93.44490051    4.90999985    2.51999998
   15.94111156  101.43399811    4.90999985    2.61999989
   15.94416714   94.99420166    4.90999985    2.51999998
   15.94638920  124.66400146    4.90999985    2.61999989
   15.94777775   98.58409882    4.80000019    2.55999994
   15.95111084  103.68000031    4.53000021    2.61999989
   15.95722198  103.68000031    4.90999985    2.55999994
   15.96138859   94.56230164    4.90999985    2.40000010
   15.96444416   97.39510345    4.90999985    2.55999994
   15.96777725   98.83910370    4.90999985    2.53999996
   15.97111034   98.62010193    4.90999985    2.57999992
   15.97416592  101.02999878    4.90999985    2.55999994
   15.97749996   95.90110016    4.61999989    2.61999989
   15.97972202   93.71520233    4.48999977    2.59999990
   15.98111057   95.39769745    4.53999996    2.59999990
   15.98444462   97.60569763    4.90999985    2.51999998
   15.98750019   99.26760101    4.90999985    2.51999998
   15.99083328  104.44200134    4.90999985    2.48000002
   15.99416733  102.48799896    4.90999985    2.48000002
   16.00000000  102.48799896    4.90999985    2.40000010
   16.00416756  111.94100189    4.90999985    2.28999996
   16.00722313  103.79799652    4.90999985    2.40000010
   16.01055527  105.45899963    4.90999985    2.46000004
   16.01305580  104.20500183    4.90999985    2.50000000
   16.01416588  103.71900177    4.90999985    2.50000000
   16.01749992  104.44599915    4.90999985    2.44000006
   16.02083397   94.54370117    4.90999985    2.42000008
   16.02388954  106.24600220    4.90999985    2.46000004
   16.02722168   96.66069794    4.90999985    2.51999998
   16.03027725   98.85060120    4.90999985    2.57999992
   16.03361130   95.79019928    4.90999985    2.55999994
   16.03694344   95.68969727    4.90999985    2.48000002
   16.04277802   95.68969727    4.90999985    2.48000002
   16.04694366   93.63089752    4.90999985    2.51999998
   16.05027771   99.19539642    4.90999985    2.55999994
   16.05333328   90.66000366    4.90999985    2.57999992
   16.05666542   94.68000031    4.90999985    2.57999992
   16.05999947   90.74359894    4.57999992    2.59999990
   16.06305504   88.03070068    3.76999998    2.61999989
   16.06638718   90.12670135    3.26999998    2.61999989
   16.06944466   90.25890350    3.50000000    2.61999989
   16.07277870   89.85530090    3.20000005    2.64000010
   16.07611275   89.87329865    3.00000000    2.64000010
   16.07916832   92.50050354    4.05999994    2.59999990
   16.08000183   89.11530304    4.55999994    2.57999992
   16.08555603   89.11530304    4.90999985    2.51999998
   16.08972359   97.53189850    4.90999985    2.44000006
   16.09305573  107.27400208    4.90999985    2.48000002
   16.09638977   88.29170227    4.90999985    2.44000006
   16.09944534   97.08370209    4.90999985    2.39000010
   16.10277748   96.91100311    4.90999985    2.46000004
   16.10611153   95.11779785    4.90999985    2.44000006
   16.10916710   96.86910248    4.90999985    2.42000008
   16.11250114   97.02940369    4.90999985    2.34999990
   16.11333466  106.35900116    4.90999985    2.34999990
   16.11611176  102.64199829    4.90999985    2.44000006
   16.11944389   98.28130341    4.90999985    2.42000008
   16.12249947   96.32620239    4.90999985    2.46000004
   16.12861061   96.32620239    4.90999985    2.42000008
   16.13277817  121.73600006    4.90999985    2.48000002
   16.13583374  114.30999756    4.90999985    2.21000004
   16.13916588  107.75599670    4.90999985    2.23000002
   16.14222145  101.36900330    4.90999985    2.17000008
   16.14555550   97.11180115    4.90999985    1.89999998
   16.14666748  215.37300110    4.90999985    1.78999996
   16.14916611   -1.00000000    4.90999985    1.63000000
   16.15250015   -1.00000000    4.90999985    0.83999997
   16.15555573  136.11700439    4.90999985    1.30999994
   16.15888786  137.52499390    4.90999985    2.03999996
   16.16222191  209.89399719    4.90999985    1.98000002
   16.16527748  138.24899292    4.90999985    1.69000006
   16.17138863  138.24899292    4.90999985    1.73000002
   16.17555428  159.75599670    4.90999985    1.71000004
   16.17860985  189.73899841    4.90999985    1.86000001
   16.18000031  255.02799988    4.90999985    1.86000001
   16.18222237  178.61799622    4.90999985    1.75000000
   16.18555450  130.89300537    4.90999985    1.73000002
   16.18861008  156.12600708    4.90999985    1.69000006
   16.19194412  150.14100647    4.90999985    1.86000001
   16.19527626  292.96701050    4.90999985    1.98000002
   16.19833183  277.70401001    4.90999985    1.75000000
   16.20166779  120.83799744    4.90999985    1.91999996
   16.20499992  136.39100647    4.90999985    2.00000000
   16.20805550  132.30999756    4.90999985    1.88000000
   16.21416664  132.30999756    4.90999985    1.98000002
   16.21833420  188.81900024    4.90999985    1.86000001
   16.22166634  235.06300354    4.90999985    1.71000004
   16.22472191  199.59500122    4.90999985    1.86000001
   16.22805595  157.21400452    4.90999985    1.86000001
   16.23139000  167.39999390    4.90999985    1.75000000
   16.23444557   -1.00000000    4.90999985    1.75000000
   16.23777771   92.40229797    4.90999985    1.60000002
   16.24083328  168.08700562    4.90999985    1.78999996
   16.24416733  160.21000671    4.90999985    1.80999994
   16.24666786  221.48199463    4.90999985    1.71000004
   16.24777794  168.77499390    4.90999985    1.75000000
   16.25111198   -1.00000000    4.90999985    1.83000004
   16.25694466   -1.00000000    4.90999985    1.41999996
   16.26111031   -1.00000000    4.90999985    1.34000003
   16.26444435   -1.00000000    4.90999985    1.46000004
   16.26777840   -1.00000000    4.90999985    1.55999994
   16.27083397   -1.00000000    4.90999985    1.51999998
   16.27416611   -1.00000000    4.90999985    1.44000006
   16.27750015   80.22769928    4.90999985    1.28999996
   16.28083229   46.54909897    4.90999985    1.71000004
   16.28416634  184.87199402    4.90999985    1.80999994
   16.28722191  166.81599426    4.90999985    1.80999994
   16.29055595   88.55220032    4.90999985    1.71000004
   16.29388809   -1.00000000    4.90999985    1.60000002
   16.29999924   -1.00000000    4.90999985    1.44000006
   16.30416679   -1.00000000    4.90999985    1.38000000
   16.30722237   -1.00000000    4.90999985    1.09000003
   16.31055450  188.73599243    4.90999985    1.09000003
   16.31333351  138.08099365    4.90999985    1.71000004
   16.31416512  150.34399414    4.90999985    1.89999998
   16.31750107   -1.00000000    4.90999985    1.83000004
   16.32055664   -1.00000000    4.90999985    1.23000002
   16.32389069   -1.00000000    4.90999985    1.11000001
   16.32722282   -1.00000000    4.90999985    1.33000004
   16.33027840   -1.00000000    4.90999985    1.48000002
   16.33361244   -1.00000000    4.90999985    1.03999996
   16.33694458   -1.00000000    4.90999985    1.21000004
   16.34277916   -1.00000000    4.90999985    1.50000000
   16.34694481   99.37519836    4.90999985    2.48000002
   16.35000038  103.06700134    4.90999985    2.55999994
   16.35333443  102.41300201    4.90999985    2.55999994
   16.35666656  109.79100037    4.90999985    2.59999990
   16.35972214  104.17199707    4.90999985    2.53999996
   16.36305618  105.04799652    4.90999985    2.46000004
   16.36638832   93.12640381    4.90999985    2.46000004
   16.36944389   97.14019775    4.90999985    2.34999990
   16.37277794  152.53100586    4.90999985    2.19000006
   16.37583351   -1.00000000    4.90999985    2.00000000
   16.37916756   -1.00000000    4.90999985    1.76999998
   16.38555527   -1.00000000    4.90999985    1.39999998
   16.38972282   -1.00000000    4.90999985    1.53999996
   16.39305496   -1.00000000    4.90999985    1.36000001
   16.39611053  123.80100250    4.90999985    1.78999996
   16.39944458   -1.00000000    4.90999985    1.48000002
   16.40277672   -1.00000000    4.90999985    1.63000000
   16.40583229  212.60200500    4.90999985    1.71000004
   16.40916634  114.28199768    4.90999985    1.89999998
   16.41222191  112.05100250    4.90999985    2.25000000
   16.41333389  105.13800049    4.90999985    2.28999996
   16.41583252   97.58239746    4.90999985    2.25000000
   16.41916656  107.62000275    4.90999985    2.23000002
   16.42249870  162.45500183    4.90999985    2.17000008
   16.42833328  162.45500183    4.90999985    1.98000002
   16.43249893   -1.00000000    4.90999985    0.80000001
   16.43583298   -1.00000000    4.90999985    0.23000000
   16.43916512   -1.00000000    4.90999985    0.19000000
   16.44222069   -1.00000000    4.90999985    0.41999999
   16.44555473  201.58000183    4.90999985    1.19000006
   16.44666672  142.79400635    4.90999985    1.75000000
   16.44888878   -1.00000000    4.90999985    1.89999998
   16.45222282   -1.00000000    4.90999985    1.25000000
   16.45555687   -1.00000000    4.90999985    0.55000001
   16.45861244   -1.00000000    4.90999985    1.48000002
   16.46194458   -1.00000000    4.90999985    1.36000001
   16.46527863   -1.00000000    4.90999985    1.46000004
   16.47138977   -1.00000000    4.90999985    1.25000000
   16.47555542   -1.00000000    4.90999985    0.98000002
   16.47888947   -1.00000000    4.90999985    0.70999998
   16.48222351   -1.00000000    4.90999985    1.09000003
   16.48555565   -1.00000000    4.90999985    1.46000004
   16.48861122   -1.00000000    4.90999985    0.81999999
   16.49194527   -1.00000000    4.90999985    1.26999998
   16.49527740   -1.00000000    4.90999985    1.33000004
   16.49833298   -1.00000000    4.90999985    1.25000000
   16.50166702   -1.00000000    4.90999985    0.98000002
   16.50499916   -1.00000000    4.90999985    0.73000002
   16.50805473   -1.00000000    4.90999985    0.58999997
   16.51833344   -1.00000000    4.90999985    0.31999999
   16.52138901   -1.00000000    4.90999985    0.03000000
   16.52472115   -1.00000000    4.90999985    0.01000000
   16.52777672   -1.00000000    4.90999985    0.01000000
   16.53111076   -1.00000000    4.90999985    0.01000000
   16.53444481   -1.00000000    4.90999985    0.01000000
   16.53750038   -1.00000000    4.90999985    0.01000000
   16.54083252   -1.00000000    3.05999994    0.01000000
   16.54416656   -1.00000000    4.90999985    0.05000000
   16.54666710  148.00500488    4.90999985    0.47999999
   16.54749870  206.13299561    4.90999985    1.09000003
   16.55083275  155.81799316    4.90999985    2.00000000
   16.55694389  155.81799316    4.90999985    1.83000004
   16.56110954  107.20400238    4.90999985    2.13000011
   16.56444359  210.10000610    4.90999985    2.15000010
   16.56750107   -1.00000000    4.90999985    2.07999992
   16.57083511  269.23098755    4.90999985    1.58000004
   16.57416725   -1.00000000    4.90999985    2.07999992
   16.57722282   -1.00000000    4.90999985    1.05999994
   16.58083344   -1.00000000    4.90999985    0.70999998
   16.58416748   -1.00000000    4.90999985    0.52999997
   16.58722305   -1.00000000    4.90999985    0.75000000
   16.59055710   -1.00000000    4.90999985    0.79000002
   16.59388924   -1.00000000    4.90999985    0.41999999
   16.60388947   -1.00000000    4.90999985    0.19000000
   16.60722351   -1.00000000    4.90999985    0.15000001
   16.61027908   -1.00000000    4.90999985    0.44000000
   16.61388969   -1.00000000    4.90999985    0.44000000
   16.61722183   -1.00000000    4.90999985    0.70999998
   16.62027740   -1.00000000    4.90999985    0.75000000
   16.62361145   -1.00000000    4.90999985    1.01999998
   16.62694550   -1.00000000    4.90999985    0.95999998
   16.63000107   -1.00000000    4.90999985    1.01999998
   16.63333321   -1.00000000    4.90999985    1.21000004
   16.63666725   -1.00000000    4.90999985    0.79000002
   16.64666748   -1.00000000    4.90999985    0.67000002
   16.64999962   -1.00000000    4.90999985    0.86000001
   16.65333366   -1.00000000    4.90999985    0.70999998
   16.65638924   -1.00000000    4.90999985    0.55000001
   16.65972137   -1.00000000    4.90999985    0.40000001
   16.66277695   -1.00000000    4.90999985    0.51999998
   16.66611099   -1.00000000    4.90999985    0.52999997
   16.66944313   -1.00000000    4.90999985    0.94000000
   16.67249870   -1.00000000    4.90999985    0.69000000
   16.67583275   -1.00000000    4.90999985    0.79000002
   16.67916679   -1.00000000    4.90999985    1.13000000
   16.70472336   -1.00000000    4.90999985    0.55000001
   16.70777893   -1.00000000    4.90999985    0.75000000
   16.71111107   -1.00000000    4.90999985    0.55000001
   16.71472359   -1.00000000    4.90999985    0.70999998
   16.71805573   -1.00000000    4.90999985    0.63000000
   16.72111130   -1.00000000    4.90999985    0.47999999
   16.72444534   -1.00000000    4.90999985    0.38000000
   16.72777748   -1.00000000    4.90999985    0.30000001
   16.73083305   -1.00000000    4.90999985    0.20999999
   16.73416710   -1.00000000    4.90999985    0.20999999
   16.73750114   -1.00000000    4.90999985    0.13000000
   16.74749947   -1.00000000    4.90999985    0.09000000
   16.75055504   -1.00000000    4.90999985    0.11000000
   16.75388908   -1.00000000    4.90999985    0.09000000
   16.75722313   -1.00000000    4.90999985    0.05000000
   16.76027870   -1.00000000    4.90999985    0.01000000
   16.76361084   -1.00000000    4.90999985    0.03000000
   16.76666641   -1.00000000    4.90999985    0.05000000
   16.77000046   -1.00000000    4.90999985    0.07000000
   16.77333260   -1.00000000    4.90999985    0.20999999
   16.77638817   -1.00000000    4.90999985    0.17000000
   16.77972221   -1.00000000    4.90999985    0.13000000
   16.79027748   -1.00000000    4.90999985    0.25999999
   16.79361153   -1.00000000    4.90999985    0.20999999
   16.79666710   -1.00000000    4.90999985    0.30000001
   16.79999924   -1.00000000    4.90999985    0.36000001
   16.80305481   -1.00000000    4.90999985    0.28000000
   16.80638885   -1.00000000    4.90999985    0.25000000
   16.80972099   -1.00000000    4.90999985    0.19000000
   16.81277657   -1.00000000    4.90999985    0.17000000
   16.81638718   -1.00000000    4.90999985    0.11000000
   16.81972313   -1.00000000    4.90999985    0.09000000
   16.82277870   -1.00000000    4.90999985    0.09000000
   16.83305550   -1.00000000    4.90999985    0.07000000
   16.83638954   -1.00000000    4.90999985    0.13000000
   16.83944511   -1.00000000    4.90999985    0.17000000
   16.84277916   -1.00000000    4.90999985    0.13000000
   16.84611130   -1.00000000    4.90999985    0.25000000
   16.84944534   -1.00000000    4.90999985    0.28000000
   16.85277748   -1.00000000    4.90999985    0.25999999
   16.85583305   -1.00000000    4.90999985    0.40000001
   16.85916710   -1.00000000    4.90999985    0.44000000
   16.86250114   -1.00000000    4.90999985    0.46000001
   16.86555672   -1.00000000    4.90999985    0.55000001
   16.87583351   -1.00000000    4.90999985    0.51999998
   16.87916756   -1.00000000    4.90999985    0.25000000
   16.88277817   -1.00000000    4.90999985    0.41999999
   16.88611031   -1.00000000    4.90999985    0.25000000
   16.88916588   -1.00000000    4.90999985    0.47999999
   16.89249992   -1.00000000    4.90999985    0.40000001
   16.89583397   -1.00000000    4.90999985    0.40000001
   16.89888954   -1.00000000    4.90999985    0.31999999
   16.90222168   -1.00000000    4.90999985    0.25999999
   16.90555573   -1.00000000    4.90999985    0.28000000
   16.90861130   -1.00000000    4.90999985    0.34000000
   16.91888809   -1.00000000    4.90999985    0.44000000
   16.92194366   -1.00000000    4.90999985    0.50000000
   16.92527771   -1.00000000    4.90999985    0.69000000
   16.92860985   -1.00000000    4.90999985    0.81999999
   16.93166542   -1.00000000    4.90999985    0.67000002
   16.93499947   -1.00000000    4.90999985    0.76999998
   16.93805504   -1.00000000    4.90999985    0.67000002
   16.94138718   -1.00000000    4.90999985    0.52999997
   16.94472122   -1.00000000    4.90999985    0.30000001
   16.94805527   -1.00000000    4.90999985    0.25000000
   16.95138931   -1.00000000    4.90999985    0.20999999
   16.96166801   -1.00000000    4.90999985    0.11000000
   16.96500015   -1.00000000    4.90999985    0.07000000
   16.96805573   -1.00000000    4.90999985    0.03000000
   16.97138977   -1.00000000    4.90999985    0.05000000
   16.97444534   -1.00000000    4.90999985    0.07000000
   16.97777748   -1.00000000    4.90999985    0.05000000
   16.98139000   -1.00000000    4.90999985    0.05000000
   16.98472214   -1.00000000    4.90999985    0.05000000
   16.98777771   -1.00000000    4.90999985    0.05000000
   16.99111176   -1.00000000    4.90999985    0.07000000
   16.99444389   -1.00000000    4.90999985    0.11000000
   17.00444412   -1.00000000    4.90999985    0.09000000
   17.00777817   -1.00000000    4.90999985    0.05000000
   17.01083374   -1.00000000    4.90999985    0.05000000
   17.01444435   -1.00000000    4.90999985    0.07000000
   17.01777840   -1.00000000    4.90999985    0.11000000
   17.02083397   -1.00000000    4.90999985    0.15000001
   17.02416611   -1.00000000    4.90999985    0.09000000
   17.02750015   -1.00000000    4.90999985    0.11000000
   17.03055573   -1.00000000    4.90999985    0.07000000
   17.03388786   -1.00000000    4.90999985    0.03000000
   17.03722191   -1.00000000    4.90999985    0.05000000
   17.04722214   -1.00000000    4.67999983    0.01000000
   17.05055428   -1.00000000    3.46000004    0.01000000
   17.05388832   -1.00000000    4.90999985    0.03000000
   17.05694389   -1.00000000    4.90999985    0.07000000
   17.06027794   -1.00000000    4.90999985    0.09000000
   17.06361008   -1.00000000    4.90999985    0.17000000
   17.06666756   -1.00000000    4.90999985    0.17000000
   17.07000160   -1.00000000    4.90999985    0.17000000
   17.07305717   -1.00000000    4.90999985    0.20999999
   17.07638931   -1.00000000    4.90999985    0.13000000
   17.07972336   -1.00000000    4.90999985    0.17000000
   17.09027863   -1.00000000    4.90999985    0.05000000
   17.09333420   -1.00000000    4.90999985    0.03000000
   17.09666824   -1.00000000    4.90999985    0.03000000
   17.10000038   -1.00000000    4.90999985    0.05000000
   17.10305595   -1.00000000    4.90999985    0.09000000
   17.10639000   -1.00000000    4.90999985    0.13000000
   17.10944557   -1.00000000    4.90999985    0.13000000
   17.11277771   -1.00000000    4.90999985    0.17000000
   17.11611176   -1.00000000    4.90999985    0.17000000
   17.11944389   -1.00000000    4.90999985    0.17000000
   17.12277794   -1.00000000    4.90999985    0.17000000
   17.13305473   -1.00000000    4.90999985    0.13000000
   17.13638878   -1.00000000    4.90999985    0.17000000
   17.13944435   -1.00000000    4.90999985    0.15000001
   17.14277840   -1.00000000    4.90999985    0.05000000
   17.14583397   -1.00000000    4.90999985    0.09000000
   17.14944458   -1.00000000    4.90999985    0.11000000
   17.15277672   -1.00000000    4.90999985    0.13000000
   17.15611076   -1.00000000    4.90999985    0.09000000
   17.15916634   -1.00000000    4.90999985    0.17000000
   17.16250038   -1.00000000    4.90999985    0.20999999
   17.16555595   -1.00000000    4.90999985    0.19000000
   17.17583275   -1.00000000    4.90999985    0.20999999
   17.17916679   -1.00000000    4.90999985    0.30000001
   17.18249893   -1.00000000    4.90999985    0.31999999
   17.18583298   -1.00000000    4.90999985    0.34000000
   17.18916512   -1.00000000    4.90999985    0.47999999
   17.19222069   -1.00000000    4.90999985    0.47999999
   17.19555473   -1.00000000    4.90999985    0.47999999
   17.19861031   -1.00000000    4.90999985    0.36000001
   17.20194435   -1.00000000    4.90999985    0.40000001
   17.20527840   -1.00000000    4.90999985    0.40000001
   17.20833397   -1.00000000    4.90999985    0.38000000
   17.21861076   -1.00000000    4.90999985    0.15000001
   17.22194481   -1.00000000    4.90999985    0.23000000
   17.22527885   -1.00000000    4.90999985    0.20999999
   17.22833443   -1.00000000    4.90999985    0.28000000
