    HOUR (UT)   FLARE FACTOR    SKY TESTER    SUN TESTER
   12.28527832   -1.00000000   -1.00000000   -1.00000000
   12.36750031  161.75300598    1.05999994    2.57999992
   12.37055588  156.78599548    1.05999994    2.57999992
   12.37388897  146.05000305    1.05999994    2.57999992
   12.37722206  146.78100586    1.03999996    2.57999992
   12.38027763  164.91900635    1.03999996    2.57999992
   12.38361073  160.73699951    1.03999996    2.57999992
   12.38777733  160.73699951    1.05999994    2.57999992
   12.39194393  159.90600586    1.07000005    2.59999990
   12.39499950  138.83099365    1.07000005    2.59999990
   12.39833355  147.44099426    1.07000005    2.57999992
   12.40083313  134.19500732    1.07000005    2.59999990
   12.40194416  148.20100403    1.07000005    2.57999992
   12.40527725  133.45899963    1.07000005    2.59999990
   12.40833282  149.02600098    1.07000005    2.59999990
   12.41166592  140.86300659    1.07000005    2.59999990
   12.41499996  154.71200562    1.05999994    2.59999990
   12.41805553  137.25300598    1.05999994    2.59999990
   12.42138958  141.54200745    1.05999994    2.59999990
   12.42472267  133.71499634    1.05999994    2.59999990
   12.43055630  133.71499634    1.05999994    2.59999990
   12.43472195  157.74200439    1.05999994    2.59999990
   12.43805599  143.46400452    1.05999994    2.59999990
   12.44111156  139.14700317    1.05999994    2.59999990
   12.44444466  146.25999451    1.05999994    2.59999990
   12.44750023  144.12199402    1.05999994    2.61999989
   12.45083332  147.97500610    1.03999996    2.59999990
   12.45416641  129.83399963    1.05999994    2.59999990
   12.45722198  145.99699402    1.03999996    2.59999990
   12.46055508  137.13400269    1.03999996    2.59999990
   12.46388912  148.38699341    1.05999994    2.59999990
   12.46694374  161.70300293    1.03999996    2.59999990
   12.46749973  158.33299255    1.03999996    2.59999990
   12.47333336  158.33299255    1.05999994    2.59999990
   12.47749996  128.37699890    1.05999994    2.59999990
   12.48083305  148.63499451    1.03999996    2.61999989
   12.48388958  156.26199341    1.03999996    2.61999989
   12.48722267  151.83599854    1.03999996    2.61999989
   12.49055576  146.22000122    1.03999996    2.61999989
   12.49361134  159.29299927    1.03999996    2.59999990
   12.49694443  154.74800110    1.03999996    2.59999990
   12.50027752  145.69599915    1.03999996    2.61999989
   12.50083351  154.14999390    1.03999996    2.61999989
   12.50388908  149.38099670    1.03999996    2.61999989
   12.50694466  160.37100220    1.03999996    2.61999989
   12.51027775  163.29699707    1.03999996    2.61999989
   12.51638889  163.29699707    1.01999998    2.64000010
   12.52027798  156.39599609    1.01999998    2.64000010
   12.52361107  142.20399475    1.01999998    2.61999989
   12.52694416  139.34800720    1.00000000    2.61999989
   12.52999973  169.27099609    1.00000000    2.61999989
   12.53333378  151.61199951    1.00000000    2.64000010
   12.53416729  140.75500488    1.00000000    2.64000010
   12.53722286  143.59100342    1.00000000    2.64000010
   12.54027843  155.53599548    1.01999998    2.61999989
   12.54361153  150.82899475    1.00000000    2.64000010
   12.54694462  143.52499390    1.01999998    2.61999989
   12.55000019  168.39100647    1.00000000    2.61999989
   12.55333328  159.99299622    1.00000000    2.61999989
   12.55916691  159.99299622    1.00000000    2.61999989
   12.56333351  143.63200378    1.00000000    2.64000010
   12.56638908  142.02999878    1.01999998    2.64000010
   12.56750011  162.18699646    1.01999998    2.64000010
   12.57027817  142.43699646    1.00000000    2.64000010
   12.57333374  152.56799316    1.00000000    2.64000010
   12.57666683  141.50100708    1.01999998    2.64000010
   12.57999992  168.01600647    1.01999998    2.64000010
   12.58305550  146.32899475    1.01999998    2.64000010
   12.58638859  153.62399292    1.00000000    2.64000010
   12.58944416  163.13099670    1.00000000    2.64000010
   12.59277725  140.22099304    1.00000000    2.64000010
   12.59611034  142.05799866    1.00000000    2.64000010
   12.60194492  142.05799866    1.00000000    2.64000010
   12.60611153  142.33399963    1.00000000    2.64000010
   12.60916710  159.58999634    1.00000000    2.64000010
   12.61250019  170.68299866    0.98000002    2.64000010
   12.61583328  143.54800415    0.98000002    2.64000010
   12.61888885  148.06500244    0.98000002    2.64000010
   12.62222195  150.12199402    0.98000002    2.64000010
   12.62555599  147.75799561    0.98000002    2.64000010
   12.62861156  152.03100586    0.98000002    2.64000010
   12.63194466  141.14399719    0.98000002    2.64000010
   12.63416672  141.88800049    0.98000002    2.64000010
   12.63555527  132.83900452    0.98000002    2.64000010
   12.63861084  137.91400146    0.98000002    2.66000009
   12.64472198  137.91400146    0.98000002    2.64000010
   12.64888859  130.31799316    0.98000002    2.66000009
   12.65222168  127.97599792    0.98000002    2.64000010
   12.65527725  132.32400513    0.98000002    2.64000010
   12.65861034  129.45500183    0.98000002    2.64000010
   12.66194439  147.12399292    0.98000002    2.64000010
   12.66499996  151.94400024    0.95999998    2.64000010
   12.66750050  139.20399475    0.95999998    2.66000009
   12.66888905  140.42399597    0.95999998    2.66000009
   12.67194462  135.33799744    0.95999998    2.64000010
   12.67527771  142.09500122    0.95999998    2.66000009
   12.67861176  154.75799561    0.94000000    2.66000009
   12.68166733  161.72000122    0.94000000    2.66000009
   12.68750000  161.72000122    0.95999998    2.66000009
   12.69166660  136.24899292    0.94000000    2.66000009
   12.69499969  150.39700317    0.94000000    2.66000009
   12.69833374  138.63000488    0.95999998    2.66000009
   12.70083332  154.47599792    0.95999998    2.66000009
   12.70194435  141.17799377    0.95999998    2.66000009
   12.70499992  131.37500000    0.95999998    2.66000009
   12.70833302  148.84899902    0.95999998    2.64000010
   12.71166611  141.02099609    0.95999998    2.64000010
   12.71472168  145.27799988    0.95999998    2.66000009
   12.71805477  144.66299438    0.95999998    2.66000009
   12.72138882  140.75799561    0.95999998    2.66000009
   12.72444439  146.17199707    0.95999998    2.66000009
   12.73055553  146.17199707    0.95999998    2.66000009
   12.73472214  134.85299683    0.95999998    2.66000009
   12.73777771  144.14900208    0.94000000    2.67000008
   12.74111176  153.00199890    0.94000000    2.67000008
   12.74416733  138.94900513    0.94000000    2.67000008
   12.74750042  148.91900635    0.94000000    2.67000008
   12.75083351  145.41900635    0.94000000    2.67000008
   12.75388908  140.09700012    0.94000000    2.66000009
   12.75722218  146.50100708    0.94000000    2.66000009
   12.76055527  167.21499634    0.94000000    2.66000009
   12.76361084  151.88499451    0.94000000    2.66000009
   12.76694393  162.50500488    0.94000000    2.66000009
   12.76749992  152.23800659    0.94000000    2.66000009
   12.77333355  152.23800659    0.92000002    2.67000008
   12.77750015  161.44799805    0.92000002    2.66000009
   12.78055573  157.41700745    0.92000002    2.66000009
   12.78388977  139.92199707    0.92000002    2.67000008
   12.78722286  156.83799744    0.92000002    2.67000008
   12.79027843  160.59599304    0.92000002    2.67000008
   12.79361153  140.47300720    0.92000002    2.67000008
   12.79694462  144.48500061    0.92000002    2.67000008
   12.80000019  169.87699890    0.92000002    2.67000008
   12.80083370  151.43800354    0.92000002    2.67000008
   12.80361176  147.05700684    0.92000002    2.67000008
   12.80666733  150.71800232    0.92000002    2.67000008
   12.81000042  143.02299500    0.92000002    2.67000008
   12.81611156  143.02299500    0.92000002    2.67000008
   12.82027817  128.70899963    0.89999998    2.67000008
   12.82361126  130.65699768    0.89999998    2.67000008
   12.82666683  120.27200317    0.89999998    2.67000008
   12.82999992  157.87300110    0.89999998    2.67000008
   12.83333302  159.27200317    0.89999998    2.67000008
   12.83416653  147.99099731    0.89999998    2.67000008
   12.83694458  150.26600647    0.89999998    2.67000008
   12.84027767  161.56799316    0.89999998    2.69000006
   12.84333324  159.11300659    0.88000000    2.69000006
   12.84666634  150.21800232    0.88000000    2.67000008
   12.84972191  153.28700256    0.88000000    2.69000006
   12.85305595  173.01300049    0.88000000    2.69000006
   12.85916710  173.01300049    0.88000000    2.67000008
   12.86305618  136.85499573    0.88000000    2.67000008
   12.86638927  172.07299805    0.88000000    2.67000008
   12.86750031  159.83999634    0.88000000    2.67000008
   12.86999989  157.95700073    0.88000000    2.67000008
   12.87305546  165.58500671    0.88000000    2.67000008
   12.87638855  159.01300049    0.89999998    2.67000008
   12.87972260  128.95300293    0.88000000    2.67000008
   12.88277817  142.47000122    0.88000000    2.67000008
   12.88611126  142.91600037    0.88000000    2.69000006
   12.88944435  154.45500183    0.88000000    2.69000006
   12.89249992  149.59700012    0.88000000    2.69000006
   12.89583302  144.74899292    0.88000000    2.69000006
   12.90194416  144.74899292    0.88000000    2.69000006
   12.90611076  147.41900635    0.88000000    2.69000006
   12.90916634  147.74600220    0.88000000    2.69000006
   12.91249943  147.65100098    0.86000001    2.71000004
   12.91555500  144.45799255    0.88000000    2.69000006
   12.91888905  156.82899475    0.86000001    2.69000006
   12.92222214  137.36999512    0.86000001    2.67000008
   12.92527771  156.29299927    0.86000001    2.69000006
   12.92861176  164.91700745    0.86000001    2.69000006
   12.93194485  145.04499817    0.86000001    2.69000006
   12.93416691  152.47300720    0.86000001    2.69000006
   12.93555546  153.75300598    0.86000001    2.69000006
   12.93861103  148.98599243    0.86000001    2.69000006
   12.94472218  148.98599243    0.86000001    2.71000004
   12.94888878  141.82499695    0.86000001    2.69000006
   12.95194435  152.37199402    0.86000001    2.69000006
   12.95527744  166.39900208    0.86000001    2.69000006
   12.95861053  135.87100220    0.86000001    2.69000006
   12.96194458  141.62300110    0.86000001    2.69000006
   12.96500015  169.56500244    0.83999997    2.69000006
   12.96749973  175.82699585    0.86000001    2.69000006
   12.96888828  135.78700256    0.86000001    2.71000004
   12.97222137  144.65899658    0.83999997    2.69000006
   12.97527695  149.17399597    0.83999997    2.69000006
   12.97861099  153.60099792    0.83999997    2.71000004
   12.98166656  161.47200012    0.83999997    2.71000004
   12.98750019  161.47200012    0.83999997    2.69000006
   12.99166679  134.25000000    0.86000001    2.71000004
   12.99499989  130.94000244    0.83999997    2.69000006
   12.99805546  133.48699951    0.86000001    2.71000004
   13.00083351  140.23800659    0.86000001    2.71000004
   13.00194454  142.50100708    0.86000001    2.71000004
   13.00527763  146.69999695    0.83999997    2.71000004
   13.00861073  142.34899902    0.83999997    2.71000004
   13.01166630  138.38400269    0.83999997    2.71000004
   13.01500034  151.16600037    0.83999997    2.71000004
   13.01833344  147.87600708    0.83999997    2.71000004
   13.02166653  146.09399414    0.83999997    2.69000006
   13.02499962  146.20599365    0.86000001    2.69000006
   13.03055573  146.20599365    0.83999997    2.71000004
   13.03444481  138.77699280    0.86000001    2.71000004
   13.04666710  158.86399841    0.00000000    0.00000000
   13.06666660  143.89500427    0.00000000    0.00000000
   13.06972218  141.92199707    0.83999997    2.71000004
   13.07611084  141.92199707    0.83999997    2.73000002
   13.08027744  162.26600647    0.86000001    2.71000004
   13.08222198  154.50599670    0.86000001    2.71000004
   13.08388901  149.77299500    0.86000001    2.71000004
   13.08722210  130.30900574    0.86000001    2.71000004
   13.09027767  135.07400513    0.86000001    2.71000004
   13.09499931  145.38800049    0.86000001    2.71000004
   13.09805489  151.78999329    0.86000001    2.71000004
   13.10138893  144.40699768    0.86000001    2.71000004
   13.11166668  162.85000610    0.00000000    0.00000000
   13.11500072  156.52400208    0.88000000    2.71000004
   13.11555576  138.08799744    0.88000000    2.71000004
   13.12111092  138.08799744    0.86000001    2.71000004
   13.12527752  152.78900146    0.86000001    2.71000004
   13.12861156  148.20700073    0.83999997    2.71000004
   13.13166714  143.38600159    0.83999997    2.71000004
   13.13500023  146.16999817    0.83999997    2.71000004
   13.13833332  153.67399597    0.86000001    2.73000002
   13.14138889  143.41499329    0.83999997    2.71000004
   13.14472198  153.44500732    0.83999997    2.71000004
   13.14805508  158.66000366    0.81999999    2.73000002
   13.14888859  166.67500305    0.81999999    2.73000002
   13.15166664  155.10299683    0.81999999    2.73000002
   13.15499973  151.58700562    0.81999999    2.73000002
   13.15805531  162.12600708    0.81999999    2.73000002
   13.16388893  162.12600708    0.81999999    2.73000002
   13.16805553  140.83799744    0.81999999    2.73000002
   13.17138958  162.86199951    0.81999999    2.73000002
   13.17472267  167.25000000    0.81999999    2.73000002
   13.17777824  168.45599365    0.81999999    2.73000002
   13.18111134  158.66900635    0.81999999    2.73000002
   13.18222237  163.25000000    0.81999999    2.73000002
   13.18472195  153.97700500    0.81999999    2.71000004
   13.18805599  171.61300659    0.81999999    2.73000002
   13.19111156  161.39199829    0.81999999    2.71000004
   13.19444466  166.08399963    0.80000001    2.71000004
   13.19750023  161.88999939    0.80000001    2.71000004
   13.20083332  142.90299988    0.81999999    2.73000002
   13.20694447  142.90299988    0.81999999    2.73000002
   13.21111107  178.13499451    0.81999999    2.71000004
   13.21416664  148.84899902    0.81999999    2.73000002
   13.21555519  152.37399292    0.81999999    2.73000002
   13.21777725  147.23300171    0.83999997    2.73000002
   13.22111034  153.16299438    0.83999997    2.73000002
   13.22416592  164.03700256    0.83999997    2.73000002
   13.22749996  159.91299438    0.81999999    2.73000002
   13.23055553  144.19999695    0.81999999    2.73000002
   13.23388958  141.34500122    0.81999999    2.73000002
   13.23722267  163.41499329    0.81999999    2.73000002
   13.24027824  146.67599487    0.83999997    2.73000002
   13.24361134  163.56500244    0.83999997    2.73000002
   13.24972248  163.56500244    0.88000000    2.73000002
   13.25388908  155.31799316    0.89999998    2.73000002
   13.25694466  155.38600159    0.88000000    2.75000000
   13.26027775  162.31599426    0.88000000    2.73000002
   13.26361084  155.15299988    0.88000000    2.73000002
   13.26666641  169.41000366    0.94000000    2.73000002
   13.26999950  158.18099976    0.95999998    2.73000002
   13.27333355  165.86000061    0.95999998    2.73000002
   13.27638817  164.56700134    0.95999998    2.73000002
   13.27972221  153.73500061    0.94000000    2.73000002
   13.28222179  148.69700623    0.94000000    2.73000002
   13.28333378  164.21099854    0.94000000    2.73000002
   13.28666687  153.85200500    0.94000000    2.75000000
   13.29250050  153.85200500    0.94000000    2.73000002
   13.29666710  154.01400757    0.92000002    2.73000002
   13.30000019  156.41600037    0.92000002    2.73000002
   13.30305576  147.91600037    0.94000000    2.73000002
   13.30638885  152.43699646    0.94000000    2.75000000
   13.30944443  148.70899963    0.95999998    2.73000002
   13.31277752  146.14399719    0.94000000    2.75000000
   13.31555557  143.95100403    0.94000000    2.75000000
   13.31638908  142.99800110    0.92000002    2.73000002
   13.31972218  142.93400574    0.92000002    2.75000000
   13.32277775  148.28100586    0.92000002    2.75000000
   13.32611084  139.64999390    0.92000002    2.73000002
   13.32916641  150.04499817    0.88000000    2.75000000
   13.33527756  150.04499817    0.88000000    2.73000002
   13.33944416  139.29499817    0.88000000    2.75000000
   13.34277725  148.84599304    0.86000001    2.73000002
   13.34583282  139.01400757    0.86000001    2.73000002
   13.34888840  150.67300415    0.86000001    2.73000002
   13.34972191  155.16000366    0.86000001    2.73000002
   13.35305595  162.30799866    0.86000001    2.75000000
   13.35611153  142.23500061    0.86000001    2.75000000
   13.35944462  153.95399475    0.86000001    2.73000002
   13.36250019  143.44000244    0.86000001    2.75000000
   13.36583328  142.88499451    0.86000001    2.73000002
   13.36916637  154.03300476    0.86000001    2.75000000
   13.37222195  144.18699646    0.86000001    2.73000002
   13.39249992   86.21219635    0.83999997    2.75000000
   13.39305496  102.69799805    0.83999997    2.75000000
   13.39638901  160.18499756    0.83999997    2.75000000
   13.39972210  146.57899475    0.81999999    2.75000000
   13.40277767  175.41200256    0.81999999    2.75000000
   13.40611076  164.61700439    0.81999999    2.75000000
   13.40916634  145.98300171    0.81999999    2.75000000
   13.41249943  142.29200745    0.81999999    2.73000002
   13.41583252  148.30200195    0.81999999    2.73000002
   13.42111111  148.30200195    0.81999999    2.75000000
   13.42527771  143.66799927    0.83999997    2.75000000
   13.42583370  150.67100525    0.83999997    2.75000000
   13.42916679  143.03399658    0.83999997    2.73000002
   13.43249989  141.70100403    0.83999997    2.73000002
   13.43555546  148.16600037    0.83999997    2.75000000
   13.43888855  154.25700378    0.81999999    2.75000000
   13.44194412  139.65100098    0.83999997    2.73000002
   13.44527817  149.29200745    0.83999997    2.73000002
   13.44861126  148.60699463    0.83999997    2.75000000
   13.45194435  149.79100037    0.83999997    2.75000000
   13.45499992  151.11000061    0.83999997    2.75000000
   13.45833302  135.91900635    0.83999997    2.75000000
   13.45916653  151.72900391    0.83999997    2.75000000
   13.46388912  151.72900391    0.83999997    2.75000000
   13.46916580  137.55400085    0.81999999    2.75000000
   13.47222137  143.48899841    0.81999999    2.75000000
   13.47555542  145.69700623    0.81999999    2.75000000
   13.47888851  130.08999634    0.81999999    2.75000000
   13.48194408  149.35400391    0.83999997    2.73000002
   13.48527813  146.28599548    0.83999997    2.75000000
   13.48833370  147.66200256    0.83999997    2.75000000
   13.49166679  157.05499268    0.83999997    2.75000000
   13.49250031  150.62800598    0.83999997    2.75000000
   13.49527836  163.42300415    0.81999999    2.75000000
   13.49861145  152.33500671    0.81999999    2.75000000
   13.50194454  155.84599304    0.83999997    2.75000000
   13.50694466  155.84599304    0.81999999    2.75000000
   13.51111126  144.59100342    0.81999999    2.75000000
   13.51416683  151.70199585    0.83999997    2.75000000
   13.51749992  138.83299255    0.83999997    2.75000000
   13.52083302  150.49000549    0.83999997    2.75000000
   13.52388859  149.10000610    0.83999997    2.75000000
   13.52583313  141.99000549    0.83999997    2.75000000
   13.52750015  140.09399414    0.83999997    2.75000000
   13.53083324  147.27600098    0.83999997    2.75000000
   13.53416729  150.08999634    0.86000001    2.75000000
   13.53722286  152.15899658    0.86000001    2.75000000
   13.54055595  141.83399963    0.86000001    2.75000000
   13.54361153  144.74000549    0.86000001    2.75000000
   13.54972267  144.74000549    0.86000001    2.75000000
   13.55361176  147.41600037    0.86000001    2.75000000
   13.55694485  145.78700256    0.83999997    2.75000000
   13.55916691  153.96000671    0.83999997    2.75000000
   13.56055546  145.63800049    0.83999997    2.75000000
   13.56388950  149.82499695    0.86000001    2.75000000
   13.56722260  138.89799500    0.86000001    2.75000000
   13.57027817  148.57600403    0.86000001    2.75000000
   13.57361126  143.35899353    0.86000001    2.75000000
   13.57666683  150.75700378    0.88000000    2.75000000
   13.57999992  140.24499512    0.88000000    2.75000000
   13.58333302  147.18899536    0.88000000    2.75000000
   13.58638859  142.13699341    0.88000000    2.75000000
   13.59249973  142.13699341    0.89999998    2.75000000
   13.59666634  152.44999695    0.89999998    2.75000000
   13.59972191  157.75999451    0.89999998    2.75000000
   13.60305595  143.21000671    0.88000000    2.75000000
   13.60638905  149.64700317    0.88000000    2.75000000
   13.60944462  132.53599548    0.89999998    2.75000000
   13.61277771  151.02600098    0.89999998    2.75000000
   13.61611176  147.82699585    0.89999998    2.75000000
   13.61916637  152.36900330    0.89999998    2.75000000
   13.62250042  139.25100708    0.89999998    2.75000000
   13.62555599  140.72200012    0.88000000    2.75000000
   13.62611103  146.75199890    0.88000000    2.75000000
   13.62944412  142.22900391    0.88000000    2.75000000
   13.63527775  142.22900391    0.89999998    2.75000000
   13.63944435  148.06399536    0.89999998    2.73000002
   13.64277744  154.86799622    0.89999998    2.75000000
   13.64583302  144.38499451    0.89999998    2.75000000
   13.64916611  145.06900024    0.92000002    2.75000000
   13.65222168  145.37399292    0.92000002    2.75000000
   13.65555477  136.14599609    0.92000002    2.75000000
   13.65888882  134.92100525    0.92000002    2.75000000
   13.65944386  141.97700500    0.92000002    2.75000000
   13.66249943  141.81399536    0.89999998    2.75000000
   13.66583252  144.69700623    0.92000002    2.75000000
   13.66916656  141.83299255    0.92000002    2.75000000
   13.67250061  134.25100708    0.92000002    2.75000000
   13.67805576  134.25100708    0.92000002    2.75000000
   13.68222237  146.03100586    0.92000002    2.75000000
   13.68555546  141.48800659    0.92000002    2.75000000
   13.68861103  144.09700012    0.89999998    2.75000000
   13.69194412  141.73100281    0.89999998    2.73000002
   13.69277763  139.09599304    0.89999998    2.73000002
   13.69555569  141.41700745    0.89999998    2.75000000
   13.69888878  145.66400146    0.89999998    2.75000000
   13.70194435  150.87800598    0.89999998    2.73000002
   13.70527744  149.59500122    0.88000000    2.76999998
   13.70861053  136.42300415    0.88000000    2.75000000
   13.71166611  143.15400696    0.88000000    2.75000000
   13.71500015  134.83999634    0.88000000    2.75000000
   13.72111034  134.83999634    0.88000000    2.75000000
   13.72499943  149.64900208    0.88000000    2.75000000
   13.72611046  150.71800232    0.88000000    2.75000000
   13.72861099  152.84899902    0.88000000    2.75000000
   13.73194408  146.66799927    0.88000000    2.75000000
   13.73500061  137.71899414    0.88000000    2.75000000
   13.73833370  140.76800537    0.88000000    2.73000002
   13.74166679  141.16999817    0.88000000    2.73000002
   13.74472237  147.70199585    0.86000001    2.75000000
   13.74805546  145.58000183    0.86000001    2.75000000
   13.75111103  146.72799683    0.86000001    2.75000000
   13.75444412  146.56700134    0.86000001    2.75000000
   13.75777817  148.69000244    0.86000001    2.73000002
   13.75944424  141.32899475    0.86000001    2.75000000
   13.76388931  141.32899475    0.86000001    2.75000000
   13.76805496  147.13699341    0.86000001    2.76999998
   13.77111053  147.69500732    0.86000001    2.76999998
   13.77444458  148.12899780    0.86000001    2.76999998
   13.77777767  131.60600281    0.86000001    2.76999998
   13.78111076  139.87800598    0.89999998    2.76999998
   13.78416729  143.73800659    0.92000002    2.75000000
   13.78750038  141.26600647    0.89999998    2.76999998
   13.79055595  145.03500366    0.89999998    2.76999998
   13.79277802  141.71699524    0.89999998    2.76999998
   13.79416752  149.38400269    0.89999998    2.76999998
   13.79750061  153.10400391    0.89999998    2.76999998
   13.80055618  152.22900391    0.88000000    2.76999998
   13.80666733  152.22900391    0.86000001    2.78999996
   13.81083393  148.30900574    0.86000001    2.76999998
   13.81416702  149.90100098    0.86000001    2.76999998
   13.81722260  160.35299683    0.86000001    2.78999996
   13.82055569  147.33500671    0.86000001    2.76999998
   13.82361126  141.76400757    0.88000000    2.76999998
   13.82638836  150.00300598    0.88000000    2.76999998
   13.82722187  158.30999756    0.88000000    2.75000000
   13.83055592  149.63099670    0.88000000    2.76999998
   13.83361053  145.30400085    0.88000000    2.76999998
   13.83694458  145.54100037    0.88000000    2.76999998
   13.84027767  155.97500610    0.92000002    2.76999998
   13.84333324  149.67500305    0.89999998    2.76999998
   13.85027790  149.67500305    0.89999998    2.75000000
   13.85444450  153.24800110    0.89999998    2.76999998
   13.85750008  166.13400269    0.94000000    2.75000000
   13.85972214  161.11599731    0.92000002    2.76999998
   13.86111164  155.96499634    0.92000002    2.76999998
   13.86444473  149.38000488    0.94000000    2.76999998
   13.86777782  156.00700378    0.89999998    2.76999998
   13.87083340  164.18299866    0.86000001    2.76999998
   13.87416649  150.50500488    0.86000001    2.76999998
   13.87750053  151.68200684    0.86000001    2.78999996
   13.88055611  152.79499817    0.86000001    2.78999996
   13.88388920  147.88699341    0.81999999    2.76999998
   13.88694477  153.34700012    0.83999997    2.76999998
   13.89249992  153.34700012    0.81999999    2.76999998
   13.89666653  149.49099731    0.81999999    2.76999998
   13.89972210  146.16099548    0.81999999    2.75000000
   13.90305519  135.58299255    0.81999999    2.76999998
   13.90611076  151.74000549    0.80000001    2.78999996
   13.90944386  141.90499878    0.81999999    2.78999996
   13.91277695  132.06100464    0.81999999    2.76999998
   13.91583252  153.23100281    0.80000001    2.76999998
   13.91916656  150.67100525    0.80000001    2.78999996
   13.92250061  142.34199524    0.80000001    2.78999996
   13.92555618  151.29600525    0.80000001    2.76999998
   13.92750072  145.11399841    0.80000001    2.76999998
   13.92944431  147.22999573    0.79000002    2.76999998
   13.93527794  147.22999573    0.79000002    2.76999998
   13.93944454  142.36399841    0.79000002    2.78999996
   13.94250011  137.11000061    0.79000002    2.78999996
   13.94583321  132.22999573    0.79000002    2.75000000
   13.94916630  152.22000122    0.79000002    2.76999998
   13.95222187  167.87300110    0.79000002    2.76999998
   13.95555496  152.19000244    0.79000002    2.78999996
   13.95861053  138.19200134    0.79000002    2.78999996
   13.96083355  147.25700378    0.79000002    2.78999996
   13.96249962  156.91000366    0.76999998    2.76999998
   13.96555519  137.32800293    0.76999998    2.78999996
   13.96888828  152.84899902    0.76999998    2.76999998
   13.97194386  148.60000610    0.76999998    2.78999996
   13.97805500  148.60000610    0.76999998    2.76999998
   13.98222160  152.43600464    0.79000002    2.76999998
   13.98555565  150.18499756    0.79000002    2.78999996
   13.98861122  150.70199585    0.79000002    2.76999998
   13.99222279  147.98399353    0.79000002    2.78999996
   13.99444485  157.26400757    0.79000002    2.78999996
   13.99555588  146.50999451    0.79000002    2.76999998
   13.99888897  166.77400208    0.79000002    2.76999998
   14.00194454  158.69299316    0.79000002    2.76999998
   14.00527763  143.72300720    0.79000002    2.76999998
   14.00861073  143.46200562    0.79000002    2.76999998
   14.01166630  137.69900513    0.79000002    2.76999998
   14.01500034  155.16099548    0.79000002    2.78999996
   14.02083302  155.16099548    0.76999998    2.78999996
   14.02499962  150.48699951    0.79000002    2.78999996
   14.02777767  145.08099365    0.76999998    2.78999996
   14.02861118  148.29100037    0.79000002    2.76999998
   14.03194427  151.74299622    0.79000002    2.78999996
   14.03500080  162.21800232    0.79000002    2.78999996
   14.03833389  164.79499817    0.79000002    2.78999996
   14.04166698  157.44599915    0.76999998    2.78999996
   14.04472256  156.51300049    0.76999998    2.76999998
   14.04805565  163.77000427    0.76999998    2.78999996
   14.05138874  156.26800537    0.76999998    2.78999996
   14.05444431  153.51400757    0.76999998    2.78999996
   14.05777836  167.30999756    0.79000002    2.76999998
   14.06388950  167.30999756    0.76999998    2.78999996
   14.06777763  171.16299438    0.79000002    2.78999996
   14.07111073  167.06700134    0.79000002    2.78999996
   14.07444477  173.64500427    0.79000002    2.76999998
   14.07777786  165.79899597    0.79000002    2.76999998
   14.08111095  173.39100647    0.76999998    2.78999996
   14.08416653  165.38800049    0.76999998    2.78999996
   14.08749962  155.64399719    0.76999998    2.78999996
   14.09055519  169.56599426    0.76999998    2.76999998
   14.09388828  163.05400085    0.76999998    2.78999996
   14.09472179  162.11799622    0.76999998    2.78999996
   14.10666752  157.43600464    0.00000000    0.00000000
   14.11083412  157.43600464    0.79000002    2.76999998
   14.11500072  156.64199829    0.76999998    2.78999996
   14.11805534  154.45199585    0.76999998    2.78999996
   14.12138939  159.70700073    0.76999998    2.78999996
   14.12500000  161.72200012    0.79000002    2.76999998
   14.12805557  160.84500122    0.76999998    2.78999996
   14.12833309  158.33500671    0.76999998    2.78999996
   14.13166714  151.75100708    0.76999998    2.78999996
   14.13500023  154.40600586    0.79000002    2.78999996
   14.13805580  154.36399841    0.79000002    2.78999996
   14.14138889  163.13299561    0.79000002    2.76999998
   14.14472198  156.33299255    0.80000001    2.76999998
   14.14777756  156.54899597    0.79000002    2.78999996
   14.15361118  156.54899597    0.80000001    2.78999996
   14.15777779  162.57800293    0.80000001    2.78999996
   14.16111088  156.95300293    0.80000001    2.75000000
   14.16138840  159.34100342    0.80000001    2.78999996
   14.16472149  158.00700378    0.80000001    2.76999998
   14.16805553  171.02000427    0.81999999    2.78999996
   14.17111111  163.72500610    0.81999999    2.78999996
   14.17444515  173.23300171    0.81999999    2.78999996
   14.17777824  160.57899475    0.81999999    2.78999996
   14.18083382  171.51400757    0.81999999    2.78999996
   14.18416691  163.03500366    0.81999999    2.78999996
   14.18750000  154.97000122    0.81999999    2.76999998
   14.19055557  168.78599548    0.81999999    2.76999998
   14.19638920  168.78599548    0.83999997    2.78999996
   14.20055580  150.15699768    0.83999997    2.78999996
   14.20388889  163.50700378    0.83999997    2.76999998
   14.20722198  172.48699951    0.83999997    2.78999996
   14.21027756  161.78700256    0.83999997    2.78999996
   14.21361065  157.51899719    0.83999997    2.78999996
   14.21666622  170.68400574    0.83999997    2.78999996
   14.21999931  171.20599365    0.83999997    2.78999996
   14.22333336  161.79600525    0.86000001    2.78999996
   14.22638798  162.57499695    0.86000001    2.78999996
   14.22833252  173.83700562    0.83999997    2.78999996
   14.22999954  141.51699829    0.83999997    2.78999996
   14.23333359  153.69900513    0.83999997    2.78999996
   14.23944473  153.69900513    0.86000001    2.76999998
   14.24361134  161.94400024    0.88000000    2.76999998
   14.24666691  154.26899719    0.88000000    2.76999998
   14.25000000  153.72700500    0.88000000    2.78999996
   14.25305557  145.06399536    0.88000000    2.78999996
   14.25638866  152.12100220    0.88000000    2.78999996
   14.25972176  147.10800171    0.88000000    2.76999998
   14.26166630  155.43899536    0.89999998    2.76999998
   14.26333332  157.86099243    0.89999998    2.76999998
   14.26666641  152.18400574    0.89999998    2.76999998
   14.26999950  157.98500061    0.92000002    2.76999998
   14.27305508  170.90800476    0.92000002    2.76999998
   14.27638817  167.51699829    0.92000002    2.76999998
   14.28222179  167.51699829    0.94000000    2.78999996
   14.28638935  151.45300293    0.94000000    2.78999996
   14.28944492  169.50799561    0.95999998    2.76999998
   14.29277802  160.18800354    1.00000000    2.76999998
   14.29500008  169.93800354    1.00000000    2.76999998
   14.29638958  166.47599792    1.00000000    2.76999998
   14.29972267  163.76800537    1.01999998    2.76999998
   14.30277824  168.35800171    1.07000005    2.76999998
   14.30611134  163.89900208    1.07000005    2.76999998
   14.30944443  163.08399963    1.11000001    2.78999996
   14.31250000  149.15800476    1.11000001    2.78999996
   14.31583309  159.29699707    1.01999998    2.76999998
   14.31916618  166.59199524    1.01999998    2.76999998
   14.32499981  166.59199524    1.01999998    2.76999998
   14.32916641  170.64999390    1.01999998    2.76999998
   14.33249950  158.40699768    1.01999998    2.76999998
   14.33555508  156.74699402    1.01999998    2.76999998
   14.33888817  164.60400391    1.01999998    2.76999998
   14.34194374  171.02600098    1.01999998    2.76999998
   14.34527779  168.21499634    1.01999998    2.76999998
   14.34861088  176.27600098    1.01999998    2.76999998
   14.35166740  176.72599792    1.01999998    2.76999998
   14.35500050  145.86799622    1.01999998    2.76999998
   14.35833359  175.21699524    1.01999998    2.76999998
   14.36138916  152.33200073    1.01999998    2.76999998
   14.36194515  160.86700439    1.01999998    2.76999998
   14.36777782  160.86700439    1.01999998    2.76999998
   14.37194443  183.52299500    1.01999998    2.76999998
   14.37527752  179.78300476    1.01999998    2.76999998
   14.37833309  164.25500488    1.01999998    2.76999998
   14.38166714  165.34300232    1.01999998    2.76999998
   14.38500023  179.29100037    1.01999998    2.76999998
   14.38833332  179.66299438    1.01999998    2.76999998
   14.39138889  173.96400452    1.01999998    2.76999998
   14.39472198  168.43600464    1.01999998    2.76999998
   14.39527798  167.71699524    1.01999998    2.76999998
   14.41750050  167.71699524    1.01999998    2.76999998
   14.42166710  157.82000732    1.01999998    2.76999998
   14.42500019  162.52799988    1.01999998    2.76999998
   14.42805576  178.41700745    1.01999998    2.76999998
   14.42861176  162.05799866    1.01999998    2.76999998
   14.43166733  171.17100525    1.01999998    2.76999998
   14.43500042  175.87399292    1.01999998    2.76999998
   14.43805599  186.53300476    1.01999998    2.76999998
   14.44999981  174.08099365    0.00000000    0.00000000
   14.45333290  146.18200684    1.01999998    2.76999998
   14.45666695  170.69700623    1.01999998    2.76999998
   14.46083355  170.69700623    1.01999998    2.76999998
   14.46500015  184.38600159    1.01999998    2.76999998
   14.46555519  167.08099365    1.01999998    2.76999998
   14.46861076  171.32699585    1.01999998    2.76999998
   14.47194386  162.14100647    1.01999998    2.76999998
   14.47499943  183.55299377    1.01999998    2.76999998
   14.47833252  187.48199463    1.01999998    2.76999998
   14.48166656  184.46400452    1.01999998    2.76999998
   14.48472214  167.16799927    1.01999998    2.76999998
   14.48805618  180.28500366    1.01999998    2.76999998
   14.49111176  170.55299377    1.01999998    2.76999998
   14.49444485  157.61399841    1.01999998    2.76999998
   14.49777794  172.70799255    1.01999998    2.76999998
   14.49888897  163.21099854    1.01999998    2.76999998
   14.50361156  163.21099854    1.01999998    2.76999998
   14.50777817  166.52799988    1.01999998    2.76999998
   14.51111126  167.45700073    1.01999998    2.76999998
   14.51416683  168.35699463    1.01999998    2.76999998
   14.51749992  164.83099365    1.01999998    2.76999998
   14.52055550  153.90600586    1.01999998    2.76999998
   14.52388859  172.78300476    1.01999998    2.76999998
   14.52722168  161.17199707    1.01999998    2.76999998
   14.53027725  167.24600220    1.01999998    2.76999998
   14.53222179  165.00500488    1.01999998    2.76999998
   14.53388977  176.00799561    1.01999998    2.76999998
   14.53722286  165.71000671    1.01999998    2.76999998
   14.54027843  168.28999329    1.01999998    2.76999998
   14.54638958  168.28999329    1.01999998    2.76999998
   14.55055618  184.88499451    1.01999998    2.76999998
   14.55388927  172.76400757    1.01999998    2.76999998
   14.55694485  173.44500732    1.01999998    2.76999998
   14.56027794  171.54400635    1.01999998    2.76999998
   14.56361103  162.35699463    1.01999998    2.76999998
   14.56555557  177.28300476    1.01999998    2.76999998
   14.56722260  175.53199768    1.01999998    2.76999998
   14.57055569  171.23199463    1.01999998    2.76999998
   14.57361126  162.41400146    1.01999998    2.76999998
   14.57694435  180.14500427    1.01999998    2.76999998
   14.58027744  174.20199585    1.01999998    2.76999998
   14.58361053  176.87300110    1.01999998    2.76999998
   14.59638882  176.87300110    1.01999998    2.76999998
   14.60055637  194.00700378    1.01999998    2.76999998
   14.60361195  173.56199646    1.01999998    2.76999998
   14.60694504  168.11999512    1.01999998    2.76999998
   14.61027813  177.29299927    1.01999998    2.76999998
   14.61333370  167.31399536    1.01999998    2.76999998
   14.61666679  172.95500183    1.01999998    2.76999998
   14.61972237  168.90100098    1.01999998    2.76999998
   14.62305546  168.89599609    1.01999998    2.76999998
   14.62638855  164.48800659    1.01999998    2.76999998
   14.63222218  164.48800659    1.01999998    2.76999998
   14.63638878  174.50199890    1.01999998    2.76999998
   14.63944435  165.44599915    1.01999998    2.76999998
   14.64277744  160.18099976    1.01999998    2.76999998
   14.64583302  173.38600159    1.01999998    2.76999998
   14.64916611  172.72000122    1.01999998    2.76999998
   14.65249920  162.01899719    1.01999998    2.76999998
   14.65583324  138.63600159    1.01999998    2.76999998
   14.65888882  172.73100281    1.01999998    2.76999998
   14.66222191  178.94900513    1.01999998    2.76999998
   14.66527748  174.73599243    1.01999998    2.76999998
   14.66722298  177.28399658    1.01999998    2.76999998
   14.66916656  181.81700134    1.01999998    2.76999998
   14.67500019  181.81700134    1.01999998    2.76999998
   14.67916679  165.53500366    1.01999998    2.76999998
   14.68222237  161.44799805    1.01999998    2.76999998
   14.68555546  163.90299988    1.01999998    2.76999998
   14.68888855  154.30000305    1.01999998    2.76999998
   14.69194412  164.88200378    1.01999998    2.76999998
   14.69527817  161.64599609    1.01999998    2.76999998
   14.69861126  182.24000549    1.01999998    2.76999998
   14.70055580  184.84500122    1.01999998    2.76999998
   14.70222187  169.69999695    1.01999998    2.76999998
   14.70527744  171.00799561    1.01999998    2.76999998
   14.70861053  174.10299683    1.01999998    2.76999998
   14.71166611  174.59100342    1.01999998    2.76999998
   14.71777725  174.59100342    1.01999998    2.76999998
   14.72194386  163.79299927    1.01999998    2.76999998
   14.72527695  170.08500671    1.01999998    2.76999998
   14.72833252  160.14700317    1.01999998    2.76999998
   14.73166656  150.69099426    1.01999998    2.76999998
   14.73416710  161.82099915    1.01999998    2.76999998
   14.73527813  164.46499634    1.01999998    2.76999998
   14.73861122  183.17199707    1.01999998    2.76999998
   14.74194431  169.10000610    1.01999998    2.76999998
   14.74499989  175.10299683    1.01999998    2.76999998
   14.74833393  186.43299866    1.01999998    2.76999998
   14.75138855  162.41200256    1.01999998    2.76999998
   14.76333332  181.93899536    0.00000000    0.00000000
   14.76749992  181.93899536    1.01999998    2.76999998
   14.77166653  168.94400024    1.01999998    2.76999998
   14.77472210  175.77299500    1.01999998    2.76999998
   14.77805519  180.09199524    1.01999998    2.76999998
   14.78416729  161.11700439    1.01999998    2.76999998
   14.78750038  188.42300415    1.01999998    2.76999998
   14.79111195  165.05999756    1.01999998    2.76999998
   14.79416752  162.05400085    1.01999998    2.76999998
   14.79750061  162.36999512    1.01999998    2.76999998
   14.80083370  164.29699707    1.01999998    2.76999998
   14.80111122  182.69799805    1.01999998    2.76999998
   14.80444431  174.58500671    1.01999998    2.76999998
   14.80777836  174.06700134    1.01999998    2.76999998
   14.81166649  174.06700134    1.01999998    2.76999998
   14.81583309  176.37399292    1.01999998    2.76999998
   14.81916618  177.92700195    1.01999998    2.76999998
   14.82250023  187.61000061    1.01999998    2.76999998
   14.82555580  182.86399841    1.01999998    2.76999998
   14.82888889  170.31399536    1.01999998    2.76999998
   14.83222198  174.32800293    1.01999998    2.76999998
   14.83416653  167.29899597    1.01999998    2.76999998
   14.83555508  179.40600586    1.01999998    2.76999998
   14.83888817  169.40899658    1.01999998    2.76999998
   14.84222221  176.63099670    1.01999998    2.76999998
   14.84527779  172.23699951    1.01999998    2.76999998
   14.84861088  165.00599670    1.01999998    2.76999998
   14.85472298  165.00599670    1.01999998    2.76999998
   14.85888958  175.48899841    1.01999998    2.76999998
   14.86194515  159.45199585    1.01999998    2.76999998
   14.86527824  161.01499939    1.01999998    2.76999998
   14.86750031  167.56500244    1.01999998    2.76999998
   14.86888885  158.66700745    1.01999998    2.76999998
   14.87222195  167.92300415    1.01999998    2.76999998
   14.87555599  155.41900635    1.01999998    2.76999998
   14.87861156  152.93600464    1.01999998    2.76999998
   14.88194466  170.16400146    1.01999998    2.76999998
   14.88500023  165.76800537    1.01999998    2.76999998
   14.88833332  149.85600281    1.01999998    2.76999998
   14.89166641  148.71699524    1.01999998    2.76999998
   14.89750004  148.71699524    1.01999998    2.76999998
   14.90166664  176.55499268    1.01999998    2.76999998
   14.90472221  158.99099731    1.01999998    2.76999998
   14.90805531  177.82000732    1.01999998    2.76999998
   14.91138840  160.16700745    1.01999998    2.76999998
   14.91444397  168.65499878    1.01999998    2.76999998
   14.91777802  157.19400024    1.01999998    2.76999998
   14.92111111  162.83500671    1.01999998    2.76999998
   14.92416668  165.51600647    1.01999998    2.76999998
   14.92750072  161.93499756    1.01999998    2.76999998
   14.93055630  163.27499390    1.01999998    2.76999998
   14.93388939  162.99200439    1.01999998    2.76999998
   14.93444443  150.35800171    1.01999998    2.76999998
   14.94027805  150.35800171    1.01999998    2.76999998
   14.94444466  159.74299622    1.01999998    2.76999998
   14.94777775  174.88999939    1.01999998    2.76999998
   14.95083332  173.12199402    1.01999998    2.76999998
   14.95416641  167.02400208    1.01999998    2.76999998
   14.95749950  159.69099426    1.01999998    2.76999998
   14.96055508  166.82600403    1.01999998    2.76999998
   14.96388912  149.96600342    1.01999998    2.76999998
   14.96694374  145.14700317    1.01999998    2.76999998
   14.96777725  147.45500183    1.01999998    2.76999998
   14.97083282  163.57000732    1.01999998    2.76999998
   14.97388840  173.21699524    1.01999998    2.76999998
   14.97722149  154.13099670    1.01999998    2.76999998
   14.98305511  154.13099670    1.01999998    2.76999998
   14.98722267  165.81799316    1.01999998    2.76999998
   14.99055576  170.45199585    1.01999998    2.76999998
   14.99388885  158.32600403    1.01999998    2.76999998
   14.99694443  165.04499817    1.01999998    2.76999998
   15.00027752  148.24299622    1.01999998    2.76999998
   15.00111103  145.14199829    1.01999998    2.76999998
   15.00388908  160.48800659    1.01999998    2.76999998
   15.00694466  157.89999390    1.01999998    2.76999998
   15.01027775  164.61300659    1.01999998    2.76999998
   15.01361084  156.34800720    1.01999998    2.76999998
   15.01666641  161.14300537    1.01999998    2.76999998
   15.01999950  165.64500427    1.01999998    2.76999998
   15.02611065  165.64500427    1.01999998    2.76999998
   15.03027725  168.60200500    1.01999998    2.76999998
   15.03333378  160.83799744    1.01999998    2.76999998
   15.03444481  156.50300598    1.01999998    2.76999998
   15.04555607  155.24600220    0.00000000    0.00000000
   15.04888916  136.91000366    1.01999998    2.76999998
   15.05194473  148.10400391    1.01999998    2.76999998
   15.05527782  166.32200623    1.01999998    2.76999998
   15.05861092  145.54200745    1.01999998    2.76999998
   15.06166649  162.04699707    1.01999998    2.76999998
   15.06527805  159.40299988    1.01999998    2.76999998
   15.06777763  166.30999756    1.01999998    2.76999998
   15.06888866  156.09300232    1.01999998    2.76999998
   15.07472229  156.09300232    0.00000000    0.00000000
   15.07944393  161.87600708    0.00000000    0.00000000
   15.08333302  164.53399658    0.00000000    0.00000000
   15.08722210  168.72799683    0.00000000    0.00000000
   15.09111118  148.88900757    0.00000000    0.00000000
   15.09499931  172.13800049    0.00000000    0.00000000
   15.09888840  147.24200439    0.00000000    0.00000000
   15.10111141  151.11999512    0.00000000    0.00000000
   15.10305595  154.10699463    0.00000000    0.00000000
   15.10694504  156.49099731    0.00000000    0.00000000
   15.11083412  154.45899963    0.00000000    0.00000000
   15.11638927  154.45899963    1.01999998    2.76999998
   15.12138939  149.44299316    1.01999998    2.76999998
   15.12444496  153.71899414    1.01999998    2.76999998
   15.12777805  155.34199524    1.01999998    2.76999998
   15.13111115  156.51800537    1.01999998    2.76999998
   15.13416672  158.33599854    1.01999998    2.76999998
   15.13472176  169.25700378    1.01999998    2.76999998
   15.13805580  157.82299805    1.01999998    2.76999998
   15.14138889  148.92599487    1.01999998    2.76999998
   15.14444447  138.31799316    1.01999998    2.76999998
   15.14777756  146.39100647    1.01999998    2.78999996
   15.15083313  151.79699707    0.64999998    2.82999992
   15.15416622  148.59899902    0.64999998    2.84999990
   15.15916634  148.59899902    0.64999998    2.82999992
   15.16333294  155.90699768    0.64999998    2.82999992
   15.16638851  158.44500732    0.64999998    2.82999992
   15.16805553  153.53300476    0.63000000    2.84999990
   15.17027855  157.01300049    0.63000000    2.84999990
   15.17416668  152.32400513    0.64999998    2.84999990
   15.17750072  156.59300232    0.63000000    2.82999992
   15.18055630  154.57800293    0.63000000    2.82999992
   15.18388939  160.23100281    0.63000000    2.82999992
   15.18722248  149.06399536    0.67000002    2.82999992
   15.19027805  166.32600403    0.64999998    2.84999990
   15.19361115  153.05700684    0.67000002    2.82999992
   15.19694424  146.48300171    0.67000002    2.84999990
   15.20194435  146.48300171    0.69000000    2.84999990
   15.20611095  150.52600098    0.67000002    2.84999990
   15.20944405  150.87199402    0.67000002    2.82999992
   15.21249962  139.99499512    0.67000002    2.82999992
   15.21583271  150.74099731    0.69000000    2.82999992
   15.21888828  142.75999451    0.69000000    2.82999992
   15.22222137  139.34899902    0.69000000    2.80999994
   15.22555542  133.40299988    0.70999998    2.82999992
   15.22861099  124.18199921    0.70999998    2.82999992
   15.23194408  147.37199402    0.70999998    2.82999992
   15.23472214  138.16799927    0.70999998    2.82999992
   15.23555565  147.61000061    0.70999998    2.82999992
   15.23888874  138.15400696    0.70999998    2.82999992
   15.24472237  138.15400696    0.70999998    2.82999992
   15.24888897  144.92999268    0.70999998    2.82999992
   15.25222206  140.46699524    0.70999998    2.82999992
   15.25527763  137.52799988    0.70999998    2.82999992
   15.25861073  139.50799561    0.70999998    2.82999992
   15.26222229  146.60600281    0.70999998    2.82999992
   15.26527786  141.34899902    0.70999998    2.82999992
   15.26805496  133.24899292    0.70999998    2.82999992
   15.26888847  146.43499756    0.70999998    2.82999992
   15.27222157  148.04499817    0.70999998    2.82999992
   15.27555561  136.22799683    0.70999998    2.82999992
   15.27861118  142.07600403    0.70999998    2.82999992
   15.28194427  144.24800110    0.70999998    2.82999992
   15.28777790  144.24800110    0.70999998    2.82999992
   15.29166698  147.90499878    0.70999998    2.82999992
   15.29500008  146.41000366    0.70999998    2.82999992
   15.29833412  138.04100037    0.70999998    2.82999992
   15.30138874  142.73100281    0.70999998    2.82999992
   15.30194473  140.68099976    0.70999998    2.82999992
   15.40527725   -1.00000000   -1.00000000   -1.00000000
   15.50555515   -1.00000000   -1.00000000   -1.00000000
   15.66916656   -1.00000000   -1.00000000   -1.00000000
   15.69722271  145.33799744    0.67000002    2.84999990
   15.70055580  157.52200317    0.67000002    2.84999990
   15.70388889  136.32200623    0.67000002    2.84999990
   15.70694447  146.80900574    0.67000002    2.84999990
   15.71027756  146.45399475    0.69000000    2.84999990
   15.71361065  136.88999939    0.69000000    2.84999990
   15.71749973  136.88999939    0.70999998    2.84999990
   15.72222137  148.49899292    0.70999998    2.84999990
   15.72527695  131.45100403    0.70999998    2.84999990
   15.72861099  150.59500122    0.70999998    2.84999990
   15.73055553  136.19000244    0.70999998    2.82999992
   15.73222160  131.53900146    0.69000000    2.84999990
   15.73555565  144.52400208    0.67000002    2.84999990
   15.73861122  133.69299316    0.64999998    2.84999990
   15.75111103  132.80900574    0.00000000    0.00000000
   15.75444412  145.27299500    0.64999998    2.86999989
   15.76055527  145.27299500    0.69000000    2.86999989
   15.76472187  138.77099609    0.70999998    2.86999989
   15.76694393  135.40699768    0.70999998    2.86999989
   15.76861095  143.74699402    0.64999998    2.86999989
   15.77194405  141.69500732    0.64999998    2.86999989
   15.77527714  143.77600098    0.70999998    2.86999989
   15.78777790  138.26600647    0.00000000    0.00000000
   15.79111195  126.13999939    0.70999998    2.84999990
   15.79416752  142.10899353    0.70999998    2.84999990
   15.79750061  137.63299561    0.70999998    2.84999990
   15.80361176  137.63299561    0.81999999    2.84999990
   15.80777836  126.06900024    0.76999998    2.84999990
   15.81083393  130.36300659    0.76999998    2.84999990
   15.82333374  132.20899963    0.00000000    0.00000000
   15.82666683  126.31300354    0.76999998    2.84999990
   15.82972240  128.97599792    0.76999998    2.84999990
   15.83305550  128.06399536    0.76999998    2.84999990
   15.83611107  129.01899719    0.79000002    2.84999990
   15.84777737  128.19799805    0.83999997    2.84999990
   15.84888840  129.20199585    0.83999997    2.84999990
   15.85222244  128.26300049    0.83999997    2.84999990
   15.85722256  128.26300049    0.86000001    2.84999990
   15.86138916  137.19400024    0.83999997    2.82999992
   15.86472225  126.15799713    0.80000001    2.82999992
   15.86805534  132.68400574    0.81999999    2.84999990
   15.87111092  124.85700226    0.81999999    2.84999990
   15.87222195  119.61299896    0.81999999    2.84999990
   15.87472248  129.58299255    0.79000002    2.82999992
   15.87805557  130.76600647    0.79000002    2.82999992
   15.88111115  134.39999390    0.79000002    2.84999990
   15.88444424  132.74699402    0.75000000    2.84999990
   15.88777733  133.10099792    0.75000000    2.84999990
   15.89083290  134.17599487    0.75000000    2.82999992
   15.90083313  125.06600189    0.00000000    0.00000000
   15.90527725  125.06600189    0.76999998    2.84999990
   15.90916634  138.13800049    0.73000002    2.84999990
   15.91249943  129.16700745    0.75000000    2.84999990
   15.91583252  139.56500244    0.79000002    2.84999990
   15.91888905  137.54600525    0.75000000    2.82999992
   15.92222214  130.45899963    0.88000000    2.84999990
   15.92555618  136.44999695    0.69000000    2.86999989
   15.92861176  125.98999786    0.69000000    2.84999990
   15.93194485  137.28900146    0.69000000    2.84999990
   15.93500042  136.57800293    0.67000002    2.84999990
   15.93833351  133.76100159    0.67000002    2.84999990
   15.94027805  131.69700623    0.67000002    2.84999990
   15.94194412  139.52999878    0.67000002    2.84999990
   15.94777775  139.52999878    0.67000002    2.84999990
   15.95472240  131.83900452    0.64999998    2.84999990
   15.95777798  128.07600403    0.64999998    2.84999990
   15.96111107  126.52500153    0.64999998    2.84999990
   15.96444416  129.47000122    0.64999998    2.86999989
   15.96749973  126.30599976    0.64999998    2.86999989
   15.97083282  130.74299622    0.63000000    2.86999989
   15.97361088  129.71099854    0.63000000    2.86999989
   15.97444439  128.47599792    0.63000000    2.86999989
   15.97777748  126.44799805    0.63000000    2.86999989
   15.98111057  133.19400024    0.58999997    2.86999989
   15.98416710  133.43299866    0.56999999    2.86999989
   15.99055576  133.43299866    0.58999997    2.84999990
   15.99472237  126.32800293    0.61000001    2.84999990
   15.99805546  124.53299713    0.63000000    2.86999989
   16.00138855  131.81599426    0.63000000    2.84999990
   16.00444412  136.76400757    0.67000002    2.86999989
   16.00694466  135.84100342    0.67000002    2.84999990
   16.00833321  131.44599915    0.67000002    2.84999990
   16.01138878  133.58999634    0.64999998    2.86999989
   16.01472282  130.68699646    0.64999998    2.86999989
   16.01777840  126.83699799    0.64999998    2.84999990
   16.02111053  134.06700134    0.64999998    2.84999990
   16.02444458  125.94599915    0.64999998    2.84999990
   16.02750015  127.20099640    0.67000002    2.84999990
   16.03361130  127.20099640    0.63000000    2.84999990
   16.03777695  119.95500183    0.63000000    2.84999990
   16.04027748  115.85299683    0.64999998    2.84999990
   16.04138756  127.41000366    0.64999998    2.84999990
   16.04444313  125.65499878    0.64999998    2.86999989
   16.04777718  125.86599731    0.64999998    2.84999990
   16.05111122  123.37699890    0.67000002    2.86999989
   16.05416679  125.95600128    0.67000002    2.86999989
   16.05749893  126.15699768    0.67000002    2.86999989
   16.06055450  119.41699982    0.67000002    2.84999990
   16.06388855  129.76800537    0.69000000    2.84999990
   16.06722260  124.74299622    0.70999998    2.84999990
   16.07027817  126.94899750    0.69000000    2.86999989
   16.07638931  126.94899750    0.69000000    2.84999990
   16.08055687  119.33200073    0.69000000    2.84999990
   16.08388901  128.93499756    0.70999998    2.84999990
   16.08694458  126.80200195    0.73000002    2.86999989
   16.09027863  125.91899872    0.76999998    2.82999992
   16.09333420  118.21800232    0.79000002    2.84999990
   16.09666824  124.28199768    0.79000002    2.82999992
   16.10000038  124.57499695    0.79000002    2.82999992
   16.10305595  123.95400238    0.80000001    2.82999992
   16.10639000  131.01699829    0.80000001    2.82999992
   16.10722351  129.10200500    0.80000001    2.82999992
   16.11000061  126.40699768    0.80000001    2.82999992
   16.11333466  129.18200684    0.80000001    2.84999990
   16.11916733  129.18200684    0.79000002    2.84999990
   16.12333298  129.05200195    0.76999998    2.82999992
   16.12666702  138.90400696    0.76999998    2.84999990
   16.12972260  139.84500122    0.76999998    2.84999990
   16.13305473  129.67199707    0.75000000    2.82999992
   16.13638878  132.82000732    0.75000000    2.82999992
   16.13972282  124.48600006    0.75000000    2.84999990
   16.14055634  129.25500488    0.75000000    2.84999990
   16.14333344  128.21400452    0.73000002    2.84999990
   16.14666748  128.27799988    0.73000002    2.84999990
   16.14972115  125.14600372    0.73000002    2.84999990
   16.15305519  121.59899902    0.73000002    2.84999990
   16.15611076  120.00900269    0.73000002    2.84999990
   16.16194344  120.00900269    0.73000002    2.84999990
   16.16611099  122.44000244    0.73000002    2.84999990
   16.16944313  130.53999329    0.70999998    2.84999990
   16.17277718  122.95600128    0.67000002    2.84999990
   16.17416573  133.18099976    0.69000000    2.84999990
   16.17638779  125.31099701    0.69000000    2.84999990
   16.17944336  133.76499939    0.67000002    2.84999990
   16.18277740  136.26100159    0.69000000    2.84999990
   16.18610954  134.24000549    0.64999998    2.84999990
   16.18916512  131.31599426    0.64999998    2.84999990
   16.19249916  131.68200684    0.64999998    2.84999990
   16.19555473  122.08599854    0.64999998    2.84999990
   16.19888878  131.16200256    0.69000000    2.84999990
   16.20499992  131.16200256    0.70999998    2.84999990
   16.20916748  143.07299805    0.69000000    2.86999989
   16.21222305  132.10699463    0.64999998    2.86999989
   16.21555710  134.03300476    0.67000002    2.84999990
   16.21888924  134.81700134    0.67000002    2.84999990
   16.22194481  140.44599915    0.64999998    2.84999990
   16.22527885  142.52600098    0.64999998    2.86999989
   16.22861099  130.22599792    0.67000002    2.84999990
   16.23166656  146.51100159    0.67000002    2.86999989
   16.23500061  154.54100037    0.64999998    2.86999989
   16.23833275  140.53999329    0.64999998    2.86999989
   16.24083328  129.67700195    0.64999998    2.86999989
   16.24194527  125.04100037    0.64999998    2.84999990
   16.24777794  125.04100037    0.64999998    2.86999989
   16.25194359  129.53199768    0.64999998    2.86999989
   16.25499916  141.97599792    0.64999998    2.84999990
   16.25833321  131.94000244    0.64999998    2.84999990
   16.26166725  144.00900269    0.64999998    2.86999989
   16.26472282  148.10000610    0.63000000    2.86999989
   16.26805496  138.08599854    0.61000001    2.86999989
   16.27138901  145.44200134    0.61000001    2.86999989
   16.27416611  146.35000610    0.61000001    2.86999989
   16.27499962  149.07800293    0.58999997    2.86999989
   16.27805519  138.21899414    0.58999997    2.86999989
   16.28138924  136.14900208    0.58999997    2.86999989
   16.28472137  137.40899658    0.56999999    2.86999989
   16.29055595  137.40899658    0.56999999    2.86999989
   16.29472160  138.89799500    0.56999999    2.86999989
   16.29805565  134.53599548    0.56999999    2.84999990
   16.30111122  132.75900269    0.58999997    2.86999989
   16.30444336  134.04800415    0.63000000    2.86999989
   16.30749893  131.04100037    0.63000000    2.86999989
   16.30805397  135.36199951    0.63000000    2.86999989
   16.31110954  129.05299377    0.63000000    2.86999989
   16.31444359  132.75300598    0.63000000    2.86999989
   16.31777954  137.58700562    0.63000000    2.86999989
   16.32083511  130.42399597    0.61000001    2.86999989
   16.32416725  128.85800171    0.63000000    2.86999989
   16.32722282  136.09399414    0.63000000    2.86999989
   16.33333397  136.09399414    0.64999998    2.86999989
   16.33750153  130.62800598    0.63000000    2.86999989
   16.34083366  133.39199829    0.61000001    2.86999989
   16.34138870  126.41500092    0.61000001    2.86999989
   16.34444427  128.64300537    0.61000001    2.86999989
   16.34777832  125.56900024    0.61000001    2.86999989
   16.35111237  127.66899872    0.61000001    2.86999989
   16.35416794  130.01300049    0.58999997    2.89000010
   16.35750008  133.75700378    0.58999997    2.86999989
   16.36055565  130.47999573    0.56999999    2.86999989
   16.36388969  125.77999878    0.56999999    2.86999989
   16.36722183  127.98799896    0.55000001    2.86999989
   16.37083435  130.59800720    0.55000001    2.89000010
   16.37638855  130.59800720    0.56999999    2.86999989
   16.38055611  125.21499634    0.56999999    2.86999989
   16.38361168  126.81600189    0.58999997    2.86999989
   16.38694382  134.82699585    0.58999997    2.86999989
   16.39027786  136.05099487    0.58999997    2.86999989
   16.39472198  129.65899658    0.58999997    2.86999989
   16.39777756  134.00799561    0.58999997    2.89000010
   16.40111160  138.35800171    0.63000000    2.86999989
   16.40444374  133.69799805    0.63000000    2.84999990
   16.40749931  129.79699707    0.63000000    2.86999989
   16.40805435  125.68599701    0.63000000    2.86999989
   16.41110992  129.38800049    0.67000002    2.86999989
   16.42333221  127.38099670    0.00000000    0.00000000
   16.42749977  127.38099670    0.64999998    2.84999990
   16.43166542  128.65800476    0.64999998    2.86999989
   16.43499947  137.86700439    0.64999998    2.86999989
   16.43805504  135.04200745    0.64999998    2.84999990
   16.44083214  134.06799316    0.64999998    2.86999989
   16.44194412  134.54600525    0.64999998    2.86999989
   16.44499969  131.80099487    0.63000000    2.84999990
   16.44833183  134.54100037    0.61000001    2.86999989
   16.45166779  140.40899658    0.61000001    2.86999989
   16.45472336  126.74800110    0.61000001    2.86999989
   16.45805550  134.07600403    0.58999997    2.86999989
   16.46111107  129.88699341    0.61000001    2.86999989
   16.46444511  139.17300415    0.61000001    2.86999989
   16.47027779  139.17300415    0.61000001    2.86999989
   16.47444534  132.19299316    0.64999998    2.84999990
   16.47777748  134.49299622    0.64999998    2.84999990
   16.48111153  128.05499268    0.67000002    2.86999989
   16.48416710  131.37399292    0.67000002    2.86999989
   16.48750114  127.68399811    0.67000002    2.86999989
   16.49083328  137.94500732    0.64999998    2.86999989
   16.49388885  130.51100159    0.67000002    2.86999989
   16.49722290  130.72200012    0.67000002    2.86999989
   16.50055504  126.47100067    0.64999998    2.86999989
   16.50388908  135.80299377    0.64999998    2.86999989
   16.50694466  132.01100159    0.67000002    2.84999990
   16.50749969  131.63900757    0.67000002    2.84999990
   16.51333427  131.63900757    0.64999998    2.84999990
   16.51749992  130.63299561    0.64999998    2.84999990
   16.52055550  132.89199829    0.63000000    2.86999989
   16.52388954  127.73300171    0.64999998    2.86999989
   16.52694511  138.53700256    0.63000000    2.86999989
   16.53027725  143.69099426    0.63000000    2.86999989
   16.53361130  135.89399719    0.63000000    2.86999989
   16.53666687  142.42199707    0.63000000    2.86999989
   16.53999901  128.71800232    0.63000000    2.86999989
   16.54083252  134.97200012    0.63000000    2.86999989
   16.54361153  145.53199768    0.63000000    2.86999989
   16.54694366  147.48599243    0.63000000    2.84999990
   16.54999924  146.37300110    0.64999998    2.86999989
   16.55611038  146.37300110    0.64999998    2.84999990
   16.56027794  157.18600464    0.63000000    2.86999989
   16.56333351  149.20700073    0.64999998    2.86999989
   16.56666756  154.19599915    0.63000000    2.86999989
   16.57000160  148.44500732    0.63000000    2.86999989
   16.57305717  154.43600464    0.63000000    2.86999989
   16.57416725  137.06700134    0.63000000    2.86999989
   16.57666779  143.72900391    0.63000000    2.86999989
   16.58000183  152.31500244    0.63000000    2.86999989
   16.58305550  147.28100586    0.63000000    2.86999989
   16.58638954  143.54699707    0.64999998    2.86999989
   16.58944511  157.39500427    0.64999998    2.86999989
   16.59277916  161.89799500    0.64999998    2.86999989
   16.59889030  161.89799500    0.63000000    2.86999989
   16.60305595  151.53100586    0.63000000    2.86999989
   16.60639000  139.86500549    0.61000001    2.89000010
   16.60750008  140.80099487    0.61000001    2.89000010
   16.61000061  151.23500061    0.58999997    2.86999989
   16.61333466  162.23800659    0.58999997    2.86999989
   16.61638832  157.57299805    0.61000001    2.86999989
   16.61972237  156.56500244    0.58999997    2.86999989
   16.62277794  144.76699829    0.61000001    2.86999989
   16.62611198  151.89100647    0.61000001    2.86999989
   16.62944412  156.96099854    0.61000001    2.86999989
   16.63249969  147.61599731    0.61000001    2.86999989
   16.63583374  145.21400452    0.61000001    2.86999989
   16.64166641  145.21400452    0.61000001    2.86999989
   16.64583397  134.37300110    0.83999997    2.84999990
   16.64916611  131.27200317    0.92000002    2.86999989
   16.65250015  136.26800537    0.83999997    2.86999989
   16.65555573  138.05900574    0.63000000    2.86999989
   16.65888786  148.51499939    0.67000002    2.86999989
   16.66222191  137.73800659    0.63000000    2.86999989
   16.66527748  137.78399658    0.63000000    2.89000010
   16.66860962  147.51600647    0.64999998    2.86999989
   16.67194366  137.89700317    0.61000001    2.86999989
   16.67416573  143.69299316    0.61000001    2.86999989
   16.67555428  143.16700745    0.61000001    2.86999989
   16.67888832  144.20799255    0.61000001    2.86999989
   16.68472099  144.20799255    0.61000001    2.86999989
   16.68888855  148.69000244    0.58999997    2.89000010
   16.69194412  155.07099915    0.58999997    2.89000010
   16.69527626  150.34700012    0.58999997    2.86999989
   16.69861031  143.23300171    0.56999999    2.86999989
   16.70166779  146.41200256    0.56999999    2.89000010
   16.72000122  139.37699890    0.61000001    2.89000010
   16.72166634  144.72700500    0.58999997    2.86999989
   16.72777748  144.72700500    0.63000000    2.86999989
   16.73166656  132.19500732    0.58999997    2.86999989
   16.73500061  130.85299683    0.56999999    2.86999989
   16.73833275  139.80400085    0.56999999    2.86999989
   16.74138832  137.63699341    0.56999999    2.86999989
   16.74472237  144.23899841    0.56999999    2.86999989
   16.74777794  147.37899780    0.56999999    2.86999989
   16.75111198  141.73300171    0.56999999    2.86999989
   16.75333405  139.09100342    0.55000001    2.86999989
   16.75472260  142.10499573    0.55000001    2.86999989
   16.75805473  143.76800537    0.55000001    2.86999989
   16.76111031  137.95700073    0.56999999    2.86999989
   16.76444435  134.95899963    0.56999999    2.86999989
   16.77055550  134.95899963    0.56999999    2.86999989
   16.77472115  133.71400452    0.58999997    2.86999989
   16.77777672  132.24400330    0.58999997    2.86999989
   16.78111076  136.71699524    0.56999999    2.86999989
   16.78416634  141.53500366    0.55000001    2.86999989
   16.78666687  135.24099731    0.55000001    2.89000010
   16.78805542  131.97200012    0.55000001    2.89000010
   16.79138756  128.58799744    0.55000001    2.86999989
   16.79444313  128.36099243    0.55000001    2.86999989
   16.79777718  135.43499756    0.55000001    2.86999989
   16.80111122  130.31100464    0.55000001    2.89000010
   16.80416679  129.18499756    0.55000001    2.89000010
   16.80749893  134.55099487    0.55000001    2.86999989
   16.81333351  134.55099487    0.55000001    2.86999989
   16.81750107  147.27900696    0.55000001    2.86999989
   16.82000160  140.25000000    0.55000001    2.86999989
   16.82111168  137.55400085    0.55000001    2.86999989
   16.82444572  139.03300476    0.55000001    2.86999989
   16.82750130  135.21400452    0.52999997    2.86999989
   16.83083344  131.79100037    0.52999997    2.89000010
   16.83388901  130.36700439    0.52999997    2.89000010
   16.83722305  134.85499573    0.52999997    2.89000010
   16.84055710  139.37500000    0.52999997    2.89000010
   16.84361267  137.15600586    0.52999997    2.89000010
   16.84694481  136.25399780    0.51999998    2.86999989
   16.85027885  137.67399597    0.51999998    2.86999989
   16.85611153  137.67399597    0.52999997    2.86999989
   16.86027908  137.02000427    0.52999997    2.89000010
   16.86361122  139.01800537    0.52999997    2.89000010
   16.86666679  141.56300354    0.51999998    2.86999989
   16.87000084  138.67300415    0.51999998    2.86999989
   16.87333298  144.57499695    0.51999998    2.86999989
   16.87638855  130.17399597    0.52999997    2.86999989
   16.87972260  134.63999939    0.52999997    2.86999989
   16.88305473  152.54200745    0.52999997    2.86999989
   16.88611031  131.94299316    0.52999997    2.89000010
   16.88694382  124.36000061    0.52999997    2.89000010
   16.88972282  130.29299927    0.51999998    2.86999989
   16.89305496  149.81599426    0.51999998    2.86999989
   16.89888954  149.81599426    0.52999997    2.86999989
   16.90305519  145.17500305    0.52999997    2.86999989
   16.90638924  137.99400330    0.52999997    2.86999989
   16.90972137  139.02400208    0.52999997    2.86999989
   16.91277695  135.92799377    0.52999997    2.86999989
   16.91611099  129.59800720    0.55000001    2.86999989
   16.91944313  129.66700745    0.52999997    2.86999989
   16.92055511  127.26699829    0.52999997    2.86999989
   16.92277718  127.89199829    0.52999997    2.86999989
   16.92611122  130.17900085    0.52999997    2.86999989
   16.92916679  133.66999817    0.55000001    2.86999989
   16.93249893  131.56199646    0.55000001    2.86999989
   16.93583298  133.37199402    0.55000001    2.86999989
   16.94194412  133.37199402    0.55000001    2.86999989
   16.94610977  135.72099304    0.55000001    2.86999989
   16.94916534  137.86399841    0.55000001    2.86999989
   16.95250130  124.38400269    0.55000001    2.86999989
   16.95388985  126.60600281    0.55000001    2.86999989
   16.95611191  125.95300293    0.55000001    2.86999989
   16.95944595  130.74800110    0.52999997    2.86999989
   16.96250153  126.13500214    0.52999997    2.86999989
   16.96583366  134.21600342    0.55000001    2.86999989
   16.96888924  130.15800476    0.56999999    2.86999989
   16.97222328  131.50900269    0.56999999    2.86999989
   16.97555542  133.82800293    0.56999999    2.86999989
   16.97861099  137.18099976    0.56999999    2.89000010
   16.98472214  137.18099976    0.58999997    2.89000010
   16.98888969  125.81400299    0.58999997    2.86999989
   16.99194527  138.28599548    0.58999997    2.86999989
   16.99527740  138.87500000    0.58999997    2.89000010
   16.99861145  143.49099731    0.56999999    2.89000010
   17.00166702  140.57699585    0.56999999    2.89000010
   17.00499916  139.81500244    0.55000001    2.86999989
   17.00833321  139.32400513    0.52999997    2.89000010
   17.01138878  143.87100220    0.52999997    2.89000010
   17.01472282  141.54400635    0.52999997    2.86999989
   17.01805496  151.30000305    0.52999997    2.86999989
   17.02055550  139.08399963    0.52999997    2.86999989
   17.02166557  154.80000305    0.52999997    2.86999989
   17.02750015  154.80000305    0.52999997    2.89000010
   17.03166580  133.60400391    0.52999997    2.86999989
   17.03499985  140.01300049    0.52999997    2.86999989
   17.03805542  140.63900757    0.52999997    2.86999989
   17.04138756  138.35600281    0.55000001    2.86999989
   17.04472160  138.65699768    0.55000001    2.86999989
   17.04777718  138.98300171    0.55000001    2.86999989
   17.05111122  137.26600647    0.55000001    2.86999989
   17.05388832  138.15100098    0.55000001    2.89000010
   17.05472183  137.26600647    0.55000001    2.89000010
   17.05805397  144.26400757    0.55000001    2.89000010
   17.06110954  140.41799927    0.55000001    2.86999989
   17.06444359  136.42900085    0.55000001    2.86999989
   17.07055664  136.42900085    0.55000001    2.86999989
   17.07444572  129.36300659    0.55000001    2.86999989
   17.07777786  130.18499756    0.56999999    2.86999989
   17.08111191  138.19599915    0.55000001    2.86999989
   17.08416748  130.26100159    0.56999999    2.86999989
   17.08722305  137.58799744    0.55000001    2.86999989
   17.08777809  138.80799866    0.55000001    2.86999989
   17.09111214  140.16600037    0.55000001    2.84999990
   17.09416771  141.24699402    0.55000001    2.86999989
   17.09749985  142.27900696    0.55000001    2.86999989
   17.10055542  133.19299316    0.55000001    2.86999989
   17.10388947  139.52099609    0.55000001    2.89000010
   17.10722351  136.56500244    0.55000001    2.86999989
   17.11333466  136.56500244    0.56999999    2.86999989
   17.11750031  131.24200439    0.56999999    2.86999989
   17.12055588  134.84500122    0.56999999    2.86999989
   17.12111092  134.49600220    0.56999999    2.86999989
   17.12444496  136.11999512    0.56999999    2.86999989
   17.12750053  132.84599304    0.58999997    2.86999989
   17.13083267  147.79100037    0.61000001    2.86999989
   17.13388824  134.22200012    0.61000001    2.86999989
   17.13750076  135.37300110    0.61000001    2.84999990
   17.14055634  134.90899658    0.61000001    2.84999990
   17.14388847  133.70899963    0.63000000    2.86999989
   17.14722252  136.36799622    0.63000000    2.86999989
   17.15027809  143.50900269    0.63000000    2.86999989
   17.15611076  143.50900269    0.61000001    2.86999989
   17.16027832  139.44099426    0.61000001    2.86999989
   17.16333389  138.58500671    0.61000001    2.86999989
   17.16666603  135.24899292    0.61000001    2.86999989
   17.17000008  133.79499817    0.61000001    2.86999989
   17.17305565  125.95200348    0.63000000    2.86999989
   17.17638779  135.76100159    0.61000001    2.84999990
   17.17972183  139.32499695    0.61000001    2.84999990
   17.18305397  128.35200500    0.61000001    2.84999990
   17.18610954  128.49499512    0.61000001    2.86999989
   17.18722153  130.35400391    0.61000001    2.86999989
   17.18972206  128.05799866    0.61000001    2.86999989
   17.19305420  125.77100372    0.61000001    2.86999989
   17.19888878  125.77100372    0.56999999    2.86999989
   17.20305634  129.98500061    0.56999999    2.86999989
   17.20639038  120.63800049    0.56999999    2.86999989
   17.20944595  127.87799835    0.56999999    2.86999989
   17.21277809  129.57600403    0.55000001    2.86999989
   17.21611214  121.80999756    0.55000001    2.86999989
   17.21916771  132.05299377    0.55000001    2.86999989
   17.22055626  133.69000244    0.55000001    2.86999989
   17.22277832  130.90299988    0.55000001    2.86999989
   17.22611237  119.41200256    0.55000001    2.89000010
   17.22916794  129.13999939    0.55000001    2.86999989
   17.23250008  126.32800293    0.55000001    2.86999989
   17.23583412  128.79400635    0.55000001    2.86999989
   17.24194527  128.79400635    0.55000001    2.86999989
   17.24583435  123.36000061    0.52999997    2.86999989
   17.24916649  130.62399292    0.52999997    2.89000010
   17.25250053  123.40599823    0.52999997    2.86999989
   17.25416756  114.49400330    0.55000001    2.86999989
   17.25611115  125.35800171    0.55000001    2.86999989
   17.25944519  126.66600037    0.52999997    2.89000010
   17.26250076  129.97799683    0.52999997    2.86999989
   17.26583290  130.63400269    0.52999997    2.86999989
   17.26888847  129.99099731    0.52999997    2.89000010
   17.27222252  118.63700104    0.55000001    2.86999989
   17.27555466  127.85099792    0.55000001    2.89000010
   17.28000069  130.74699402    0.55000001    2.86999989
   17.28472137  130.74699402    0.55000001    2.86999989
   17.28888893  126.13099670    0.55000001    2.86999989
   17.29194450  133.15199280    0.55000001    2.89000010
   17.29527664  127.19200134    0.55000001    2.86999989
   17.29861069  130.46600342    0.52999997    2.86999989
   17.30166626  124.81400299    0.55000001    2.86999989
   17.30499840  131.75700378    0.55000001    2.86999989
   17.30805397  127.13899994    0.55000001    2.89000010
   17.31138802  137.79499817    0.55000001    2.89000010
   17.31472206  129.45100403    0.52999997    2.89000010
   17.31777954  123.26999664    0.52999997    2.86999989
   17.32083511  123.45500183    0.52999997    2.86999989
   17.32139015  125.35700226    0.55000001    2.86999989
   17.32750130  125.35700226    0.55000001    2.86999989
   17.33166695  134.94700623    0.56999999    2.89000010
   17.33472252  140.83500671    0.58999997    2.86999989
   17.33805656  128.55000305    0.61000001    2.86999989
   17.34138870  133.99299622    0.69000000    2.89000010
   17.34444427  136.02200317    0.55000001    2.89000010
   17.34777832  131.90100098    0.52999997    2.86999989
   17.35111237  140.78500366    0.52999997    2.86999989
   17.35416794  131.92700195    0.52999997    2.86999989
   17.35472298  132.52000427    0.52999997    2.86999989
   17.35777855  144.18400574    0.52999997    2.86999989
   17.36111069  133.35099792    0.55000001    2.86999989
   17.36444473  124.30699921    0.55000001    2.86999989
   17.37027740  124.30699921    0.56999999    2.89000010
   17.37444496  133.00199890    0.55000001    2.86999989
   17.37777710  132.76100159    0.55000001    2.89000010
   17.38083267  133.99600220    0.51999998    2.89000010
   17.38416672  140.33999634    0.51999998    2.89000010
   17.38750076  126.84500122    0.51999998    2.89000010
   17.38805580  132.52400208    0.51999998    2.89000010
   17.39111137  125.71499634    0.51999998    2.89000010
   17.39444351  135.62199402    0.51999998    2.89000010
   17.39749908  127.96900177    0.51999998    2.89000010
   17.40083313  123.68199921    0.51999998    2.86999989
   17.40416718  132.47300720    0.51999998    2.86999989
   17.40722275  125.50399780    0.51999998    2.89000010
   17.41305542  125.50399780    0.51999998    2.89000010
   17.41722107  131.12300110    0.51999998    2.86999989
   17.42055511  131.74899292    0.51999998    2.86999989
   17.42138863  130.71699524    0.51999998    2.89000010
   17.42416573  141.20700073    0.51999998    2.89000010
   17.42749977  141.61599731    0.51999998    2.89000010
   17.43055534  130.51800537    0.52999997    2.86999989
   17.43388748  136.65600586    0.51999998    2.86999989
   17.43722153  142.67100525    0.51999998    2.86999989
   17.44027710  136.49699402    0.51999998    2.86999989
   17.44361115  133.04299927    0.52999997    2.86999989
   17.44694328  135.16999817    0.52999997    2.86999989
   17.45000076  141.56599426    0.52999997    2.86999989
   17.45611191  141.56599426    0.52999997    2.86999989
   17.46027946  136.06700134    0.52999997    2.89000010
   17.46333504  134.13499451    0.52999997    2.86999989
   17.46666718  132.17500305    0.52999997    2.86999989
   17.46972275  139.40699768    0.52999997    2.86999989
   17.47305679  136.50500488    0.52999997    2.89000010
   17.47638893  140.59899902    0.52999997    2.86999989
   17.47944450  137.79899597    0.52999997    2.89000010
   17.48277855  138.52799988    0.52999997    2.89000010
   17.48611069  124.90499878    0.52999997    2.89000010
   17.48805618  129.22099304    0.52999997    2.86999989
   17.48972321  138.50799561    0.55000001    2.89000010
   17.49305534  132.56399536    0.55000001    2.86999989
   17.49888992  132.56399536    0.55000001    2.86999989
   17.50305557  152.15699768    0.56999999    2.86999989
   17.50611115  138.25999451    0.55000001    2.86999989
   17.50944519  146.49699402    0.55000001    2.86999989
   17.51277733  142.24099731    0.55000001    2.86999989
   17.51583290  147.01499939    0.55000001    2.86999989
   17.51916695  146.56700134    0.55000001    2.86999989
   17.52138901  153.95899963    0.55000001    2.86999989
   17.52277756  133.55700684    0.55000001    2.86999989
   17.52611160  147.25700378    0.55000001    2.86999989
   17.52916718  141.12300110    0.55000001    2.86999989
   17.53249931  142.67799377    0.56999999    2.86999989
   17.53583336  136.94799805    0.58999997    2.86999989
   17.54166603  136.94799805    0.58999997    2.86999989
   17.54583359  139.03199768    0.63000000    2.86999989
   17.54916573  130.56799316    0.63000000    2.86999989
   17.55222130  142.22099304    0.61000001    2.89000010
   17.55472183  134.54899597    0.58999997    2.86999989
   17.55583191  138.53399658    0.56999999    2.86999989
   17.55916595  124.49199677    0.55000001    2.86999989
   17.56222153  138.05000305    0.55000001    2.86999989
   17.56555557  140.10299683    0.55000001    2.86999989
   17.56888962  134.49299622    0.56999999    2.86999989
   17.57194519  145.48500061    0.55000001    2.86999989
   17.57527924  142.30999756    0.55000001    2.86999989
   17.57861137  138.27600098    0.55000001    2.86999989
   17.58444595  138.27600098    0.55000001    2.86999989
   17.58861160  133.67700195    0.55000001    2.86999989
   17.59194565  127.83599854    0.55000001    2.86999989
   17.59527779  136.32600403    0.55000001    2.89000010
   17.59833336  138.43499756    0.55000001    2.89000010
   17.60166740  135.57400513    0.55000001    2.86999989
   17.60499954  141.42399597    0.56999999    2.89000010
   17.60833359  140.14599609    0.55000001    2.89000010
   17.61138916  142.01199341    0.55000001    2.89000010
   17.61472321  138.77200317    0.55000001    2.89000010
   17.61805534  136.90899658    0.55000001    2.89000010
   17.62111092  136.69999695    0.52999997    2.86999989
   17.62166595  138.95100403    0.52999997    2.84999990
   17.62750053  138.95100403    0.52999997    2.89000010
   17.63166618  133.51400757    0.52999997    2.89000010
   17.63472176  130.33500671    0.52999997    2.86999989
   17.63805580  126.51999664    0.52999997    2.86999989
   17.64111137  131.04200745    0.52999997    2.86999989
   17.64444351  130.85499573    0.52999997    2.89000010
   17.64777756  128.04100037    0.52999997    2.86999989
   17.65083313  127.35600281    0.52999997    2.89000010
   17.65416718  130.48500061    0.52999997    2.86999989
   17.65499878  126.75399780    0.52999997    2.86999989
   17.65777779  134.33900452    0.52999997    2.89000010
   17.66083336  129.72599792    0.52999997    2.89000010
   17.66416550  140.93699646    0.52999997    2.89000010
   17.67027664  140.93699646    0.52999997    2.89000010
   17.67444420  130.13200378    0.52999997    2.89000010
   17.67749977  125.46900177    0.52999997    2.89000010
   17.68083191  141.69299316    0.52999997    2.86999989
   17.68416595  134.87800598    0.51999998    2.86999989
   17.68722153  130.13900757    0.51999998    2.86999989
   17.68833160  126.28500366    0.51999998    2.89000010
   17.69083214  128.80499268    0.51999998    2.89000010
   17.69388771  122.34300232    0.51999998    2.89000010
   17.69722176  128.15699768    0.51999998    2.89000010
   17.70055580  123.25499725    0.51999998    2.89000010
   17.70361137  132.64199829    0.51999998    2.89000010
   17.70694542  125.51300049    0.51999998    2.86999989
   17.71305656  125.51300049    0.51999998    2.89000010
   17.71722221  132.92900085    0.50000000    2.89000010
   17.72055626  141.74699402    0.51999998    2.89000010
   17.73750114  141.72399902    0.50000000    2.86999989
   17.74055672  137.71800232    0.50000000    2.86999989
   17.74361229  137.40899658    0.50000000    2.86999989
   17.74694443  132.99499512    0.50000000    2.91000009
   17.75000000  141.89500427    0.50000000    2.89000010
   17.75611115  141.89500427    0.51999998    2.89000010
   17.76000023  137.11099243    0.52999997    2.86999989
   17.76333427  139.79499817    0.56999999    2.89000010
   17.76666641  134.61999512    0.61000001    2.89000010
   17.76972198  120.89900208    0.61000001    2.89000010
   17.77083397  122.67099762    0.58999997    2.86999989
   17.77333260  126.41600037    0.58999997    2.89000010
   17.77666664  119.56099701    0.56999999    2.89000010
   17.78000069  138.18800354    0.55000001    2.89000010
   17.78305435  114.73100281    0.55000001    2.89000010
   17.78638840  133.46400452    0.52999997    2.89000010
   17.78972244  128.45599365    0.55000001    2.89000010
   17.79277802  136.82600403    0.52999997    2.89000010
   17.79888916  136.82600403    0.52999997    2.89000010
   17.80305481  138.82000732    0.52999997    2.89000010
   17.80416679  133.66999817    0.51999998    2.89000010
   17.80666542  124.18699646    0.52999997    2.89000010
   17.80972099  130.08299255    0.52999997    2.89000010
   17.81305504  150.62100220    0.52999997    2.89000010
   17.81611061  141.19099426    0.51999998    2.89000010
   17.81944466  148.11399841    0.51999998    2.86999989
   17.82277870  139.74200439    0.51999998    2.89000010
   17.82583427  127.48300171    0.51999998    2.89000010
   17.82916832  125.35500336    0.51999998    2.89000010
   17.83250046  138.75500488    0.51999998    2.89000010
   17.83555603  136.79299927    0.56999999    2.86999989
   17.83750153  134.30000305    0.56999999    2.86999989
   17.84166718  134.30000305    0.58999997    2.89000010
   17.84583473  130.88000488    0.55000001    2.86999989
   17.84916687  131.72999573    0.55000001    2.89000010
   17.85222244  135.56700134    0.55000001    2.89000010
   17.85555649  141.12600708    0.52999997    2.89000010
   17.85861206  137.91499329    0.55000001    2.89000010
   17.86194420  135.26300049    0.55000001    2.89000010
   17.86527824  132.72399902    0.55000001    2.89000010
   17.86833382  136.57200623    0.55000001    2.86999989
   17.87083435  127.11299896    0.55000001    2.89000010
   17.87222290  129.59800720    0.52999997    2.89000010
   17.87527847  121.02500153    0.55000001    2.86999989
   17.87861061  128.37899780    0.52999997    2.89000010
   17.88638878  128.37899780    0.51999998    2.89000010
   17.89055634  125.96399689    0.51999998    2.86999989
   17.89361191  124.11499786    0.51999998    2.89000010
   17.89694405  134.95199585    0.51999998    2.89000010
   17.90027809  133.21299744    0.52999997    2.89000010
   17.90333366  128.72399902    0.55000001    2.89000010
   17.90416718  124.99099731    0.55000001    2.89000010
   17.90722275  133.68099976    0.55000001    2.86999989
   17.91027832  117.75599670    0.55000001    2.86999989
   17.91361046  118.06500244    0.56999999    2.89000010
   17.91666603  125.80699921    0.55000001    2.89000010
   17.92000008  127.63099670    0.55000001    2.89000010
   17.92333221  133.28500366    0.56999999    2.86999989
   17.92749977  133.28500366    0.56999999    2.89000010
   17.93138885  124.36399841    0.56999999    2.86999989
   17.93472099  135.79699707    0.56999999    2.89000010
   17.93750000  139.88299561    0.52999997    2.89000010
   17.93861008  145.24099731    0.51999998    2.86999989
   17.94166565  148.45399475    0.52999997    2.86999989
   17.94499969  129.66200256    0.51999998    2.86999989
   17.94805527  135.87500000    0.51999998    2.86999989
   17.95138931  137.74299622    0.51999998    2.89000010
   17.95472336  134.05999756    0.52999997    2.86999989
   17.95777893  115.57499695    0.52999997    2.89000010
   17.96111107  124.88899994    0.52999997    2.86999989
   17.96444511  137.09100342    0.52999997    2.89000010
   17.97027779  137.09100342    0.51999998    2.89000010
   17.97444534  125.60900116    0.52999997    2.89000010
   17.97750092  125.66699982    0.52999997    2.89000010
   17.98083305  132.05299377    0.52999997    2.86999989
   17.98416710  127.65100098    0.52999997    2.86999989
   17.98722267  138.21099854    0.52999997    2.89000010
   17.99055672  139.32400513    0.52999997    2.86999989
   17.99361229  126.32900238    0.52999997    2.86999989
   17.99694443  120.59999847    0.52999997    2.86999989
   18.00027847  124.27300262    0.51999998    2.86999989
   18.00333405  128.88299561    0.52999997    2.89000010
   18.00527763  124.29100037    0.52999997    2.89000010
   18.00722313  113.93099976    0.51999998    2.86999989
   18.01305580  113.93099976    0.51999998    2.89000010
   18.01722145  124.49299622    0.52999997    2.89000010
   18.02055550  124.28299713    0.52999997    2.89000010
   18.02361107  127.32700348    0.52999997    2.86999989
   18.02694511  122.82299805    0.52999997    2.86999989
   18.03000069  121.90000153    0.52999997    2.86999989
   18.03333282  131.34100342    0.55000001    2.86999989
   18.03666687  117.87400055    0.55000001    2.86999989
   18.03861046  125.01000214    0.55000001    2.86999989
   18.04027748  126.72599792    0.55000001    2.86999989
   18.04333305  127.08899689    0.55000001    2.86999989
   18.04666710  124.40299988    0.55000001    2.86999989
   18.04999924  124.57900238    0.56999999    2.86999989
   18.05583191  124.57900238    0.56999999    2.89000010
   18.05999947  129.75300598    0.56999999    2.86999989
   18.06333351  120.10099792    0.56999999    2.86999989
   18.06638718  131.49800110    0.56999999    2.84999990
   18.06972313  119.64499664    0.56999999    2.89000010
   18.07222366  114.33699799    0.56999999    2.89000010
   18.07333374  133.10800171    0.56999999    2.89000010
   18.07666779  128.82499695    0.56999999    2.89000010
   18.08000183  137.13000488    0.56999999    2.89000010
   18.08305550  131.25300598    0.58999997    2.86999989
   18.08638954  120.21900177    0.56999999    2.86999989
   18.08972359  117.32399750    0.58999997    2.86999989
   18.09277916  116.48899841    0.56999999    2.86999989
   18.09889030  116.48899841    0.56999999    2.89000010
   18.10277748  126.81500244    0.56999999    2.84999990
   18.10555649  127.76399994    0.56999999    2.86999989
   18.10666656  122.75000000    0.56999999    2.86999989
   18.10972214  117.65200043    0.56999999    2.89000010
   18.11305618  122.51899719    0.56999999    2.86999989
   18.11638832  124.98999786    0.56999999    2.86999989
   18.11944389  121.41200256    0.56999999    2.86999989
   18.12277794  126.61299896    0.56999999    2.86999989
   18.12611198  129.88600159    0.56999999    2.86999989
   18.12916756  131.73300171    0.56999999    2.86999989
   18.13249969  127.71900177    0.56999999    2.86999989
   18.13555527  125.26100159    0.56999999    2.86999989
   18.14166641  125.26100159    0.56999999    2.86999989
   18.14583397  130.21499634    0.58999997    2.86999989
   18.14888954  130.71600342    0.58999997    2.86999989
   18.15222168  133.06500244    0.58999997    2.86999989
   18.15555573  128.51400757    0.58999997    2.86999989
   18.15861130  131.98599243    0.58999997    2.86999989
   18.16194344  137.58700562    0.56999999    2.86999989
   18.16499901  129.01699829    0.56999999    2.86999989
   18.16833305  133.38499451    0.58999997    2.86999989
   18.17166519  126.48699951    0.58999997    2.86999989
   18.17249870  129.17100525    0.58999997    2.86999989
   18.17527771  121.38099670    0.58999997    2.86999989
   18.17916679  133.49299622    0.58999997    2.86999989
   18.18444443  133.49299622    0.58999997    2.86999989
   18.18888855  123.24600220    0.56999999    2.86999989
   18.19222069  130.10099792    0.56999999    2.86999989
   18.19555473  129.13299561    0.56999999    2.86999989
   18.19861031  124.55799866    0.56999999    2.86999989
   18.20194435  128.42700195    0.56999999    2.86999989
   18.20499992  115.19599915    0.56999999    2.86999989
   18.20583344  120.97499847    0.56999999    2.86999989
   18.20888901  131.04299927    0.58999997    2.86999989
   18.21194458  125.08799744    0.58999997    2.86999989
   18.21527863  123.40899658    0.58999997    2.86999989
   18.21861076  131.03700256    0.58999997    2.86999989
   18.22166634  121.22499847    0.58999997    2.86999989
   18.22722244  121.22499847    0.63000000    2.86999989
   18.23139000  116.25000000    0.63000000    2.84999990
   18.23472214  125.84700012    0.63000000    2.86999989
   18.23777771  127.68900299    0.63000000    2.86999989
   18.23944473  124.85099792    0.63000000    2.86999989
   18.24138832  127.07099915    0.63000000    2.86999989
   18.24472237  124.86299896    0.63000000    2.86999989
   18.24805641  130.88800049    0.63000000    2.86999989
   18.25111198  130.09300232    0.63000000    2.86999989
   18.25444412  127.88600159    0.64999998    2.86999989
   18.25777817  130.68099976    0.64999998    2.86999989
   18.26083374  128.77299500    0.64999998    2.86999989
   18.26416588  129.69799805    0.63000000    2.86999989
   18.27027702  129.69799805    0.64999998    2.86999989
   18.27416611  138.61099243    0.64999998    2.86999989
   18.27750015  130.92700195    0.63000000    2.86999989
   18.28999901  131.15800476    0.00000000    0.00000000
   18.29305458  123.31500244    0.61000001    2.86999989
   18.29638863  128.03700256    0.61000001    2.86999989
   18.29972076  132.48100281    0.61000001    2.86999989
   18.30277634  129.08399963    0.61000001    2.86999989
   18.30611038  132.80099487    0.61000001    2.86999989
   18.30638885  142.88200378    0.61000001    2.86999989
   18.30972099  145.16099548    0.58999997    2.86999989
   18.31305504  138.90199280    0.56999999    2.86999989
   18.31750107  138.90199280    0.56999999    2.86999989
   18.32166672  129.29400635    0.56999999    2.86999989
   18.32500076  139.64300537    0.56999999    2.84999990
   18.32833481  136.17999268    0.56999999    2.86999989
   18.33139038  126.12300110    0.56999999    2.86999989
   18.33472252  127.89299774    0.56999999    2.86999989
   18.33777809  120.56199646    0.56999999    2.86999989
   18.33944511  132.63400269    0.63000000    2.86999989
   18.34166718  121.60099792    0.63000000    2.86999989
   18.34472275  133.42999268    0.63000000    2.86999989
   18.34805679  141.82099915    0.64999998    2.84999990
   18.35111237  129.83799744    0.63000000    2.86999989
   18.35444450  137.07899475    0.63000000    2.86999989
   18.36055565  137.07899475    0.61000001    2.86999989
   18.36444473  128.03900146    0.58999997    2.86999989
   18.36777878  141.18200684    0.58999997    2.86999989
   18.37111092  130.38000488    0.61000001    2.86999989
   18.37277794  145.84700012    0.61000001    2.86999989
   18.37472153  151.18699646    0.58999997    2.86999989
   18.37777710  124.83000183    0.58999997    2.86999989
   18.38111115  144.04200745    0.61000001    2.84999990
   18.38444519  147.63900757    0.63000000    2.84999990
   18.38750076  157.25100708    0.63000000    2.86999989
   18.39083290  145.25799561    0.63000000    2.86999989
   18.39416695  147.46400452    0.64999998    2.84999990
   18.39722252  140.04600525    0.64999998    2.84999990
   18.40333366  140.04600525    0.64999998    2.84999990
   18.40749931  157.09700012    0.69000000    2.86999989
   18.41055489  145.28199768    0.56999999    2.86999989
   18.41388893  133.98800659    0.56999999    2.86999989
   18.41694450  130.73399353    0.56999999    2.86999989
   18.42027664  126.50399780    0.58999997    2.86999989
   18.42361069  139.03500366    0.58999997    2.86999989
   18.42666626  136.30900574    0.63000000    2.84999990
   18.43000031  139.06500244    0.61000001    2.84999990
   18.43333244  137.01100159    0.61000001    2.86999989
   18.43638802  134.17700195    0.61000001    2.86999989
   18.43944359  140.32000732    0.61000001    2.86999989
   18.43999863  135.58099365    0.63000000    2.84999990
   18.44610977  135.58099365    0.64999998    2.86999989
   18.45027924  140.59399414    0.61000001    2.84999990
   18.45333481  145.37800598    0.61000001    2.86999989
   18.45666695  135.77799988    0.63000000    2.84999990
   18.46000099  148.79499817    0.63000000    2.84999990
   18.46333504  131.88200378    0.61000001    2.84999990
   18.46638870  136.91299438    0.61000001    2.84999990
   18.46972275  138.20700073    0.61000001    2.84999990
   18.47277832  134.66000366    0.61000001    2.84999990
   18.47333336  137.31599426    0.61000001    2.84999990
   18.47638893  141.26699829    0.61000001    2.86999989
   18.47972298  137.10200500    0.61000001    2.84999990
   18.48305511  131.99899292    0.61000001    2.84999990
   18.48888969  131.99899292    0.70999998    2.84999990
   18.49305534  136.39300537    0.70999998    2.84999990
   18.49638939  140.84500122    0.70999998    2.84999990
   18.49944496  145.76600647    0.73000002    2.84999990
   18.50277710  139.27099609    0.64999998    2.84999990
   18.50611115  137.75000000    0.61000001    2.84999990
   18.50638962  130.69200134    0.61000001    2.84999990
   18.50972176  135.42199707    0.61000001    2.84999990
   18.51305580  142.15499878    0.63000000    2.84999990
   18.51611137  146.05299377    0.63000000    2.86999989
   18.51944351  140.71099854    0.64999998    2.84999990
   18.52277756  142.35099792    0.64999998    2.84999990
   18.52583313  148.17599487    0.64999998    2.84999990
   18.53166580  148.17599487    0.61000001    2.84999990
   18.53583336  130.59800720    0.61000001    2.84999990
   18.53916550  137.06700134    0.61000001    2.84999990
   18.53999901  140.02499390    0.61000001    2.84999990
   18.54277802  138.76899719    0.61000001    2.84999990
   18.54611015  132.46299744    0.67000002    2.84999990
   18.54916573  142.10899353    0.69000000    2.86999989
   18.55249977  141.58700562    0.79000002    2.84999990
   18.55583191  139.84800720    0.79000002    2.84999990
   18.55888748  147.99600220    0.76999998    2.86999989
   18.56222153  136.87100220    0.76999998    2.86999989
   18.56555557  140.68699646    0.83999997    2.84999990
   18.56861115  145.56100464    0.81999999    2.84999990
   18.57472229  145.56100464    0.88000000    2.84999990
   18.57888985  139.94200134    0.86000001    2.84999990
   18.58194542  133.07099915    0.98000002    2.84999990
   18.58527756  134.30599976    0.89999998    2.84999990
   18.58833313  131.48300171    0.89999998    2.84999990
   18.59166718  129.80700684    0.79000002    2.86999989
   18.59500122  135.62100220    1.19000006    2.84999990
   18.59805679  122.68599701    0.98000002    2.84999990
   18.60138893  129.24000549    0.83999997    2.84999990
   18.60472298  131.43499756    0.64999998    2.84999990
   18.60666656  128.01499939    0.64999998    2.84999990
   18.60833359  131.40199280    0.64999998    2.84999990
   18.61166763  130.06300354    0.63000000    2.84999990
   18.61750031  130.06300354    0.61000001    2.84999990
   18.62166595  129.21699524    0.61000001    2.84999990
   18.62472153  122.82399750    0.61000001    2.84999990
   18.62805557  135.14300537    0.63000000    2.86999989
   18.63138962  120.44400024    0.73000002    2.84999990
   18.63444519  130.60899353    0.70999998    2.84999990
   18.63777733  123.32299805    0.67000002    2.84999990
   18.63999939  123.60600281    0.69000000    2.84999990
   18.64138794  117.03500366    0.69000000    2.84999990
   18.64472198  123.96900177    0.70999998    2.84999990
   18.64777756  124.49900055    0.67000002    2.84999990
   18.65111160  120.92500305    0.63000000    2.86999989
   18.65444374  127.68099976    0.63000000    2.86999989
   18.66027832  127.68099976    0.61000001    2.84999990
   18.66444397  123.45400238    0.61000001    2.86999989
   18.66777802  135.27699280    0.61000001    2.86999989
   18.67083359  136.07699585    0.61000001    2.86999989
   18.67333221  133.63099670    0.61000001    2.84999990
   18.67444420  138.50599670    0.61000001    2.84999990
   18.67777634  127.82499695    0.61000001    2.86999989
   18.68111038  130.24899292    0.61000001    2.84999990
   18.68444443  139.86199951    0.61000001    2.84999990
   18.68750000  139.06500244    0.61000001    2.84999990
   18.69083214  132.81799316    0.61000001    2.84999990
   18.69388771  141.68800354    0.61000001    2.84999990
   18.69722176  139.23599243    0.61000001    2.84999990
   18.70305634  139.23599243    0.58999997    2.86999989
   18.70722389  129.58000183    0.58999997    2.86999989
   18.71055603  138.29400635    0.61000001    2.84999990
   18.71389008  141.53399658    0.61000001    2.84999990
   18.71694565  138.85499573    0.58999997    2.86999989
   18.72027779  138.09899902    0.56999999    2.86999989
   18.72361183  145.08399963    0.56999999    2.84999990
   18.72666740  145.67900085    0.56999999    2.86999989
   18.73000145  143.65899658    0.56999999    2.86999989
   18.73305511  149.08999634    0.58999997    2.86999989
   18.73638916  163.02200317    0.56999999    2.86999989
   18.73972321  132.64900208    0.56999999    2.86999989
   18.74027824  152.52900696    0.56999999    2.86999989
   18.76138878   68.04100037    0.61000001    2.84999990
   18.76194382   70.58170319    0.61000001    2.84999990
   18.76499939  129.57400513    0.61000001    2.84999990
   18.76833344  128.52999878    0.63000000    2.84999990
   18.77166557  141.70599365    0.63000000    2.84999990
   18.77361107  134.10099792    0.63000000    2.86999989
   18.77527809  127.05699921    0.63000000    2.86999989
   18.77861023  136.32699585    0.63000000    2.84999990
   18.78166580  127.14700317    0.61000001    2.84999990
   18.78499985  130.47399902    0.63000000    2.84999990
   18.78916550  130.47399902    0.61000001    2.84999990
   18.79333305  141.00599670    0.61000001    2.84999990
   18.79638863  145.28900146    0.61000001    2.84999990
   18.79972076  126.55200195    0.61000001    2.84999990
   18.80277634  131.65400696    0.61000001    2.86999989
   18.80611038  135.44900513    0.61000001    2.86999989
   18.80694389  138.91299438    0.58999997    2.84999990
   18.80972099  142.68200684    0.58999997    2.84999990
   18.81305504  131.12100220    0.61000001    2.84999990
   18.81611061  138.26800537    0.58999997    2.84999990
   18.81944466  137.68699646    0.61000001    2.84999990
   18.82250023  135.38299561    0.61000001    2.84999990
   18.82583427  138.93800354    0.61000001    2.84999990
   18.83194542  138.93800354    0.58999997    2.84999990
   18.83611107  134.17100525    0.58999997    2.84999990
   18.83916664  127.88400269    0.61000001    2.84999990
   18.84027863  130.52299500    0.61000001    2.84999990
   18.84305573  128.92500305    0.61000001    2.84999990
   18.84638977  124.84400177    0.61000001    2.84999990
   18.84944534  119.24199677    0.61000001    2.86999989
   18.85277748  127.60700226    0.61000001    2.84999990
   18.85583305  126.17299652    0.61000001    2.84999990
   18.85916710  122.46700287    0.63000000    2.84999990
   18.86250114  133.27200317    0.63000000    2.84999990
   18.86555672  119.09100342    0.63000000    2.84999990
   18.86888885  117.28600311    0.63000000    2.84999990
   18.87472153  117.28600311    0.64999998    2.84999990
   18.87888908  127.62300110    0.64999998    2.84999990
   18.88222313  129.73599243    0.64999998    2.84999990
   18.88555527  118.96700287    0.64999998    2.84999990
   18.88888931  124.24199677    0.64999998    2.84999990
   18.89194489  115.63099670    0.69000000    2.84999990
   18.89527702  136.97399902    0.70999998    2.84999990
   18.89861107  135.95399475    0.73000002    2.84999990
   18.90166664  135.49800110    0.73000002    2.84999990
   18.90499878  135.74000549    0.80000001    2.82999992
   18.90694427  126.73899841    0.83999997    2.84999990
   18.90861130  129.46699524    0.83999997    2.84999990
   18.91194344  121.18099976    0.76999998    2.84999990
   18.91749954  121.18099976    0.70999998    2.84999990
   18.92166519  123.95300293    0.67000002    2.84999990
   18.92499924  116.20200348    0.67000002    2.84999990
   18.92833328  123.18499756    0.69000000    2.84999990
   18.93166542  120.28800201    0.69000000    2.82999992
   18.93472099  127.48200226    0.70999998    2.84999990
   18.93805504  112.12100220    0.69000000    2.84999990
   18.94027710  115.22299957    0.70999998    2.84999990
   18.94166565  121.56600189    0.70999998    2.84999990
   18.94499969  123.38400269    0.69000000    2.82999992
   18.94805527  126.19799805    0.70999998    2.82999992
   18.95138931  118.70300293    0.73000002    2.82999992
   18.95472336  127.99700165    0.73000002    2.82999992
   18.96055603  127.99700165    0.75000000    2.84999990
   18.96472359  118.35800171    0.73000002    2.84999990
   18.96777916  116.65299988    0.73000002    2.82999992
   18.97111130  113.90399933    0.73000002    2.82999992
   18.97361183  126.14700317    0.73000002    2.82999992
   18.97472191  135.09300232    0.70999998    2.84999990
   18.97805595  137.91299438    0.70999998    2.84999990
   18.98111153  128.97799683    0.70999998    2.84999990
   18.98444557  143.86399841    0.70999998    2.82999992
   18.98777771  154.58299255    0.73000002    2.82999992
   18.99083328  151.61599731    0.73000002    2.82999992
   18.99416733  159.45399475    0.73000002    2.82999992
   18.99722290  167.24099731    0.70999998    2.82999992
   19.00333405  167.24099731    0.73000002    2.82999992
   19.00749969  159.71099854    0.73000002    2.82999992
   19.01055527  175.69799805    0.73000002    2.82999992
   19.01388931  167.38600159    0.73000002    2.82999992
   19.01722145  181.52499390    0.73000002    2.82999992
   19.02027702  164.83500671    0.73000002    2.82999992
   19.02361107  169.65100098    0.73000002    2.82999992
   19.02694511  186.13699341    0.73000002    2.80999994
   19.03000069  180.38999939    0.75000000    2.82999992
   19.03333282  176.50500488    0.75000000    2.82999992
   19.03638840  185.00199890    0.75000000    2.82999992
   19.03972244  179.82600403    0.76999998    2.82999992
   19.04027748  186.13000488    0.76999998    2.82999992
   19.04611015  186.13000488    0.76999998    2.82999992
   19.05027771  186.18099976    0.79000002    2.80999994
   19.05360985  156.85299683    0.79000002    2.82999992
   19.05666542  173.94900513    0.79000002    2.82999992
   19.05999947  154.77299500    0.79000002    2.80999994
   19.06333351  184.72900391    0.81999999    2.82999992
   19.06638718  165.68499756    0.81999999    2.80999994
   19.06972313  170.38600159    0.83999997    2.82999992
   19.07305717  174.48300171    0.83999997    2.82999992
   19.07361221  172.44799805    0.83999997    2.82999992
   19.07666779  158.22000122    0.81999999    2.80999994
   19.08000183  159.25000000    0.83999997    2.82999992
   19.08305550  151.79400635    0.83999997    2.82999992
   19.08889008  151.79400635    0.81999999    2.80999994
   19.09305573  144.93099976    0.81999999    2.80999994
   19.09638977  146.27600098    0.81999999    2.80999994
   19.09972191  152.51100159    0.81999999    2.80999994
   19.10277748  149.25799561    0.81999999    2.82999992
   19.10611153  158.48699951    0.81999999    2.82999992
   19.10694504  154.98399353    0.81999999    2.82999992
   19.10972214  165.95700073    0.81999999    2.82999992
   19.11305618  146.81199646    0.80000001    2.80999994
   19.11611176  157.36099243    0.80000001    2.80999994
   19.11944389  148.82699585    0.80000001    2.80999994
   19.12277794  150.95300293    0.80000001    2.82999992
   19.12583351  141.66499329    0.80000001    2.82999992
   19.13194466  141.66499329    0.79000002    2.82999992
   19.13611031  163.20899963    0.79000002    2.80999994
   19.13916588  142.91000366    0.79000002    2.80999994
   19.14027786  136.70399475    0.79000002    2.80999994
   19.14277840  155.47399902    0.80000001    2.82999992
   19.14611053  149.32200623    0.80000001    2.82999992
   19.14916611  158.95399475    0.80000001    2.82999992
   19.15250015  150.35899353    0.80000001    2.82999992
   19.15583229  161.01600647    0.81999999    2.80999994
   19.15888786  147.60000610    0.81999999    2.80999994
   19.16222191  128.08000183    0.80000001    2.80999994
   19.16555595  153.15899658    0.80000001    2.80999994
   19.16860962  151.75100708    0.81999999    2.80999994
   19.17472076  151.75100708    0.89999998    2.82999992
   19.17888832  151.85200500    0.88000000    2.80999994
   19.18194389  134.45700073    0.86000001    2.82999992
   19.18527603  144.58700562    0.83999997    2.82999992
   19.18861008  155.04200745    0.83999997    2.80999994
   19.19166565  149.92700195    0.83999997    2.80999994
   19.19499969  145.56399536    0.83999997    2.80999994
   19.19833183  153.46200562    0.83999997    2.80999994
   19.20138931  162.90699768    0.83999997    2.80999994
   19.20472336  169.20599365    0.81999999    2.80999994
   19.20694542  167.00700378    0.81999999    2.80999994
   19.20833397  162.00700378    0.81999999    2.80999994
   19.21166801  145.00100708    0.83999997    2.80999994
   19.21750069  145.00100708    0.83999997    2.80999994
   19.22166634  146.11700439    0.81999999    2.82999992
   19.22500038  154.59199524    0.81999999    2.82999992
   19.22805595  146.02900696    0.81999999    2.80999994
   19.23139000  138.44200134    0.81999999    2.80999994
   19.23444557  160.23199463    0.83999997    2.80999994
   19.23777771  161.47700500    0.83999997    2.80999994
   19.24027824  129.74299622    0.83999997    2.80999994
   19.24138832  144.61500549    0.81999999    2.80999994
   19.24472237  149.46699524    0.81999999    2.80999994
   19.24777794  153.14799500    0.83999997    2.82999992
   19.25111198  161.13000488    0.83999997    2.82999992
   19.25444412  153.69299316    0.81999999    2.82999992
   19.26027870  153.69299316    0.86000001    2.80999994
   19.26444435  185.71200562    0.83999997    2.82999992
   19.26777840  161.74299622    0.83999997    2.82999992
   19.27111053  164.25100708    0.88000000    2.80999994
   19.27361107  172.47799683    0.86000001    2.80999994
   19.27472115  167.00300598    0.86000001    2.80999994
   19.27805519  162.16900635    0.86000001    2.82999992
   19.28111076  167.85600281    0.81999999    2.80999994
   19.28444481  174.10800171    0.81999999    2.80999994
   19.28777695  158.17599487    0.81999999    2.82999992
   19.29083252  163.73800659    0.83999997    2.82999992
   19.29416656  176.37600708    0.83999997    2.82999992
   19.29722214  174.13699341    0.81999999    2.80999994
   19.30333328  174.13699341    0.81999999    2.80999994
   19.30749893  172.96699524    0.81999999    2.80999994
   19.31055450  160.72900391    0.81999999    2.80999994
   19.31388855  170.03100586    0.81999999    2.82999992
   19.31694603  159.49699402    0.81999999    2.82999992
   19.32027817  159.77699280    0.81999999    2.82999992
   19.32361221  163.44599915    0.81999999    2.80999994
   19.32666779  165.59899902    0.81999999    2.80999994
   19.33000183  165.25599670    0.81999999    2.80999994
   19.33333397  175.67599487    0.81999999    2.80999994
   19.33638954  159.70100403    0.81999999    2.80999994
   19.33972359  161.80900574    0.83999997    2.82999992
   19.34055710  158.65899658    0.81999999    2.80999994
   19.34611130  158.65899658    0.83999997    2.80999994
   19.35027885  153.64399719    0.83999997    2.80999994
   19.35333443  154.49800110    0.83999997    2.80999994
   19.35666656  155.26199341    0.83999997    2.80999994
   19.36000061  163.32400513    0.86000001    2.80999994
   19.36305618  158.55200195    0.86000001    2.80999994
   19.36638832  153.58299255    0.86000001    2.80999994
   19.36944389  169.58900452    0.86000001    2.80999994
   19.37277794  155.91999817    0.86000001    2.80999994
   19.37388992  167.32000732    0.86000001    2.80999994
   19.37638855  163.96299744    0.86000001    2.80999994
   19.37972260  170.41299438    0.86000001    2.80999994
   19.38277817  165.93699646    0.86000001    2.80999994
   19.38888931  165.93699646    0.88000000    2.80999994
   19.39305496  167.57400513    0.86000001    2.80999994
   19.39638901  173.72000122    0.86000001    2.80999994
   19.39944458  167.77999878    0.86000001    2.80999994
   19.40277672  190.99800110    0.88000000    2.80999994
   19.40583229  171.48500061    0.88000000    2.80999994
   19.40722275  175.32299805    0.88000000    2.80999994
   19.40944481  175.01100159    0.88000000    2.80999994
   19.41277695  164.80999756    0.88000000    2.80999994
   19.41583252  165.31799316    0.88000000    2.80999994
   19.41916656  167.03100586    0.88000000    2.80999994
   19.42249870  168.14599609    0.88000000    2.80999994
   19.42555428  147.19200134    0.88000000    2.80999994
   19.43166542  147.19200134    0.88000000    2.78999996
   19.43583298  156.93400574    0.88000000    2.78999996
   19.43916512  140.99200439    0.88000000    2.80999994
   19.44055557  160.44999695    0.88000000    2.80999994
   19.44277763  148.68499756    0.89999998    2.78999996
   19.44610977  135.53300476    0.89999998    2.78999996
   19.44916534  158.46499634    0.88000000    2.78999996
   19.45250130  141.22900391    0.89999998    2.80999994
   19.45583344  139.91400146    0.88000000    2.78999996
   19.45888901  154.46899414    0.88000000    2.80999994
   19.46222305  150.96400452    0.88000000    2.78999996
   19.46555710  164.17399597    0.88000000    2.78999996
   19.46861076  136.61799622    0.88000000    2.78999996
   19.47472191  136.61799622    0.88000000    2.78999996
   19.47861099  145.07699585    0.88000000    2.78999996
   19.48194504  139.35899353    0.89999998    2.78999996
   19.48527718  142.49200439    0.88000000    2.80999994
   19.48833275  149.35400391    0.89999998    2.80999994
   19.49166679  145.81599426    0.89999998    2.78999996
   19.49500084  137.27000427    0.89999998    2.78999996
   19.49805641  143.35499573    0.89999998    2.80999994
   19.50138855  147.35200500    0.89999998    2.78999996
   19.50472260  146.28300476    0.89999998    2.80999994
   19.50722313  153.23500061    0.89999998    2.78999996
   19.50805473  147.91099548    0.89999998    2.78999996
   19.51138878  156.51100159    0.89999998    2.80999994
   19.51749992  156.51100159    0.89999998    2.80999994
   19.52166557  139.40100098    0.89999998    2.78999996
   19.52472115  142.81700134    0.89999998    2.78999996
   19.52805519  134.28700256    0.89999998    2.78999996
   19.53138924  126.00000000    0.89999998    2.78999996
   19.53444481  132.86000061    0.89999998    2.78999996
   19.53777695  128.86799622    0.92000002    2.78999996
   19.54055595  141.00100708    0.94000000    2.78999996
   19.54138756  138.03300476    0.94000000    2.78999996
   19.54472160  142.49000549    1.00000000    2.80999994
   19.54805565  135.06100464    0.95999998    2.78999996
   19.55111122  137.03599548    0.95999998    2.80999994
   19.55444336  135.41099548    0.95999998    2.80999994
   19.56027794  135.41099548    0.95999998    2.78999996
   19.56444359  130.48599243    0.94000000    2.78999996
   19.56777954  141.47099304    0.94000000    2.80999994
   19.57083511  130.01699829    0.94000000    2.78999996
   19.57389069  142.99800110    0.94000000    2.78999996
   19.57444572  131.40499878    0.94000000    2.78999996
   19.57777786  147.23500061    0.94000000    2.76999998
   19.58083344  142.68600464    0.94000000    2.78999996
   19.58416748  130.19999695    0.94000000    2.78999996
   19.58750153  136.67100525    0.95999998    2.78999996
   19.59055710  135.24600220    0.95999998    2.78999996
   19.59388924  133.42700195    0.95999998    2.78999996
   19.59722328  141.33700562    0.95999998    2.78999996
   19.60305595  141.33700562    0.98000002    2.80999994
   19.60722351  140.41700745    1.01999998    2.78999996
   19.61055565  138.15400696    1.01999998    2.78999996
   19.61388969  143.29899597    1.01999998    2.78999996
   19.61694527  139.18899536    1.01999998    2.78999996
   19.62027740  143.14799500    1.01999998    2.78999996
   19.62333298  139.12199402    1.01999998    2.78999996
   19.62666702  141.52999878    1.01999998    2.78999996
   19.63000107  145.17500305    1.01999998    2.78999996
   19.63305473  132.24299622    1.01999998    2.78999996
   19.63638878  139.57099915    1.01999998    2.78999996
   19.63972282  145.32800293    1.01999998    2.78999996
   19.64055634  147.09100342    1.01999998    2.78999996
   19.64611053  147.09100342    1.01999998    2.76999998
   19.64999962  137.94900513    1.03999996    2.76999998
   19.65333366  142.61599731    1.03999996    2.78999996
   19.65666580  149.07699585    1.03999996    2.78999996
   19.65972137  136.06700134    1.03999996    2.76999998
   19.66305542  143.88600159    1.03999996    2.78999996
   19.66638756  134.22099304    1.03999996    2.78999996
   19.66944313  132.63099670    1.03999996    2.78999996
   19.67277718  132.91600037    1.05999994    2.78999996
   19.67388916  133.94799805    1.05999994    2.78999996
   19.67638779  132.89399719    1.05999994    2.76999998
   19.67972183  123.69899750    1.07000005    2.78999996
   19.68305397  135.43899536    1.07000005    2.78999996
   19.68888855  135.43899536    1.13000000    2.76999998
   19.69305420  141.16000366    1.14999998    2.76999998
   19.69610977  125.74299622    1.14999998    2.76999998
   19.69944382  139.34199524    1.13000000    2.76999998
   19.70277786  143.81900024    1.09000003    2.76999998
   19.70583344  134.87600708    1.09000003    2.76999998
   19.70722389  138.77000427    1.09000003    2.76999998
   19.70944595  138.12800598    1.09000003    2.78999996
   19.71277809  123.82700348    1.09000003    2.78999996
   19.71611214  125.48600006    1.07000005    2.78999996
   19.71916771  114.83499908    1.07000005    2.76999998
   19.72249985  129.71200562    1.09000003    2.76999998
   19.72555542  123.01999664    1.11000001    2.76999998
   19.73166656  123.01999664    1.11000001    2.76999998
   19.73583412  127.64399719    1.14999998    2.76999998
   19.73916626  133.79100037    1.09000003    2.78999996
   19.74055672  138.78999329    1.09000003    2.78999996
   19.74250031  133.93699646    1.09000003    2.78999996
   19.74583435  131.61500549    1.11000001    2.76999998
   19.74916649  143.85099792    1.09000003    2.76999998
   19.75222206  141.04499817    1.09000003    2.76999998
   19.75555611  145.53900146    1.09000003    2.76999998
   19.75861168  144.22999573    1.07000005    2.76999998
   19.77833366  158.96200562    1.09000003    2.76999998
   19.78249931  158.96200562    1.09000003    2.76999998
   19.78666687  150.02000427    1.11000001    2.78999996
   19.78972244  171.15199280    1.11000001    2.78999996
   19.79305458  179.32800293    1.19000006    2.78999996
   19.79611015  193.29200745    1.19000006    2.76999998
   19.79944420  181.50000000    1.21000004    2.76999998
   19.80277634  165.83999634    1.13000000    2.76999998
   19.80583191  167.68800354    1.13000000    2.78999996
   19.80916595  177.62699890    1.14999998    2.76999998
   19.81250000  171.62100220    1.16999996    2.78999996
   19.81333351  171.06399536    1.16999996    2.76999998
   19.81611061  180.93600464    1.16999996    2.76999998
   19.81916809  174.16700745    1.16999996    2.76999998
   19.82527924  174.16700745    1.13000000    2.76999998
   19.82944489  164.54499817    1.11000001    2.76999998
   19.83250046  166.86500549    1.11000001    2.76999998
   19.83583450  167.32699585    1.11000001    2.76999998
   19.83916664  157.47900391    1.11000001    2.76999998
   19.84222221  177.70799255    1.11000001    2.76999998
   19.84555626  166.08299255    1.11000001    2.76999998
   19.84666824  164.49899292    1.11000001    2.76999998
   19.84916687  170.62600708    1.13000000    2.76999998
   19.85222244  150.22099304    1.13000000    2.76999998
   19.85555649  157.97300720    1.13000000    2.75000000
   19.85861206  160.31500244    1.13000000    2.76999998
   19.86194420  168.08000183    1.16999996    2.76999998
   19.86805534  168.08000183    1.14999998    2.75000000
   19.87222290  172.69599915    1.13000000    2.76999998
   19.87555504  156.64300537    1.11000001    2.76999998
   19.87861061  169.52099609    1.11000001    2.76999998
   19.88027763  156.57800293    1.11000001    2.76999998
   19.88222313  161.41600037    1.11000001    2.75000000
   19.88555527  162.45599365    1.11000001    2.75000000
   19.88888931  139.78100586    1.11000001    2.75000000
   19.89194489  154.43899536    1.11000001    2.75000000
   19.89527702  159.98800659    1.11000001    2.76999998
   19.89833260  162.18099976    1.11000001    2.76999998
   19.90166664  148.07899475    1.11000001    2.75000000
   19.90499878  158.74400330    1.11000001    2.75000000
   19.91083336  158.74400330    1.13000000    2.76999998
   19.91499901  160.25500488    1.11000001    2.75000000
   19.91833305  159.55700684    1.11000001    2.75000000
   19.92138863  149.93400574    1.13000000    2.75000000
   19.92472076  156.42399597    1.13000000    2.75000000
   19.92805481  160.53399658    1.13000000    2.75000000
   19.93111038  152.90199280    1.14999998    2.76999998
   19.93444443  163.16099548    1.14999998    2.76999998
   19.93777657  143.35099792    1.14999998    2.75000000
   19.94083214  165.93600464    1.16999996    2.75000000
   19.94416618  151.71600342    1.16999996    2.75000000
   19.94694328  155.82000732    1.16999996    2.75000000
   19.94777679  159.26600647    1.16999996    2.75000000
   19.95388985  159.26600647    1.14999998    2.75000000
   19.95777893  165.07499695    1.14999998    2.75000000
   19.96111107  152.32600403    1.14999998    2.75000000
   19.96444511  145.33599854    1.16999996    2.75000000
   19.96750069  146.00399780    1.16999996    2.75000000
   19.97083473  145.03500366    1.16999996    2.75000000
   19.97416687  161.93600464    1.14999998    2.75000000
   19.97722244  168.17700195    1.14999998    2.75000000
   19.98027802  149.38000488    1.14999998    2.75000000
   19.98083305  145.70500183    1.14999998    2.75000000
   19.98416710  145.77799988    1.14999998    2.75000000
   19.98750114  145.91999817    1.14999998    2.75000000
   19.99055672  151.21200562    1.14999998    2.75000000
   19.99666786  151.21200562    1.16999996    2.75000000
   20.00083351  143.86599731    1.16999996    2.75000000
   20.00388908  134.48699951    1.16999996    2.75000000
   20.00722313  137.60099792    1.16999996    2.75000000
   20.01055527  145.08799744    1.14999998    2.75000000
   20.02222252  136.32699585    1.16999996    2.75000000
   20.02305603  138.12199402    1.16999996    2.75000000
   20.02611160  133.29299927    1.16999996    2.75000000
   20.02944374  125.43499756    1.14999998    2.75000000
   20.03277779  137.87500000    1.14999998    2.75000000
   20.04888916  137.87500000    1.16999996    2.76999998
   20.05305481  145.41099548    1.16999996    2.75000000
   20.05638885   -1.00000000    1.16999996    2.75000000
   20.05944443   -1.00000000    1.16999996    2.75000000
   20.06277657   -1.00000000    1.19000006    2.75000000
   20.06611061   -1.00000000    1.19000006    2.75000000
   20.06916809   -1.00000000    1.19000006    2.75000000
   20.07250023   -1.00000000    1.21000004    2.75000000
   20.07555580   -1.00000000    1.21000004    2.75000000
   20.08638954   -1.00000000    1.23000002    2.75000000
   20.08972359   -1.00000000    1.23000002    2.75000000
   20.09277916   -1.00000000    1.23000002    2.75000000
   20.09611130   -1.00000000    1.23000002    2.75000000
   20.09944534   -1.00000000    1.25000000    2.75000000
   20.10250092   -1.00000000    1.25000000    2.73000002
   20.10583305   -1.00000000    1.26999998    2.75000000
   20.10888863   -1.00000000    1.25000000    2.73000002
   20.11222267   -1.00000000    1.26999998    2.75000000
   20.11555672   -1.00000000    1.26999998    2.75000000
   20.11916733   -1.00000000    1.25000000    2.75000000
   20.13777733   -1.00000000    0.00000000    0.00000000
   20.14083290   -1.00000000    1.30999994    2.73000002
   20.14416695  140.51499939    1.26999998    2.73000002
   20.14749908  143.21600342    1.26999998    2.75000000
   20.15055466  156.14100647    1.25000000    2.73000002
   20.15472221  149.52799988    1.26999998    2.73000002
   20.15583229  138.95300293    1.26999998    2.73000002
   20.15888786  142.08900452    1.33000004    2.73000002
   20.16222191  140.83900452    1.33000004    2.73000002
   20.16805458  140.83900452    1.28999996    2.73000002
   20.17222214  137.35400391    1.26999998    2.73000002
   20.17527771  130.23100281    1.28999996    2.71000004
   20.17860985  134.97500610    1.30999994    2.73000002
   20.46750069  130.68800354    1.46000004    2.71000004
   20.47111130  138.42799377    1.63000000    2.69000006
   20.47444534  133.56399536    1.64999998    2.69000006
   20.47777748  131.22700500    1.64999998    2.69000006
   20.48083305  135.01100159    1.55999994    2.69000006
   20.48416710  125.68199921    1.48000002    2.69000006
   20.49694443  125.68199921    1.51999998    2.69000006
   20.50111198  127.10700226    1.50000000    2.69000006
   20.50416756  119.69400024    1.50000000    2.69000006
   20.50749969  129.37100220    1.50000000    2.69000006
   20.51055527  117.76899719    1.50000000    2.69000006
   20.51388931  121.80699921    1.50000000    2.69000006
   20.51694489  133.82699585    1.50000000    2.69000006
   20.52027702  124.19100189    1.50000000    2.69000006
   20.52361107  114.36199951    1.51999998    2.67000008
   20.52666664  124.80300140    1.51999998    2.69000006
   20.53111076  124.80300140    1.51999998    2.69000006
   20.53527641  117.07099915    1.53999996    2.67000008
   20.53833199  122.47499847    1.51999998    2.67000008
   20.54166603  132.96800232    1.53999996    2.67000008
   20.54472160  124.45500183    1.53999996    2.67000008
   20.54805565  137.15299988    1.53999996    2.67000008
   20.55111122  115.14900208    1.53999996    2.67000008
   20.55444336  136.30999756    1.53999996    2.67000008
   20.55777740  127.91899872    1.55999994    2.67000008
   20.56083298  131.85400391    1.55999994    2.67000008
   20.56416512  126.40599823    1.55999994    2.67000008
   20.56722260  118.75199890    1.58000004    2.67000008
   20.56777954  138.88699341    1.58000004    2.67000008
   20.57389069  138.88699341    1.58000004    2.67000008
   20.57805634  119.17199707    1.58000004    2.67000008
   20.58111191  126.02899933    1.60000002    2.67000008
   20.58444595  136.65299988    1.60000002    2.67000008
   20.58777809  133.71299744    1.60000002    2.67000008
   20.59083366  141.00799561    1.60000002    2.67000008
   20.59416771  127.53800201    1.61000001    2.67000008
   20.59722328  137.24499512    1.61000001    2.67000008
   20.60055542  141.65499878    1.61000001    2.67000008
   20.60111237  132.43099976    1.61000001    2.67000008
   20.60416794  126.72499847    1.61000001    2.67000008
   20.60722351  129.90600586    1.63000000    2.67000008
   20.61055565  131.11799622    1.63000000    2.67000008
   20.61666679  131.11799622    1.63000000    2.67000008
   20.62083435  129.81100464    1.63000000    2.67000008
   20.62416649  132.57800293    1.64999998    2.66000009
   20.62722206  127.53099823    1.66999996    2.67000008
   20.63055611  147.33599854    1.71000004    2.66000009
   20.63361168  130.87800598    1.64999998    2.66000009
   20.63444519  146.82400513    1.64999998    2.66000009
   20.63750076  135.17500305    1.64999998    2.66000009
   20.64055634  150.71499634    1.71000004    2.67000008
   20.64388847  166.35800171    1.69000006    2.67000008
   20.64694405  133.74299622    1.69000006    2.67000008
   20.65027809  153.63200378    1.71000004    2.67000008
   20.65361023  149.81100464    1.73000002    2.67000008
   20.65972137  149.81100464    1.66999996    2.66000009
   20.66388893  147.10099792    1.66999996    2.66000009
   20.66694450  150.51800537    1.66999996    2.66000009
   20.66777802  136.67399597    1.66999996    2.66000009
   20.67083359  141.27200317    1.66999996    2.67000008
   20.67388916  143.75700378    1.69000006    2.66000009
   20.67722130  142.47000122    1.69000006    2.66000009
   20.68055534  146.33799744    1.69000006    2.66000009
   20.68361092  125.05300140    1.69000006    2.67000008
   20.68694305  138.25000000    1.71000004    2.66000009
   20.68999863  135.61799622    1.71000004    2.66000009
   20.69333267  144.22399902    1.73000002    2.66000009
   20.69638824  145.92100525    1.73000002    2.66000009
   20.70250130  145.92100525    1.76999998    2.66000009
   20.70666695  132.67799377    1.78999996    2.67000008
   20.70972252  142.39999390    1.76999998    2.66000009
   20.71305656  140.75300598    1.76999998    2.66000009
   20.71611214  142.97000122    1.75000000    2.67000008
   20.71944427  140.56100464    1.83000004    2.66000009
   20.72249985  136.43200684    1.83000004    2.66000009
   20.72583389  131.60600281    1.86000001    2.66000009
   20.72916794  138.07499695    1.83000004    2.66000009
   20.73222351  144.19900513    1.80999994    2.66000009
   20.73444557  135.24899292    1.78999996    2.66000009
   20.73583412  143.74800110    1.78999996    2.66000009
   20.73888969  138.37100220    1.78999996    2.67000008
   20.74527740  138.37100220    1.76999998    2.66000009
   20.74944496  130.90100098    1.76999998    2.66000009
   20.75250053  128.67300415    1.78999996    2.66000009
   20.75583267  126.89499664    1.78999996    2.66000009
   20.75916672  139.80999756    1.85000002    2.66000009
   20.76222229  127.33200073    1.88000000    2.66000009
   20.76555634  121.71800232    1.96000004    2.66000009
   20.76777840  122.62699890    1.96000004    2.66000009
   20.76916695  126.61299896    1.89999998    2.66000009
   20.77222252  124.08100128    1.89999998    2.66000009
   20.77555466  131.83500671    1.88000000    2.64000010
   20.77888870  124.46199799    1.89999998    2.64000010
   20.78194427  119.51300049    1.88000000    2.64000010
   20.78805542  119.51300049    1.89999998    2.66000009
   20.79222107  123.98799896    1.91999996    2.64000010
   20.79555511  123.39700317    1.94000006    2.64000010
   20.79861069  144.57299805    1.94000006    2.64000010
   20.80111122  122.51699829    1.94000006    2.64000010
   20.80222130  124.38300323    1.94000006    2.64000010
   20.80527687  127.91000366    1.94000006    2.64000010
   20.80861092  125.14600372    1.96000004    2.64000010
   20.81194305  119.67900085    1.96000004    2.64000010
   20.81499863  123.02500153    2.01999998    2.64000010
   20.81833458  118.24199677    2.01999998    2.64000010
   20.82139015  119.90799713    2.03999996    2.64000010
   20.82472229  139.00300598    2.05999994    2.64000010
   20.83111191  139.00300598    2.07999992    2.61999989
   20.83500099  116.15399933    2.09999990    2.64000010
   20.83833313  116.29100037    2.09999990    2.64000010
   20.84166718  120.25700378    2.11999989    2.64000010
   20.84472275  115.32900238    2.11999989    2.61999989
   20.84805679  113.55899811    2.09999990    2.61999989
   20.85111237  117.58300018    2.11999989    2.61999989
   20.85444450  117.37799835    2.11999989    2.61999989
   20.85750008  120.42199707    2.11999989    2.64000010
   20.86083412  123.95999908    2.11999989    2.61999989
   20.86416626  113.01399994    2.11999989    2.61999989
   20.86722183  118.83300018    2.11999989    2.61999989
   20.86777878  124.08899689    2.11999989    2.61999989
   20.87388992  124.08899689    2.09999990    2.61999989
   20.87805557  124.18900299    2.11999989    2.61999989
   20.88111115  122.79599762    2.11999989    2.61999989
   20.88444519  117.70500183    2.13000011    2.61999989
   20.88750076  115.61399841    2.11999989    2.61999989
   20.89138794  114.32599640    2.11999989    2.61999989
   20.89444351  122.36399841    2.17000008    2.61999989
   20.89777756  116.35199738    2.15000010    2.64000010
   20.90083313  121.97499847    2.21000004    2.61999989
   20.90138817  115.03099823    2.21000004    2.61999989
   20.90472221  116.14499664    2.26999998    2.61999989
   20.90777779  121.15200043    2.28999996    2.61999989
   20.91110992  112.72200012    2.28999996    2.61999989
   20.91666603  112.72200012    2.34999990    2.61999989
   20.92083359  117.12200165    2.32999992    2.64000010
   20.92388916  115.82800293    2.30999994    2.61999989
   20.92722130  113.64600372    2.34999990    2.61999989
   20.93055534  120.54900360    2.34999990    2.61999989
   20.93361092  125.73899841    2.34999990    2.61999989
   20.93472099  121.24199677    2.32999992    2.61999989
   20.93722153  116.90799713    2.26999998    2.59999990
   20.94055557  125.35800171    2.19000006    2.59999990
   20.94361115  137.76199341    2.15000010    2.61999989
   20.94694328  144.99299622    2.13000011    2.61999989
   20.95000076  131.92300415    2.13000011    2.61999989
   20.95333481  124.97100067    2.15000010    2.61999989
   20.95944595  124.97100067    2.19000006    2.61999989
   20.96361160  118.82800293    2.19000006    2.59999990
   20.96694565  122.20500183    2.15000010    2.61999989
   20.96805573  126.32199860    2.15000010    2.59999990
   20.97055626  120.79100037    2.15000010    2.59999990
   20.97389030  134.24499512    2.19000006    2.59999990
   20.97694588  123.75299835    2.25000000    2.61999989
   20.98027802  122.26899719    2.28999996    2.59999990
   20.98333359  121.16999817    2.36999989    2.59999990
   20.98666763  121.62799835    2.30999994    2.59999990
   20.98972321  129.14500427    2.32999992    2.59999990
   20.99305534  123.71499634    2.34999990    2.59999990
   20.99611092  133.52299500    2.40000010    2.59999990
   21.00250053  133.52299500    2.36999989    2.61999989
   21.00638962  126.89900208    2.36999989    2.59999990
   21.00972176  121.18000031    2.39000010    2.59999990
   21.01305580  133.45399475    2.51999998    2.59999990
   21.01611137  121.79299927    2.66000009    2.59999990
   21.01944351  127.15499878    2.67000008    2.59999990
   21.02249908  129.58099365    2.55999994    2.59999990
   21.02583313  117.65399933    2.51999998    2.57999992
   21.02888870  122.89099884    2.42000008    2.57999992
   21.03222275  127.31300354    2.36999989    2.57999992
   21.03472137  121.36699677    2.32999992    2.59999990
   21.03583336  122.87699890    2.30999994    2.59999990
   21.03916550  125.38800049    2.28999996    2.59999990
   21.04527664  125.38800049    2.25000000    2.57999992
   21.04944420  133.35600281    2.25000000    2.59999990
   21.05249977  129.58299255    2.25000000    2.59999990
   21.05583191  123.44400024    2.25000000    2.59999990
   21.05888748  119.10399628    2.25000000    2.59999990
   21.06222153  123.94100189    2.25000000    2.59999990
   21.06527710  123.24400330    2.25000000    2.57999992
   21.06805611  111.84700012    2.25000000    2.57999992
   21.06888962  110.44400024    2.25000000    2.57999992
   21.07222366  117.03500366    2.25000000    2.57999992
   21.07527924  120.97200012    2.25000000    2.57999992
   21.07861137  128.11700439    2.25000000    2.55999994
   21.08166695  126.36000061    2.25000000    2.57999992
   21.08805656  126.36000061    2.23000002    2.57999992
   21.09277916  112.23000336    2.25000000    2.57999992
   21.09611130  126.67900085    2.25000000    2.57999992
   21.09944534  122.98999786    2.25000000    2.57999992
   21.10138893  123.71099854    2.23000002    2.57999992
   21.10305595  119.86799622    2.25000000    2.57999992
   21.10639000  125.88400269    2.25000000    2.57999992
   21.10944557  126.91899872    2.26999998    2.57999992
   21.11277771  117.51200104    2.28999996    2.57999992
   21.11583328  114.11900330    2.32999992    2.57999992
   21.11916733  122.86399841    2.36999989    2.57999992
   21.12249947  107.41300201    2.36999989    2.57999992
   21.12555504  110.47200012    2.40000010    2.57999992
   21.13083267  110.47200012    2.40000010    2.57999992
   21.13500023  118.30000305    2.40000010    2.57999992
   21.13833237  114.58399963    2.46000004    2.55999994
   21.14138794  115.83599854    2.53999996    2.55999994
   21.14472198  120.24800110    2.67000008    2.55999994
   21.14777756  124.81500244    2.55999994    2.55999994
   21.15111160  123.36399841    2.55999994    2.55999994
   21.15444374  124.25199890    2.50000000    2.57999992
   21.15749931  120.45999908    2.44000006    2.55999994
   21.16083336  123.81700134    2.44000006    2.55999994
   21.16388893  144.52799988    2.44000006    2.55999994
   21.16722107  125.90299988    2.44000006    2.55999994
   21.16805458  131.18600464    2.44000006    2.55999994
   21.17388916  131.18600464    2.46000004    2.55999994
   21.17777634  130.80700684    2.50000000    2.55999994
   21.18111038  182.59800720    2.61999989    2.53999996
   21.18444443  215.42300415    2.51999998    2.55999994
   21.18750000  154.35899353    2.51999998    2.55999994
   21.19083214  165.73599243    2.51999998    2.55999994
   21.19388771  128.60400391    2.64000010    2.55999994
   21.19722176  138.39300537    2.89000010    2.53999996
   21.20027924  158.92799377    2.78999996    2.53999996
   21.20138931  143.79600525    2.76999998    2.55999994
   21.20388985  156.78799438    2.82999992    2.53999996
   21.20722389  153.48300171    2.75000000    2.55999994
   21.21027946  134.53300476    2.66000009    2.55999994
   21.21666718  134.53300476    2.64000010    2.55999994
   21.22083473  143.90600586    2.66000009    2.53999996
   21.22389030  140.34700012    2.67000008    2.53999996
   21.22722244  144.39100647    2.67000008    2.55999994
   21.23027802  144.01199341    2.69000006    2.53999996
   21.23361206  153.87899780    2.71000004    2.53999996
   21.23472214  131.66799927    2.71000004    2.53999996
   21.23722267  134.38999939    2.73000002    2.53999996
   21.24055672  131.99299622    2.76999998    2.53999996
   21.24361229  134.94500732    2.84999990    2.53999996
   21.24694443  142.67599487    2.93000007    2.53999996
   21.25000000  137.43600464    2.94000006    2.53999996
   21.25333405  136.15800476    2.91000009    2.53999996
   21.25944519  136.15800476    2.93000007    2.53999996
   21.26361084  126.47699738    2.94000006    2.53999996
   21.26694489  138.94900513    2.98000002    2.53999996
   21.26833344  129.58200073    3.01999998    2.53999996
   21.27027702  133.88000488    3.00000000    2.53999996
   21.27361107  131.76800537    3.03999996    2.53999996
   21.27666664  130.50799561    3.23000002    2.51999998
   21.28000069  133.24499512    3.23000002    2.51999998
   21.28305435  138.92700195    3.09999990    2.53999996
   21.28638840  136.17799377    3.01999998    2.53999996
   21.28972244  147.00999451    2.93000007    2.53999996
   21.29277802  132.11199951    2.91000009    2.53999996
   21.29611015  134.13600159    2.94000006    2.51999998
   21.30222130  134.13600159    2.84999990    2.53999996
   21.30638885  144.22099304    2.84999990    2.53999996
   21.30972099  144.54400635    2.82999992    2.51999998
   21.31277657  134.74600220    2.82999992    2.51999998
   21.31611061  150.02699280    2.80999994    2.53999996
   21.31916809  150.34800720    2.80999994    2.51999998
   21.32250023  144.17799377    2.78999996    2.51999998
   21.32583427  156.37399292    2.80999994    2.51999998
   21.32888985  153.65899658    2.78999996    2.51999998
   21.33222389  145.29200745    2.78999996    2.51999998
   21.33500099  156.73599243    2.78999996    2.50000000
   21.33583450  143.10699463    2.78999996    2.51999998
   21.33916664  153.65600586    2.78999996    2.50000000
   21.34527779  153.65600586    2.78999996    2.50000000
   21.34916687  143.62100220    2.78999996    2.51999998
   21.35250092  171.70799255    2.80999994    2.51999998
   21.35583305  152.18499756    2.80999994    2.51999998
   21.35888863  146.16700745    2.80999994    2.51999998
   21.36222267  148.63000488    2.80999994    2.50000000
   21.36527824  143.73699951    2.80999994    2.50000000
   21.36833382  147.74699402    2.80999994    2.50000000
   21.36888885  149.50799561    2.80999994    2.50000000
   21.37222290  147.92799377    2.80999994    2.50000000
   21.37527847  133.27299500    2.82999992    2.50000000
   21.37861061  128.98599243    2.82999992    2.50000000
   21.38166618  129.98699951    2.82999992    2.50000000
   21.38805580  129.98699951    2.84999990    2.50000000
   21.39222145  133.98599243    2.86999989    2.50000000
   21.39527702  127.98200226    2.86999989    2.50000000
   21.39861107  138.59899902    2.86999989    2.50000000
   21.40166664  135.94799805    2.86999989    2.50000000
   21.40222168  139.20599365    2.89000010    2.50000000
   21.40555573  133.79899597    2.89000010    2.50000000
   21.40861130  134.34700012    2.91000009    2.50000000
   21.41194344  141.08000183    2.93000007    2.50000000
   21.41499901  130.57099915    2.94000006    2.50000000
   21.41833305  139.60899353    2.96000004    2.50000000
   21.42138863  132.75399780    2.98000002    2.50000000
   21.42472076  141.79699707    3.01999998    2.48000002
   21.43083191  141.79699707    3.14000010    2.48000002
   21.43499947  128.37500000    3.30999994    2.48000002
   21.43833160  131.08999634    3.25000000    2.48000002
   21.44138718  131.49200439    3.25000000    2.48000002
   21.44472122  131.88000488    3.26999998    2.48000002
   21.44777679  144.74400330    3.28999996    2.48000002
   21.45111275  138.25100708    3.25000000    2.48000002
   21.45416832  140.69700623    3.28999996    2.48000002
   21.45750046  156.37699890    3.21000004    2.48000002
   21.46083450  137.86099243    3.21000004    2.48000002
   21.46389008  147.61700439    3.25000000    2.48000002
   21.46722221  144.84599304    3.26999998    2.48000002
   21.46833420  148.34300232    3.28999996    2.48000002
   21.48888969  148.34300232    3.43000007    2.48000002
   21.49305534  142.98899841    3.46000004    2.46000004
   21.49611092  138.99099731    3.48000002    2.46000004
   21.49944496  143.63699341    3.51999998    2.46000004
   21.50166702  141.63600159    3.53999996    2.48000002
   21.50305557  135.59700012    3.55999994    2.46000004
   21.50638962  146.39399719    3.55999994    2.48000002
   21.50944519  159.80099487    3.59999990    2.48000002
   21.51277733  157.54800415    3.61999989    2.46000004
   21.51583290  145.62399292    3.64000010    2.46000004
   21.51916695  136.08799744    3.68000007    2.46000004
   21.52249908  130.28300476    3.68000007    2.46000004
   21.52555466  137.26100159    3.72000003    2.46000004
   21.53166580  137.26100159    3.75000000    2.46000004
   21.53583336  157.56700134    3.78999996    2.46000004
   21.53888893  156.14700317    3.76999998    2.46000004
   21.54222107  146.74299622    3.80999994    2.46000004
   21.54527664  155.85200500    3.82999992    2.46000004
   21.54861069  141.19599915    3.82999992    2.44000006
   21.55166626  153.00599670    3.84999990    2.46000004
   21.55499840  144.38999939    3.84999990    2.44000006
   21.55833244  135.16200256    3.86999989    2.46000004
   21.56138802  134.96899414    3.84999990    2.44000006
   21.56472206  128.14599609    3.84999990    2.46000004
   21.56777954  132.87800598    3.86999989    2.44000006
   21.56833458  122.79499817    3.86999989    2.44000006
   21.57472229  122.79499817    3.84999990    2.42000008
   21.57888985  135.95599365    3.82999992    2.44000006
   21.58222389  145.63299561    3.84999990    2.44000006
   21.58527756  135.38800049    3.84999990    2.42000008
   21.58861160  134.80499268    3.93000007    2.44000006
   21.59166718  133.42100525    4.01999998    2.42000008
   21.59500122  138.19200134    3.95000005    2.42000008
   21.59805679  130.51100159    3.91000009    2.44000006
   21.60138893  124.79100037    3.97000003    2.42000008
   21.60194397  128.41799927    3.97000003    2.42000008
   21.60499954  135.98699951    4.01999998    2.42000008
   21.60833359  135.77699280    4.01999998    2.42000008
   21.61166763  133.92500305    4.00000000    2.42000008
   21.61722183  133.92500305    4.00000000    2.42000008
   21.62138939  130.69299316    4.05999994    2.42000008
   21.62472153  141.95700073    4.01999998    2.42000008
   21.62777710  133.14199829    4.00000000    2.42000008
   21.63111115  142.91499329    4.00000000    2.42000008
   21.63416672  140.75100708    4.00000000    2.42000008
   21.63527679  145.63800049    4.00000000    2.42000008
   21.63777733  134.21800232    4.00000000    2.40000010
   21.64111137  118.12400055    4.00000000    2.42000008
   21.64444351  125.30000305    3.97000003    2.40000010
   21.64749908   96.62770081    3.97000003    2.40000010
   21.65083313   98.40910339    3.97000003    2.40000010
   21.65388870  104.93699646    3.97000003    2.40000010
   21.66027832  104.93699646    3.99000001    2.40000010
   21.66416550  108.18699646    4.00000000    2.40000010
   21.66749954   -1.00000000    4.00000000    2.40000010
   21.67083359   -1.00000000    4.01999998    2.40000010
   21.67416573   -1.00000000    4.11999989    2.40000010
   21.67722130   -1.00000000    4.26000023    2.39000010
   21.68055534   -1.00000000    4.23999977    2.40000010
   21.68361092   -1.00000000    4.34999990    2.40000010
   21.68694305   -1.00000000    4.23999977    2.40000010
   21.68999863   -1.00000000    4.09999990    2.39000010
   21.69333267   -1.00000000    4.09999990    2.39000010
   21.69638824   -1.00000000    4.15999985    2.40000010
   21.70694542   -1.00000000    4.15999985    2.39000010
   21.71027946   -1.00000000    4.15999985    2.39000010
   21.71333504   -1.00000000    4.17999983    2.39000010
   21.71666718   -1.00000000    4.17999983    2.39000010
   21.71972275   -1.00000000    4.21999979    2.39000010
   21.72305679   -1.00000000    4.23999977    2.39000010
   21.72611237   -1.00000000    4.26000023    2.39000010
   21.72944450   -1.00000000    4.26000023    2.39000010
   21.73277855   -1.00000000    4.30999994    2.39000010
   21.73611069   -1.00000000    4.30999994    2.39000010
   21.73944473   -1.00000000    4.38999987    2.39000010
   21.74972153   -1.00000000    4.34999990    2.36999989
   21.75305557   -1.00000000    4.36999989    2.39000010
   21.75638962   -1.00000000    4.38999987    2.36999989
   21.75944519   -1.00000000    4.36999989    2.36999989
   21.76277733   -1.00000000    4.34999990    2.36999989
   21.76583290   -1.00000000    4.34999990    2.36999989
   21.76944351   -1.00000000    4.32999992    2.36999989
   21.77277756   -1.00000000    4.40999985    2.36999989
   21.77583313   -1.00000000    4.40999985    2.36999989
   21.77916718   -1.00000000    4.40999985    2.34999990
   21.78222275   -1.00000000    4.42999983    2.36999989
   21.79277802   -1.00000000    4.51000023    2.34999990
   21.79583359   -1.00000000    4.53000021    2.34999990
   21.79916573   -1.00000000    4.51000023    2.34999990
   21.80249977   -1.00000000    4.44999981    2.34999990
   21.80583191   -1.00000000    4.46999979    2.36999989
   21.80888748   -1.00000000    4.53000021    2.34999990
   21.81222153   -1.00000000    4.53000021    2.36999989
   21.81527710   -1.00000000    4.53999996    2.34999990
   21.81861115   -1.00000000    4.59999990    2.34999990
   21.82166672   -1.00000000    4.59999990    2.34999990
   21.82500076   -1.00000000    4.63999987    2.34999990
   21.83555603   -1.00000000    4.65999985    2.32999992
   21.83889008   -1.00000000    4.65999985    2.32999992
   21.84194565   -1.00000000    4.65999985    2.32999992
   21.84527779   -1.00000000    4.65999985    2.32999992
   21.84833336   -1.00000000    4.67999983    2.32999992
   21.85166740   -1.00000000    4.67999983    2.32999992
   21.85472298   -1.00000000    4.69999981    2.32999992
   21.85805511   -1.00000000    4.71999979    2.32999992
