    HOUR (UT)   FLARE FACTOR    SKY TESTER    SUN TESTER
   12.40249920   -1.00000000   -1.00000000   -1.00000000
   12.42250061  133.36399841    4.90999985    1.39999998
   12.42777824   -1.00000000    4.90999985    1.41999996
   12.43166733   -1.00000000    4.90999985    1.41999996
   12.43472195  121.29100037    4.90999985    1.41999996
   12.43805599  123.82900238    4.90999985    1.44000006
   12.44138908  119.62100220    4.90999985    1.41999996
   12.44444466  123.88999939    4.90999985    1.44000006
   12.44777775  123.69799805    4.90999985    1.44000006
   12.45083332  124.40799713    4.90999985    1.46000004
   12.45416641  120.95800018    4.90999985    1.46000004
   12.45583344  116.32399750    4.90999985    1.46000004
   12.45777798  120.96499634    4.90999985    1.46000004
   12.46111107  115.35299683    4.90999985    1.46000004
   12.46416664  119.36900330    4.90999985    1.46000004
   12.46749973  122.57199860    4.90999985    1.46000004
   12.47055531  115.24199677    4.90999985    1.46000004
   12.47388840  115.17800140    4.90999985    1.46000004
   12.47722149  107.75299835    4.90999985    1.46000004
   12.48027706  122.47100067    4.90999985    1.46000004
   12.48361111  117.30999756    4.90999985    1.46000004
   12.48694515  120.65699768    4.90999985    1.46000004
   12.48916721  119.68000031    4.90999985    1.46000004
   12.49055576  124.12400055    4.90999985    1.46000004
   12.49388885  118.13999939    4.90999985    1.46000004
   12.49694443  117.92400360    4.90999985    1.46000004
   12.50027752  116.34700012    4.90999985    1.46000004
   12.50333309  114.70099640    4.90999985    1.46000004
   12.50666714  121.27700043    4.90999985    1.46000004
   12.51000023  122.20500183    4.90999985    1.46000004
   12.51305580  116.92600250    4.90999985    1.48000002
   12.51638889  120.93800354    4.90999985    1.48000002
   12.51972198  120.56099701    4.90999985    1.50000000
   12.52250004  119.58499908    4.90999985    1.50000000
   12.52333355  118.29199982    4.90999985    1.50000000
   12.52638817  122.94100189    4.90999985    1.50000000
   12.52972221  118.02999878    4.90999985    1.51999998
   12.53305531  126.36900330    4.90999985    1.51999998
   12.53611183  120.08000183    4.90999985    1.51999998
   12.53944492  126.14499664    4.90999985    1.51999998
   12.54277802  129.66000366    4.90999985    1.51999998
   12.54583359  123.08399963    4.90999985    1.53999996
   12.54916668  117.27100372    4.90999985    1.53999996
   12.55222225  123.15299988    4.90999985    1.51999998
   12.55555534  122.43800354    4.90999985    1.53999996
   12.55611134  124.38800049    4.90999985    1.53999996
   12.55944443  121.37999725    4.90999985    1.51999998
   12.56250000  129.10400391    4.90999985    1.51999998
   12.56583309  113.01200104    4.90999985    1.51999998
   12.56916618  126.19400024    4.90999985    1.51999998
   12.57222176  124.31199646    4.90999985    1.51999998
   12.57555580  128.76100159    4.90999985    1.51999998
   12.57888889  126.29900360    4.90999985    1.50000000
   12.58194447  128.12399292    4.90999985    1.51999998
   12.58527756  121.73100281    4.90999985    1.51999998
   12.58833313  128.49400330    4.90999985    1.53999996
   12.58944416  125.61699677    4.90999985    1.53999996
   12.59222221  132.96600342    4.90999985    1.53999996
   12.59527779  127.78399658    4.90999985    1.53999996
   12.59861088  130.09899902    4.90999985    1.53999996
   12.60194492  130.10800171    4.90999985    1.55999994
   12.60500050  123.79699707    4.90999985    1.55999994
   12.60833359  125.83100128    4.90999985    1.53999996
   12.61166668  126.87500000    4.90999985    1.55999994
   12.61472225  123.56800079    4.90999985    1.55999994
   12.61805534  123.02200317    4.90999985    1.55999994
   12.62111092  123.77700043    4.90999985    1.58000004
   12.62277794  121.88300323    4.90999985    1.58000004
   12.62500000  121.57599640    4.90999985    1.58000004
   12.62805557  128.74600220    4.90999985    1.58000004
   12.63138866  117.51100159    4.90999985    1.60000002
   12.63472176  129.73599243    4.90999985    1.60000002
   12.63777733  135.55799866    4.90999985    1.58000004
   12.64111137  134.00700378    4.90999985    1.58000004
   12.64444447  122.41200256    4.90999985    1.58000004
   12.64750004  126.91100311    4.90999985    1.58000004
   12.65083313  116.49099731    4.90999985    1.58000004
   12.65388870  129.51800537    4.90999985    1.58000004
   12.65611076  131.80799866    4.90999985    1.58000004
   12.65777779  131.50700378    4.90999985    1.58000004
   12.66083336  127.53800201    4.90999985    1.58000004
   12.66416645  130.43600464    4.90999985    1.58000004
   12.66750050  129.35400391    4.90999985    1.58000004
   12.67055607  128.49600220    4.90999985    1.58000004
   12.67388916  127.04699707    4.90999985    1.58000004
   12.67722225  130.62699890    4.90999985    1.58000004
   12.68027782  129.57400513    4.90999985    1.58000004
   12.68361092  122.52100372    4.90999985    1.58000004
   12.68666649  138.60699463    4.90999985    1.60000002
   12.68944454  132.84300232    4.90999985    1.60000002
   12.69055557  126.22799683    4.90999985    1.60000002
   12.69388866  124.95300293    4.90999985    1.60000002
   12.69694424  132.59500122    4.90999985    1.61000001
   12.70027733  124.03199768    4.90999985    1.61000001
   12.70333290  124.26000214    4.90999985    1.61000001
   12.70666695  128.86999512    4.90999985    1.61000001
   12.71000004  127.50000000    4.90999985    1.61000001
   12.71305561  122.00099945    4.90999985    1.63000000
   12.71638870  125.32199860    4.90999985    1.63000000
   12.71972179  120.13500214    4.90999985    1.63000000
   12.72277737  123.83699799    4.90999985    1.63000000
   12.72333336  130.08099365    4.90999985    1.63000000
   12.72666645  125.92400360    4.90999985    1.63000000
   12.72972202  121.53700256    4.90999985    1.64999998
   12.73305511  118.79900360    4.90999985    1.63000000
   12.73611164  130.11000061    4.90999985    1.63000000
   12.73944473  119.59500122    4.90999985    1.63000000
   12.74277782  127.66799927    4.90999985    1.63000000
   12.74583340  121.62699890    4.90999985    1.63000000
   12.74916649  131.75700378    4.90999985    1.61000001
   12.75249958  126.42600250    4.90999985    1.63000000
   12.75555515  121.00000000    4.90999985    1.63000000
   12.75611115  117.03399658    4.90999985    1.61000001
   12.75916672  122.79599762    4.90999985    1.63000000
   12.76249981  125.32099915    4.90999985    1.63000000
   12.76555538  125.15799713    4.90999985    1.63000000
   12.76888847  130.63900757    4.90999985    1.63000000
   12.77194405  121.05000305    4.90999985    1.64999998
   12.77527714  128.67700195    4.90999985    1.63000000
   12.77861118  121.09799957    4.90999985    1.63000000
   12.78166676  129.81700134    4.90999985    1.64999998
   12.78500080  124.45400238    4.90999985    1.64999998
   12.78833389  139.26199341    4.90999985    1.64999998
   12.78944492  127.29000092    4.90999985    1.64999998
   12.79194450  126.40200043    4.90999985    1.66999996
   12.79527855  127.56300354    4.90999985    1.66999996
   12.79833412  122.07199860    4.90999985    1.66999996
   12.80166721  117.06800079    4.90999985    1.69000006
   12.80472279  119.25700378    4.90999985    1.66999996
   12.80805588  121.02500153    4.90999985    1.69000006
   12.81138897  121.80500031    4.90999985    1.66999996
   12.81444454  119.18199921    4.90999985    1.69000006
   12.81777763  133.79800415    4.90999985    1.69000006
   12.82111073  119.09600067    4.90999985    1.66999996
   12.82277775  120.21900177    4.90999985    1.69000006
   12.82472229  122.62200165    4.90999985    1.66999996
   12.82805538  125.49700165    4.90999985    1.69000006
   12.83111095  124.62999725    4.90999985    1.69000006
   12.83444405  121.76699829    4.90999985    1.69000006
   12.83777714  127.51899719    4.90999985    1.66999996
   12.84083271  119.96600342    4.90999985    1.69000006
   12.84416676  121.26000214    4.90999985    1.66999996
   12.84722233  126.15599823    4.90999985    1.66999996
   12.85055637  118.32800293    4.90999985    1.69000006
   12.85388947  128.53199768    4.90999985    1.69000006
   12.85611153  125.94699860    4.90999985    1.66999996
   12.85750008  130.52400208    4.90999985    1.66999996
   12.86083412  127.35500336    4.90999985    1.69000006
   12.86388969  135.52499390    4.90999985    1.66999996
   12.86722279  124.11299896    4.90999985    1.69000006
   12.87055588  126.14499664    4.90999985    1.71000004
   12.87361145  132.06900024    4.90999985    1.71000004
   12.87694454  129.37500000    4.90999985    1.71000004
   12.88000011  133.53399658    4.90999985    1.71000004
   12.88333321  122.79100037    4.90999985    1.71000004
   12.88666630  124.76599884    4.90999985    1.73000002
   12.88944435  126.90699768    4.90999985    1.71000004
   12.89027786  125.07900238    4.90999985    1.73000002
   12.89361095  126.20600128    4.90999985    1.73000002
   12.89666653  129.53500366    4.90999985    1.73000002
   12.89999962  129.73300171    4.90999985    1.73000002
   12.90333271  130.85499573    4.90999985    1.73000002
   12.90638828  123.04699707    4.90999985    1.73000002
   12.90972137  127.77200317    4.90999985    1.73000002
   12.91277695  130.11300659    4.90999985    1.73000002
   12.91611099  117.80599976    4.90999985    1.73000002
   12.91944504  131.52400208    4.90999985    1.73000002
   12.92277813  128.46600342    4.90999985    1.73000002
   12.92305565  129.52900696    4.90999985    1.71000004
   12.92638874  126.18499756    4.90999985    1.71000004
   12.92972279  127.55799866    4.90999985    1.71000004
   12.93277836  125.63800049    4.90999985    1.73000002
   12.93611145  124.20999908    4.90999985    1.73000002
   12.93944454  128.49600220    4.90999985    1.73000002
   12.94250011  118.14099884    4.90999985    1.73000002
   12.94583321  119.98200226    4.90999985    1.73000002
   12.94916630  122.05000305    4.90999985    1.73000002
   12.95222187  120.37300110    4.90999985    1.73000002
   12.95555496  119.70400238    4.90999985    1.75000000
   12.95638847  121.52600098    4.90999985    1.75000000
   12.95916653  114.79699707    4.90999985    1.75000000
   12.96249962  114.50099945    4.90999985    1.75000000
   12.96555519  118.74400330    4.90999985    1.75000000
   12.96888828  119.05799866    4.90999985    1.76999998
   12.97222137  118.83699799    4.90999985    1.76999998
   12.97527695  121.99199677    4.90999985    1.76999998
   12.97861099  122.16100311    4.90999985    1.78999996
   12.98194408  122.39399719    4.90999985    1.76999998
   12.98500061  123.72299957    4.90999985    1.78999996
   12.98833370  123.82199860    4.90999985    1.78999996
   12.98972225  120.13200378    4.90999985    1.78999996
   12.99194431  127.34700012    4.90999985    1.78999996
   12.99527836  122.10600281    4.90999985    1.78999996
   12.99833393  120.83899689    4.90999985    1.78999996
   13.00166702  128.41499329    4.90999985    1.78999996
   13.00500011  120.81099701    4.90999985    1.78999996
   13.00805569  127.48200226    4.90999985    1.78999996
   13.01138878  116.48699951    4.90999985    1.78999996
   13.01472187  124.72100067    4.90999985    1.76999998
   13.01777744  124.86100006    4.90999985    1.76999998
   13.02111053  121.85900116    4.90999985    1.76999998
   13.02305508  126.14399719    4.90999985    1.78999996
   13.02472210  127.90299988    4.90999985    1.76999998
   13.02805519  125.34600067    4.90999985    1.76999998
   13.03111076  121.92600250    4.90999985    1.76999998
   13.03444481  123.85500336    4.90999985    1.78999996
   13.03777790  130.14100647    4.90999985    1.78999996
   13.04083347  126.48000336    4.90999985    1.78999996
   13.04416752  125.19100189    4.90999985    1.78999996
   13.04722309  124.82599640    4.90999985    1.80999994
   13.05055618  120.67900085    4.90999985    1.80999994
   13.05388927  127.30200195    4.90999985    1.80999994
   13.05666733  123.35299683    4.90999985    1.80999994
   13.05749989  119.45700073    4.90999985    1.80999994
   13.06083393  117.83899689    4.90999985    1.80999994
   13.06388950  120.72000122    4.90999985    1.83000004
   13.06722260  125.08499908    4.90999985    1.80999994
   13.07055569  120.77700043    4.90999985    1.83000004
   13.07361126  121.30400085    4.90999985    1.83000004
   13.07694435  125.26000214    4.90999985    1.83000004
   13.08027744  126.33300018    4.90999985    1.83000004
   13.08333302  110.40599823    4.90999985    1.83000004
   13.08666611  120.65799713    4.90999985    1.83000004
   13.09000015  117.68199921    4.90999985    1.83000004
   13.09027767  120.91400146    4.90999985    1.83000004
   13.09361076  120.35199738    4.90999985    1.80999994
   13.09666634  126.42700195    4.90999985    1.83000004
   13.10000038  119.79399872    4.90999985    1.83000004
   13.10333347  123.25199890    4.90999985    1.80999994
   13.10638905  123.75299835    4.90999985    1.80999994
   13.10972214  121.45600128    4.90999985    1.80999994
   13.11305618  125.02200317    4.90999985    1.83000004
   13.11611176  121.54599762    4.90999985    1.80999994
   13.11944485  124.07099915    4.90999985    1.83000004
   13.12250042  127.19300079    4.90999985    1.83000004
   13.12333393  121.75599670    4.90999985    1.83000004
   13.12611103  123.81999969    4.90999985    1.83000004
   13.12944412  120.37000275    4.90999985    1.83000004
   13.13249969  122.52700043    4.90999985    1.83000004
   13.13583279  116.79499817    4.90999985    1.85000002
   13.13916683  119.10199738    4.90999985    1.85000002
   13.14222240  122.72499847    4.90999985    1.85000002
   13.14555550  120.97000122    4.90999985    1.83000004
   13.14888859  123.70899963    4.90999985    1.86000001
   13.15194416  125.44799805    4.90999985    1.86000001
   13.15527725  119.62100220    4.90999985    1.86000001
   13.15666676  119.03099823    4.90999985    1.86000001
   13.15888882  123.12400055    4.90999985    1.86000001
   13.16222191  116.22200012    4.90999985    1.88000000
   13.16555500  124.11699677    4.90999985    1.86000001
   13.16861153  119.03199768    4.90999985    1.86000001
   13.17194462  121.67099762    4.90999985    1.86000001
   13.17500019  122.18000031    4.90999985    1.86000001
   13.17833328  123.09799957    4.90999985    1.86000001
   13.18166733  119.32599640    4.90999985    1.86000001
   13.18472195  120.47799683    4.90999985    1.86000001
   13.18805599  125.94799805    4.90999985    1.86000001
   13.19000053  124.17400360    4.90999985    1.86000001
   13.19166660  123.23500061    4.90999985    1.86000001
   13.19499969  119.07099915    4.90999985    1.86000001
   13.19833374  117.50099945    4.90999985    1.86000001
   13.20138836  121.32199860    4.90999985    1.86000001
   13.20472240  117.41500092    4.90999985    1.86000001
   13.20777798  113.62300110    4.90999985    1.86000001
   13.21111107  115.43399811    4.90999985    1.86000001
   13.21444416  120.89099884    4.90999985    1.86000001
   13.21749973  122.15000153    4.90999985    1.86000001
   13.22083282  119.28399658    4.90999985    1.88000000
   13.22333336  117.49099731    4.90999985    1.88000000
   13.22444439  121.90599823    4.90999985    1.88000000
   13.22777748  118.74299622    4.90999985    1.88000000
   13.23111057  126.31199646    4.90999985    1.88000000
   13.23416710  119.49800110    4.90999985    1.88000000
   13.23750019  112.42299652    4.90999985    1.88000000
   13.24055576  113.40499878    4.90999985    1.89999998
   13.24388885  116.51599884    4.90999985    1.89999998
   13.24722290  117.16600037    4.90999985    1.89999998
   13.25027752  116.27899933    4.90999985    1.89999998
   13.25361156  114.68000031    4.90999985    1.91999996
   13.25666714  117.47399902    4.90999985    1.89999998
   13.25722218  117.26000214    4.90999985    1.89999998
   13.36305618   -1.00000000   -1.00000000   -1.00000000
   13.46055508   -1.00000000   -1.00000000   -1.00000000
   13.55916691   -1.00000000   -1.00000000   -1.00000000
   13.67694473   -1.00000000   -1.00000000   -1.00000000
   13.77361107   -1.00000000   -1.00000000   -1.00000000
   13.87138939   -1.00000000   -1.00000000   -1.00000000
   13.96777725   -1.00000000   -1.00000000   -1.00000000
   14.06750011   -1.00000000   -1.00000000   -1.00000000
   14.16583252   -1.00000000   -1.00000000   -1.00000000
   14.19611073   87.81240082    4.90999985    2.23000002
   14.19944477  105.63700104    4.90999985    2.23000002
   14.20249939  109.36799622    4.90999985    2.23000002
   14.20583344  111.52400208    4.90999985    2.23000002
   14.20916653  109.10399628    4.90999985    2.23000002
   14.21222210  105.94100189    4.90999985    2.25000000
   14.21638870  105.94100189    4.90999985    2.25000000
   14.22055531  111.84700012    4.90999985    2.25000000
   14.22388840  105.54499817    4.90999985    2.25000000
   14.22694397  108.08999634    4.90999985    2.25000000
   14.22944355  106.19400024    4.90999985    2.23000002
   14.23083305  106.75599670    4.90999985    2.25000000
   14.23388958  106.85199738    4.90999985    2.25000000
   14.23722267  106.86799622    4.90999985    2.25000000
   14.24055576  111.55699921    4.90999985    2.25000000
   14.24361134  108.33999634    4.90999985    2.23000002
   14.24694443  107.59300232    4.90999985    2.25000000
   14.25027752  107.60600281    4.90999985    2.25000000
   14.25333309  108.75000000    4.90999985    2.25000000
   14.25916672  108.75000000    4.90999985    2.23000002
   14.26333332  110.67800140    4.90999985    2.23000002
   14.26666641  108.01300049    4.90999985    2.23000002
   14.26999950  104.15699768    4.90999985    2.23000002
   14.27305508  114.66400146    4.90999985    2.25000000
   14.27638817  112.26200104    4.90999985    2.23000002
   14.27944374  110.41300201    4.90999985    2.23000002
   14.28277779  109.51499939    4.90999985    2.25000000
   14.28611183  105.57399750    4.90999985    2.25000000
   14.28916740  108.23600006    4.90999985    2.25000000
   14.29250050  109.58399963    4.90999985    2.25000000
   14.29583359  109.81099701    4.90999985    2.25000000
   14.29611111  106.24700165    4.90999985    2.25000000
   14.30222225  106.24700165    4.90999985    2.25000000
   14.30638885  108.92600250    4.90999985    2.26999998
   14.30944443  110.44499969    4.90999985    2.26999998
   14.31277752  111.44499969    4.90999985    2.26999998
   14.31583309  112.09100342    4.90999985    2.26999998
   14.31916618  112.08200073    4.90999985    2.26999998
   14.32250023  116.87100220    4.90999985    2.26999998
   14.32555580  106.87999725    4.90999985    2.26999998
   14.32888889  106.52899933    4.90999985    2.26999998
   14.32944393  111.82700348    4.90999985    2.26999998
   14.33249950  113.16300201    4.90999985    2.26999998
   14.33583260  112.52700043    4.90999985    2.26999998
   14.33888817  114.02500153    4.90999985    2.26999998
   14.34499931  114.02500153    4.90999985    2.25000000
   14.34916592  109.66200256    4.90999985    2.26999998
   14.35222244  111.42199707    4.90999985    2.25000000
   14.35555553  111.25399780    4.90999985    2.26999998
   14.35888958  113.78800201    4.90999985    2.25000000
   14.36194515  115.12599945    4.90999985    2.25000000
   14.36305618  113.07900238    4.90999985    2.26999998
   14.36555576  111.94699860    4.90999985    2.25000000
   14.36888885  121.67700195    4.90999985    2.26999998
   14.37194443  111.43499756    4.90999985    2.26999998
   14.37527752  106.08899689    4.90999985    2.26999998
   14.37861156  111.69100189    4.90999985    2.26999998
   14.38166714  111.87699890    4.90999985    2.26999998
   14.38777733  111.87699890    4.90999985    2.28999996
   14.39194393  122.27899933    4.90999985    2.28999996
   14.39527798  116.23500061    4.90999985    2.28999996
   14.39638901  107.13099670    4.90999985    2.28999996
   14.39888859  107.73200226    4.90999985    2.28999996
   14.40222168  110.37200165    4.90999985    2.28999996
   14.40527725  105.38300323    4.90999985    2.28999996
   14.40861034  110.69400024    4.90999985    2.28999996
   14.41194439  111.75399780    4.90999985    2.28999996
   14.41499996  112.64399719    4.90999985    2.28999996
   14.41833401  112.46399689    4.90999985    2.28999996
   14.42166710  109.23100281    4.90999985    2.28999996
   14.42472267  111.39700317    4.90999985    2.26999998
   14.43055630  111.39700317    4.90999985    2.28999996
   14.43472195  106.60299683    4.90999985    2.28999996
   14.43805599  114.10700226    4.90999985    2.26999998
   14.44138908  109.99900055    4.90999985    2.26999998
   14.44444466  110.96299744    4.90999985    2.26999998
   14.44777775  111.65200043    4.90999985    2.26999998
   14.45083332  112.17099762    4.90999985    2.28999996
   14.45416641  110.97599792    4.90999985    2.28999996
   14.45749950  112.67700195    4.90999985    2.28999996
   14.46055508  110.48100281    4.90999985    2.28999996
   14.46305561  109.65399933    4.90999985    2.28999996
   14.46416664  112.44000244    4.90999985    2.28999996
   14.46749973  106.67199707    4.90999985    2.28999996
   14.47361088  106.67199707    4.90999985    2.28999996
   14.47777748  110.93699646    4.90999985    2.30999994
   14.48083305  111.23699951    4.90999985    2.30999994
   14.48416710  116.89199829    4.90999985    2.30999994
   14.48722267  117.62599945    4.90999985    2.32999992
   14.49055576  108.24800110    4.90999985    2.30999994
   14.49388885  110.53299713    4.90999985    2.30999994
   14.49638939  116.22399902    4.90999985    2.30999994
   14.49750042  112.06900024    4.90999985    2.30999994
   14.50083351  110.95600128    4.90999985    2.30999994
   14.50388908  107.93299866    4.90999985    2.30999994
   14.50722218  109.66300201    4.90999985    2.30999994
   14.51055527  106.97899628    4.90999985    2.30999994
   14.51638889  106.97899628    4.90999985    2.28999996
   14.52055550  108.79699707    4.90999985    2.30999994
   14.52361107  113.48300171    4.90999985    2.30999994
   14.52694416  115.65100098    4.90999985    2.30999994
   14.52972221  117.61900330    4.90999985    2.30999994
   14.53055573  111.89299774    4.90999985    2.28999996
   14.53388977  111.31099701    4.90999985    2.28999996
   14.53694534  107.72000122    4.90999985    2.28999996
   14.54027843  112.32199860    4.90999985    2.28999996
   14.54361153  114.11799622    4.90999985    2.28999996
   14.54666710  111.92299652    4.90999985    2.30999994
   14.55000019  114.51100159    4.90999985    2.30999994
   14.55333328  115.58399963    4.90999985    2.30999994
   14.55916691  115.58399963    4.90999985    2.30999994
   14.56333351  115.30400085    4.90999985    2.30999994
   14.56666660  111.97799683    4.90999985    2.32999992
   14.56972218  105.09700012    4.90999985    2.32999992
   14.57305527  111.79100037    4.90999985    2.30999994
   14.57638836  117.12699890    4.90999985    2.32999992
   14.57944393  116.66500092    4.90999985    2.32999992
   14.58277798  112.56400299    4.90999985    2.32999992
   14.58583260  120.58599854    4.90999985    2.32999992
   14.58916664  115.93399811    4.90999985    2.32999992
   14.59249973  114.61299896    4.90999985    2.32999992
   14.59555531  110.67500305    4.90999985    2.32999992
   14.59638882  113.86699677    4.90999985    2.32999992
   14.60194492  113.86699677    4.90999985    2.32999992
   14.60611153  116.98200226    4.90999985    2.30999994
   14.60944462  114.68499756    4.90999985    2.30999994
   14.61277771  111.75499725    4.90999985    2.30999994
   14.61583328  114.27100372    4.90999985    2.32999992
   14.61916637  117.69599915    4.90999985    2.32999992
   14.62250042  118.11900330    4.90999985    2.32999992
   14.62555599  113.61000061    4.90999985    2.30999994
   14.62888908  117.19400024    4.90999985    2.30999994
   14.62972260  110.10299683    4.90999985    2.32999992
   14.63249969  112.61000061    4.90999985    2.32999992
   14.63583279  115.74800110    4.90999985    2.32999992
   14.63916683  110.84500122    4.90999985    2.32999992
   14.64499950  110.84500122    4.90999985    2.32999992
   14.64916611  110.31700134    4.90999985    2.32999992
   14.65222168  109.31999969    4.90999985    2.32999992
   14.65555477  113.49600220    4.90999985    2.34999990
   14.65861034  113.12000275    4.90999985    2.32999992
   14.66194439  113.97000122    4.90999985    2.34999990
   14.66305542  112.17500305    4.90999985    2.34999990
   14.66555500  113.43699646    4.90999985    2.34999990
   14.66888905  110.70800018    4.90999985    2.34999990
   14.67222214  117.99099731    4.90999985    2.34999990
   14.67527771  115.28299713    4.90999985    2.32999992
   14.67861176  116.49299622    4.90999985    2.34999990
   14.68166733  113.90200043    4.90999985    2.34999990
   14.68777752  113.90200043    4.90999985    2.34999990
   14.69194412  119.73100281    4.90999985    2.34999990
   14.69499969  110.47100067    4.90999985    2.34999990
   14.69638920  112.26399994    4.90999985    2.34999990
   14.69861126  112.38099670    4.90999985    2.34999990
   14.70194435  115.79299927    4.90999985    2.34999990
   14.70527744  117.01399994    4.90999985    2.32999992
   14.70833302  111.33899689    4.90999985    2.32999992
   14.71166611  112.32800293    4.90999985    2.32999992
   14.71472168  119.83399963    4.90999985    2.32999992
   14.71805477  108.12200165    4.90999985    2.32999992
   14.72138882  107.82399750    4.90999985    2.34999990
   14.72444439  114.09200287    4.90999985    2.34999990
   14.73055553  114.09200287    4.90999985    2.34999990
   14.73472214  111.44999695    4.90999985    2.34999990
   14.73805618  113.04299927    4.90999985    2.34999990
   14.74111176  110.90399933    4.90999985    2.34999990
   14.74444485  111.43299866    4.90999985    2.36999989
   14.74777794  118.30699921    4.90999985    2.36999989
   14.75083351  115.18800354    4.90999985    2.36999989
   14.75416660  111.67199707    4.90999985    2.36999989
   14.75722218  110.10800171    4.90999985    2.39000010
   14.76055527  115.60299683    4.90999985    2.36999989
   14.76305580  109.56500244    4.90999985    2.36999989
   14.76416683  113.13600159    4.90999985    2.36999989
   14.76749992  122.24400330    4.90999985    2.36999989
   14.77333355  122.24400330    4.90999985    2.34999990
   14.77750015  111.49700165    4.90999985    2.34999990
   14.78083324  114.93399811    4.90999985    2.36999989
   14.78388977  109.72699738    4.90999985    2.36999989
   14.78722286  109.01100159    4.90999985    2.36999989
   14.79055595  114.97100067    4.90999985    2.36999989
   14.79361153  109.97399902    4.90999985    2.34999990
   14.79638958  114.77899933    4.90999985    2.36999989
   14.79722309  115.68299866    4.90999985    2.36999989
   14.80055618  111.25000000    4.90999985    2.34999990
   14.80388927  113.85600281    4.90999985    2.34999990
   14.80694485  115.33399963    4.90999985    2.36999989
   14.81027794  116.48899841    4.90999985    2.36999989
   14.81638908  116.48899841    4.90999985    2.36999989
   14.82027817  116.84300232    4.90999985    2.36999989
   14.82361126  116.00299835    4.90999985    2.36999989
   14.82694435  121.82900238    4.90999985    2.39000010
   14.82972240  112.30200195    4.90999985    2.36999989
   14.83027744  113.90699768    4.90999985    2.39000010
   14.83361053  113.25499725    4.90999985    2.39000010
   14.83694458  113.07900238    4.90999985    2.39000010
   14.84000015  112.91699982    4.90999985    2.39000010
   14.84333324  113.67099762    4.90999985    2.39000010
   14.84638882  113.69300079    4.90999985    2.39000010
   14.84972191  116.01399994    4.90999985    2.39000010
   14.85305595  113.95999908    4.90999985    2.39000010
   14.85916710  113.95999908    4.90999985    2.39000010
   14.86333370  104.05200195    4.90999985    2.39000010
   14.86638927  111.45500183    4.90999985    2.39000010
   14.86972237  111.75599670    4.90999985    2.39000010
   14.87305546  111.21800232    4.90999985    2.36999989
   14.87638855  114.74600220    4.90999985    2.39000010
   14.87944412  107.56600189    4.90999985    2.36999989
   14.88277817  110.82700348    4.90999985    2.36999989
   14.88583279  117.27600098    4.90999985    2.39000010
   14.88916683  110.00000000    4.90999985    2.39000010
   14.89249992  108.70300293    4.90999985    2.39000010
   14.89555550  113.38300323    4.90999985    2.39000010
   14.89638901  111.91000366    4.90999985    2.39000010
   14.90194416  111.91000366    4.90999985    2.39000010
   14.90611076  114.38700104    4.90999985    2.39000010
   14.90944386  111.64399719    4.90999985    2.39000010
   14.91249943  112.81099701    4.90999985    2.39000010
   14.91583252  113.63800049    4.90999985    2.40000010
   14.91916656  110.85800171    4.90999985    2.40000010
   14.92222214  112.05599976    4.90999985    2.40000010
   14.92555618  112.58000183    4.90999985    2.40000010
   14.92861176  120.88200378    4.90999985    2.40000010
   14.92972279  113.85500336    4.90999985    2.40000010
   14.93222237  111.41799927    4.90999985    2.40000010
   14.93555546  110.76999664    4.90999985    2.40000010
   14.93888855  108.88400269    4.90999985    2.40000010
   14.94472218  108.88400269    4.90999985    2.40000010
   14.94888878  115.00000000    4.90999985    2.40000010
   14.95222187  115.40200043    4.90999985    2.40000010
   14.95527744  111.50599670    4.90999985    2.40000010
   14.95861053  110.83599854    4.90999985    2.40000010
   14.96194458  107.09500122    4.90999985    2.40000010
   14.96305561  107.22399902    4.90999985    2.40000010
   14.96527767  114.46700287    4.90999985    2.39000010
   14.96861076  108.71499634    4.90999985    2.40000010
   14.97194386  118.77799988    4.90999985    2.40000010
   14.97499943  115.73799896    4.90999985    2.40000010
   14.97833252  107.58300018    4.90999985    2.40000010
   14.98166656  110.84799957    4.90999985    2.39000010
   14.98777771  110.84799957    4.90999985    2.40000010
   14.99166679  110.62200165    4.90999985    2.40000010
   14.99499989  116.82299805    4.90999985    2.40000010
   14.99638939  113.91400146    4.90999985    2.42000008
   14.99861145  116.01999664    4.90999985    2.42000008
   15.00194454  113.82700348    4.90999985    2.42000008
   15.00527763  116.01300049    4.90999985    2.42000008
   15.00833321  113.10399628    4.90999985    2.42000008
   15.01166630  118.43399811    4.90999985    2.42000008
   15.01500034  117.57599640    4.90999985    2.42000008
   15.01805496  120.57700348    4.90999985    2.42000008
   15.02138901  111.62699890    4.90999985    2.42000008
   15.02444458  112.44999695    4.90999985    2.44000006
   15.03055573  112.44999695    4.90999985    2.42000008
   15.03472233  109.15200043    4.90999985    2.42000008
   15.03777790  114.80000305    4.90999985    2.42000008
   15.04111195  114.08799744    4.90999985    2.42000008
   15.04444504  115.73500061    4.90999985    2.42000008
   15.04750061  107.19300079    4.90999985    2.42000008
   15.05083370  110.50299835    4.90999985    2.40000010
   15.05416679  110.86900330    4.90999985    2.40000010
   15.05722237  110.32199860    4.90999985    2.40000010
   15.06055546  112.59400177    4.90999985    2.42000008
   15.06305599  115.81999969    4.90999985    2.40000010
   15.06388950  111.29499817    4.90999985    2.40000010
   15.06722260  113.69200134    4.90999985    2.40000010
   15.07333374  113.69200134    4.90999985    2.42000008
   15.07750034  112.23400116    4.90999985    2.42000008
   15.08083344  117.73600006    4.90999985    2.40000010
   15.08388901  112.10800171    4.90999985    2.42000008
   15.08722210  107.37599945    4.90999985    2.42000008
   15.09027767  110.17700195    4.90999985    2.42000008
   15.09361076  112.78199768    4.90999985    2.44000006
   15.09638882  111.65000153    4.90999985    2.42000008
   15.09722233  109.43900299    4.90999985    2.44000006
   15.10055637  110.19499969    4.90999985    2.44000006
   15.10388947  115.43399811    4.90999985    2.44000006
   15.10694504  109.67700195    4.90999985    2.44000006
   15.11027813  108.45099640    4.90999985    2.44000006
   15.11611176  108.45099640    4.90999985    2.44000006
   15.12027836  114.79199982    4.90999985    2.44000006
   15.12361145  113.09700012    4.90999985    2.44000006
   15.12666702  115.99299622    4.90999985    2.44000006
   15.12972260  109.77300262    4.90999985    2.44000006
   15.13055611  110.50499725    4.90999985    2.44000006
   15.13361073  113.92600250    4.90999985    2.44000006
   15.13694477  110.98400116    4.90999985    2.44000006
   15.14000034  105.22799683    4.90999985    2.42000008
   15.14333344  108.83899689    4.90999985    2.44000006
   15.14666653  111.46499634    4.90999985    2.42000008
   15.14972210  107.99800110    4.90999985    2.44000006
   15.15305519  105.09999847    4.90999985    2.44000006
   15.15916634  105.09999847    4.90999985    2.42000008
   15.16305542  110.81999969    4.90999985    2.44000006
   15.16638851  107.24700165    4.90999985    2.44000006
   15.16972256  110.42099762    4.90999985    2.44000006
   15.17277813  105.22299957    4.90999985    2.44000006
   15.17611122  111.45800018    4.90999985    2.46000004
   15.17944431  112.62599945    4.90999985    2.46000004
   15.18249989  120.75099945    4.90999985    2.46000004
   15.18583298  116.53399658    4.90999985    2.46000004
   15.18888855  107.61199951    4.90999985    2.46000004
   15.19222260  112.21600342    4.90999985    2.46000004
   15.19555569  118.16999817    4.90999985    2.46000004
   15.19638920  113.65599823    4.90999985    2.46000004
   15.21694374  113.65599823    4.90999985    2.46000004
   15.22111034  116.47799683    4.90999985    2.46000004
   15.22444439  114.28800201    4.90999985    2.46000004
   15.22777748  113.83799744    4.90999985    2.46000004
   15.22972202  114.09899902    4.90999985    2.44000006
   15.23138809  108.40399933    4.90999985    2.46000004
   15.23444462  114.27400208    4.90999985    2.44000006
   15.23777771  114.08399963    4.90999985    2.44000006
   15.24111176  109.32900238    4.90999985    2.44000006
   15.24416733  104.40100098    4.90999985    2.46000004
   15.24750042  114.97899628    4.90999985    2.44000006
   15.25055599  113.61100006    4.90999985    2.46000004
   15.25388908  111.22799683    4.90999985    2.44000006
   15.25972176  111.22799683    4.90999985    2.46000004
   15.26388931  110.66400146    4.90999985    2.46000004
   15.26722240  116.20899963    4.90999985    2.48000002
   15.27055550  118.46399689    4.90999985    2.48000002
   15.27361107  117.96399689    4.90999985    2.48000002
   15.27694416  110.54000092    4.90999985    2.48000002
   15.27999973  111.80000305    4.90999985    2.48000002
   15.28333378  113.06300354    4.90999985    2.48000002
   15.28666687  110.25299835    4.90999985    2.46000004
   15.28972244  112.55799866    4.90999985    2.46000004
   15.29305553  118.27600098    4.90999985    2.46000004
   15.29638958  114.14299774    4.90999985    2.48000002
   15.29694462  113.44999695    4.90999985    2.48000002
   15.30277824  113.44999695    4.90999985    2.46000004
   15.30694485  112.87200165    4.90999985    2.46000004
   15.31000042  118.42400360    4.90999985    2.46000004
   15.31333351  121.82099915    4.90999985    2.48000002
   15.31638908  118.22000122    4.90999985    2.46000004
   15.31972218  113.83499908    4.90999985    2.46000004
   15.32305527  124.21499634    4.90999985    2.46000004
   15.32611084  126.28199768    4.90999985    2.46000004
   15.32944393  115.42199707    4.90999985    2.46000004
   15.32999992  119.27700043    4.90999985    2.46000004
   15.33305550  117.65699768    4.90999985    2.46000004
   15.33638859  122.77100372    4.90999985    2.46000004
   15.33944416  113.56500244    4.90999985    2.46000004
   15.34555531  113.56500244    4.90999985    2.46000004
   15.34972191  117.61199951    4.90999985    2.46000004
   15.35277843  126.95800018    4.90999985    2.48000002
   15.35611153  135.73399353    4.90999985    2.48000002
   15.35944462  119.19300079    4.90999985    2.46000004
   15.36250019  122.30100250    4.90999985    2.48000002
   15.36333370  134.21299744    4.90999985    2.48000002
   15.36611176  134.34399414    4.90999985    2.48000002
   15.36944485  137.43499756    4.90999985    2.50000000
   15.37250042  133.37199402    4.90999985    2.50000000
   15.37583351  126.23699951    4.90999985    2.50000000
   15.37916660  111.95899963    4.90999985    2.50000000
   15.38222218  112.69400024    4.90999985    2.48000002
   15.38833332  112.69400024    4.90999985    2.48000002
   15.39249992  115.78199768    4.90999985    2.48000002
   15.39583302  109.57599640    4.90999985    2.48000002
   15.39694405  128.07400513    4.90999985    2.46000004
   15.39944458  123.84400177    4.90999985    2.48000002
   15.40277767  112.18599701    4.90999985    2.48000002
   15.40583324  135.58200073    4.90999985    2.48000002
   15.40916634  125.86000061    4.90999985    2.48000002
   15.41249943  114.80699921    4.90999985    2.48000002
   15.41555500  118.83799744    4.90999985    2.48000002
   15.41888905  122.56099701    4.90999985    2.48000002
   15.42222214  120.64299774    4.90999985    2.46000004
   15.42527771  132.70700073    4.90999985    2.48000002
   15.43111134  132.70700073    4.90999985    2.50000000
   15.43527794  120.55200195    4.90999985    2.50000000
   15.43861103  133.18899536    4.90999985    2.50000000
   15.44194412  118.07399750    4.90999985    2.50000000
   15.44499969  123.33200073    4.90999985    2.50000000
   15.44833374  131.25999451    4.90999985    2.48000002
   15.45138836  112.26200104    4.90999985    2.50000000
   15.45472240  112.30100250    4.90999985    2.50000000
   15.45805550  118.26699829    4.90999985    2.50000000
   15.46111107  113.42600250    4.90999985    2.50000000
   15.46361065  123.34200287    4.90999985    2.50000000
   15.46472168  123.87400055    4.90999985    2.50000000
   15.46805477  128.82400513    4.90999985    2.50000000
   15.47416592  128.82400513    4.90999985    2.50000000
   15.47833252  121.31300354    4.90999985    2.50000000
   15.48138809  141.69099426    4.90999985    2.50000000
   15.48472214  138.02499390    4.90999985    2.50000000
   15.48777771  123.93000031    4.90999985    2.50000000
   15.49111176  112.05100250    4.90999985    2.50000000
   15.49444485  109.68099976    4.90999985    2.50000000
   15.49694443  114.78800201    4.90999985    2.48000002
   15.49805546  108.31300354    4.90999985    2.48000002
   15.50138855  117.60500336    4.90999985    2.50000000
   15.50444412  117.36499786    4.90999985    2.50000000
   15.50777817  110.94000244    4.90999985    2.50000000
   15.51111126  115.51100159    4.90999985    2.50000000
   15.51694393  115.51100159    4.90999985    2.48000002
   15.52111053  126.14499664    4.90999985    2.50000000
   15.52416611  112.78600311    4.90999985    2.50000000
   15.52750015  108.55699921    4.90999985    2.50000000
   15.53027725  122.90699768    4.90999985    2.50000000
   15.53111076  131.73399353    4.90999985    2.50000000
   15.53444481  114.91899872    4.90999985    2.50000000
   15.53750038  115.91699982    4.90999985    2.50000000
   15.54083347  128.66400146    4.90999985    2.51999998
   15.54416752  104.48400116    4.90999985    2.51999998
   15.54722309  112.45300293    4.90999985    2.51999998
   15.55055618  131.29200745    4.90999985    2.51999998
   15.55388927  121.14299774    4.90999985    2.51999998
   15.55972195  121.14299774    4.90999985    2.51999998
   15.56388950  112.70300293    4.90999985    2.51999998
   15.56722260  111.57399750    4.90999985    2.50000000
   15.57027817  111.03199768    4.90999985    2.51999998
   15.57361126  136.06599426    4.90999985    2.51999998
   15.57666683  112.46399689    4.90999985    2.51999998
   15.57999992  134.74499512    4.90999985    2.51999998
   15.58333302  124.56999969    4.90999985    2.51999998
   15.58638859  117.53099823    4.90999985    2.51999998
   15.58972168  109.50800323    4.90999985    2.51999998
   15.59277725  124.27500153    4.90999985    2.51999998
   15.59611034  124.18699646    4.90999985    2.50000000
   15.59694386  118.62899780    4.90999985    2.50000000
   15.60249996  118.62899780    4.90999985    2.50000000
   15.60666752  118.99400330    4.90999985    2.50000000
   15.61000061  124.76499939    4.90999985    2.51999998
   15.61305618  115.06700134    4.90999985    2.51999998
   15.61638927  124.49900055    4.90999985    2.51999998
   15.61972237  127.93099976    4.90999985    2.51999998
   15.62277794  124.74099731    4.90999985    2.51999998
   15.62611103  114.44999695    4.90999985    2.51999998
   15.62944412  127.54199982    4.90999985    2.51999998
   15.63027763  116.98200226    4.90999985    2.51999998
   15.63277817  112.17299652    4.90999985    2.53999996
   15.63611126  121.64099884    4.90999985    2.53999996
   15.63944435  114.07499695    4.90999985    2.53999996
   15.64555550  114.07499695    4.90999985    2.53999996
   15.64944458  111.87000275    4.90999985    2.51999998
   15.65277767  117.90000153    4.90999985    2.53999996
   15.65611076  112.16799927    4.90999985    2.53999996
   15.65916634  119.49600220    4.90999985    2.53999996
   15.66249943  105.45700073    4.90999985    2.51999998
   15.66361046  115.22100067    4.90999985    2.51999998
   15.66611099  114.58100128    4.90999985    2.53999996
   15.66944504  105.30999756    4.90999985    2.53999996
   15.67250061  115.05999756    4.90999985    2.51999998
   15.67583370  110.33999634    4.90999985    2.51999998
   15.67916679  113.09799957    4.90999985    2.51999998
   15.68222237  108.95200348    4.90999985    2.51999998
   15.68833351  108.95200348    4.90999985    2.51999998
   15.69250011  112.14800262    4.90999985    2.51999998
   15.69555569  108.90399933    4.90999985    2.53999996
   15.69694424  109.39399719    4.90999985    2.51999998
   15.69916630  110.59100342    4.90999985    2.51999998
   15.70249939  111.06900024    4.90999985    2.53999996
   15.70555496  107.46099854    4.90999985    2.51999998
   15.70888901  110.21800232    4.90999985    2.53999996
   15.71222210  111.50900269    4.90999985    2.53999996
   15.71555519  106.47899628    4.90999985    2.53999996
   15.71861076  114.63099670    4.90999985    2.53999996
   15.72194386  111.99199677    4.90999985    2.53999996
   15.72527695  106.53299713    4.90999985    2.53999996
   15.73111057  106.53299713    4.90999985    2.55999994
   15.73527813  112.70400238    4.90999985    2.53999996
   15.73833370  104.92400360    4.90999985    2.53999996
   15.74166679  109.69400024    4.90999985    2.53999996
   15.74499989  111.84400177    4.90999985    2.55999994
   15.74805546  108.78199768    4.90999985    2.53999996
   15.75138855  105.17800140    4.90999985    2.53999996
   15.75472260  110.88700104    4.90999985    2.53999996
   15.75777817  109.95500183    4.90999985    2.53999996
   15.76111126  107.68199921    4.90999985    2.53999996
   15.76361084  105.55500031    4.90999985    2.53999996
   15.76472187  111.32199860    4.90999985    2.53999996
   15.76805496  110.61399841    4.90999985    2.53999996
   15.77388859  110.61399841    4.90999985    2.53999996
   15.77805519  112.72799683    4.90999985    2.53999996
   15.78138828  110.54199982    4.90999985    2.53999996
   15.78444481  113.40299988    4.90999985    2.51999998
   15.78777790  114.06400299    4.90999985    2.53999996
   15.79111195  113.64199829    4.90999985    2.53999996
   15.79416752  110.04100037    4.90999985    2.53999996
   15.79694462  109.41000366    4.90999985    2.55999994
   15.79777813  110.72899628    4.90999985    2.53999996
   15.80111122  112.69000244    4.90999985    2.55999994
   15.80444431  115.35900116    4.90999985    2.55999994
   15.80749989  110.26799774    4.90999985    2.55999994
   15.81083393  109.00900269    4.90999985    2.55999994
   15.81694412  109.00900269    4.90999985    2.55999994
   15.82083321  110.85299683    4.90999985    2.55999994
   15.82416630  112.47000122    4.90999985    2.55999994
   15.82750034  106.25000000    4.90999985    2.55999994
   15.83027744  108.55799866    4.90999985    2.55999994
   15.83083344  113.30300140    4.90999985    2.55999994
   15.83416653  111.58499908    4.90999985    2.55999994
   15.83722210  111.97499847    4.90999985    2.55999994
   15.84055519  113.56400299    4.90999985    2.53999996
   15.84388828  106.64900208    4.90999985    2.55999994
   15.84694386  109.10299683    4.90999985    2.55999994
   15.85027790  108.81300354    4.90999985    2.55999994
   15.85361195  111.00000000    4.90999985    2.53999996
   15.85972214  111.00000000    4.90999985    2.55999994
   15.86388969  113.38700104    4.90999985    2.55999994
   15.86694431  110.00099945    4.90999985    2.53999996
   15.87027836  114.12000275    4.90999985    2.55999994
   15.87361145  114.60399628    4.90999985    2.53999996
   15.87666702  109.39600372    4.90999985    2.55999994
   15.88000011  108.46099854    4.90999985    2.53999996
   15.88305569  110.76300049    4.90999985    2.55999994
   15.88638878  108.86000061    4.90999985    2.55999994
   15.88972187  108.84100342    4.90999985    2.55999994
   15.89277744  112.66600037    4.90999985    2.57999992
   15.89611053  113.46399689    4.90999985    2.57999992
   15.89694405  108.77600098    4.90999985    2.57999992
   15.90249920  108.77600098    4.90999985    2.57999992
   15.90666676  105.56199646    4.90999985    2.55999994
   15.90999985  109.53700256    4.90999985    2.55999994
   15.91305542  113.88600159    4.90999985    2.57999992
   15.91638851  114.51300049    4.90999985    2.57999992
   15.91944504  105.34300232    4.90999985    2.57999992
   15.92277813  108.87899780    4.90999985    2.57999992
   15.92611122  114.09300232    4.90999985    2.57999992
   15.92916679  111.43499756    4.90999985    2.55999994
   15.93027782  106.13899994    4.90999985    2.55999994
   15.93277836  108.46199799    4.90999985    2.55999994
   15.93611145  113.78099823    4.90999985    2.55999994
   15.93944454  109.47399902    4.90999985    2.55999994
   15.94527817  109.47399902    4.90999985    2.55999994
   15.94944477  109.67600250    4.90999985    2.53999996
   15.95277786  108.74199677    4.90999985    2.55999994
   15.95583344  110.47399902    4.90999985    2.55999994
   15.95916653  114.49700165    4.90999985    2.55999994
   15.96249962  109.14900208    4.90999985    2.55999994
   15.96361065  108.44999695    4.90999985    2.57999992
   15.96583271  106.18000031    4.90999985    2.55999994
   15.96916580  110.66899872    4.90999985    2.55999994
   15.97249985  109.72699738    4.90999985    2.57999992
   15.97555542  105.01599884    4.90999985    2.57999992
   15.97888851  109.71499634    4.90999985    2.57999992
   15.98222160  107.42099762    4.90999985    2.57999992
   15.98833370  107.42099762    4.90999985    2.59999990
   15.99250031  115.01000214    4.90999985    2.59999990
   15.99555588  111.42800140    4.90999985    2.59999990
   15.99694443  110.71299744    4.90999985    2.59999990
   15.99944496  115.70899963    4.90999985    2.59999990
   16.00250053  110.83200073    4.90999985    2.59999990
   16.00583267  109.00299835    4.90999985    2.59999990
   16.00888824  112.21399689    4.90999985    2.59999990
   16.01222229  113.73899841    4.90999985    2.57999992
   16.01555634  114.85600281    4.90999985    2.57999992
   16.01861000  113.79100037    4.90999985    2.57999992
   16.02194405  108.47799683    4.90999985    2.57999992
   16.02527809  108.49600220    4.90999985    2.57999992
   16.03111076  108.49600220    4.90999985    2.57999992
   16.03527641  113.23200226    4.90999985    2.57999992
   16.03833199  111.68099976    4.90999985    2.57999992
   16.04166603  108.45500183    4.90999985    2.57999992
   16.04500008  108.43800354    4.90999985    2.57999992
   16.04805565  110.64099884    4.90999985    2.59999990
   16.05138779  108.28900146    4.90999985    2.55999994
   16.05472183  112.43099976    4.90999985    2.55999994
   16.05777740  110.04499817    4.90999985    2.57999992
   16.06110954  107.04699707    4.90999985    2.57999992
   16.06361008  111.81800079    4.90999985    2.57999992
   16.06444359  108.75700378    4.90999985    2.57999992
   16.06777954  107.66899872    4.90999985    2.59999990
   16.07389069  107.66899872    4.90999985    2.59999990
   16.07805634  110.46299744    4.90999985    2.59999990
   16.08139038  111.74700165    4.90999985    2.59999990
   16.08444595  115.36000061    4.90999985    2.57999992
   16.08777809  114.12100220    4.90999985    2.57999992
   16.09083366  116.18099976    4.90999985    2.59999990
   16.09416771  110.81099701    4.90999985    2.59999990
   16.09694481  111.84600067    4.90999985    2.59999990
   16.09805679  113.36100006    4.90999985    2.59999990
   16.10111237  111.89800262    4.90999985    2.59999990
   16.10444450  110.80799866    4.90999985    2.59999990
   16.10750008  108.61399841    4.90999985    2.59999990
   16.11083412  106.18900299    4.90999985    2.57999992
   16.11666679  106.18900299    4.90999985    2.57999992
   16.12083435  110.56600189    4.90999985    2.57999992
   16.12416649  115.15000153    4.90999985    2.57999992
   16.12722206  110.48600006    4.90999985    2.57999992
   16.13027763  112.83999634    4.90999985    2.59999990
   16.13111115  109.43000031    4.90999985    2.59999990
   16.13416672  109.29499817    4.90999985    2.57999992
   16.13750076  110.22200012    4.90999985    2.57999992
   16.14055634  110.31500244    4.90999985    2.57999992
   16.14388847  114.74600220    4.90999985    2.59999990
   16.14722252  109.09600067    4.90999985    2.59999990
   16.15027809  108.37599945    4.90999985    2.59999990
   16.15361023  112.75199890    4.90999985    2.59999990
   16.15972137  112.75199890    4.90999985    2.59999990
   16.16361046  103.83100128    4.90999985    2.61999989
   16.16694450  108.54799652    4.90999985    2.59999990
   16.17027664  106.75700378    4.90999985    2.59999990
   16.17333221  115.40499878    4.90999985    2.61999989
   16.17666626  110.76599884    4.90999985    2.59999990
   16.18000031  107.18399811    4.90999985    2.61999989
   16.18305397  108.28299713    4.90999985    2.59999990
   16.18638802  110.85500336    4.90999985    2.59999990
   16.18944359  113.45600128    4.90999985    2.59999990
   16.19277763  107.45800018    4.90999985    2.59999990
   16.19610977  106.72100067    4.90999985    2.59999990
   16.19694328  110.76899719    4.90999985    2.59999990
   16.20250130  110.76899719    4.90999985    2.59999990
   16.20666695  108.03600311    4.90999985    2.59999990
   16.20972252  105.72499847    4.90999985    2.57999992
   16.21305656  113.07199860    4.90999985    2.59999990
   16.23055649  107.32299805    4.90999985    2.59999990
   16.23305511  116.59400177    4.90999985    2.59999990
   16.23638916  105.21800232    4.90999985    2.59999990
   16.23944473  113.48999786    4.90999985    2.59999990
   16.24555588  113.48999786    4.90999985    2.61999989
   16.24944496  112.41200256    4.90999985    2.61999989
   16.25277710  109.98400116    4.90999985    2.61999989
   16.25611115  115.46499634    4.90999985    2.61999989
   16.25916672  117.40899658    4.90999985    2.61999989
   16.26250076  110.34100342    4.90999985    2.61999989
   16.26388931  109.15000153    4.90999985    2.61999989
   16.26638794  111.98100281    4.90999985    2.61999989
   16.26944351  110.84500122    4.90999985    2.61999989
   16.27277756  118.69699860    4.90999985    2.61999989
   16.27583313  115.40499878    4.90999985    2.61999989
   16.27916718  116.69699860    4.90999985    2.61999989
   16.28249931  111.90899658    4.90999985    2.61999989
   16.28833199  111.90899658    4.90999985    2.61999989
   16.29249954  113.81099701    4.90999985    2.61999989
   16.29555511  114.90599823    4.90999985    2.59999990
   16.29722214  117.54900360    4.90999985    2.59999990
   16.29944420  112.68299866    4.90999985    2.61999989
   16.30249977  113.74600220    4.90999985    2.59999990
   16.30583191  111.33100128    4.90999985    2.61999989
   16.30888748  112.62200165    4.90999985    2.59999990
   16.31222153  116.50099945    4.90999985    2.61999989
   16.31555557  110.13700104    4.90999985    2.61999989
   16.31861115  107.76799774    4.90999985    2.61999989
   16.32194519  115.08100128    4.90999985    2.61999989
   16.32527924  116.44999695    4.90999985    2.61999989
   16.33111191  116.44999695    4.90999985    2.61999989
   16.33527756  111.93699646    4.90999985    2.64000010
   16.33861160  109.54299927    4.90999985    2.61999989
   16.34166718  110.58799744    4.90999985    2.61999989
   16.34500122  109.64600372    4.90999985    2.64000010
   16.34833336  114.42500305    4.90999985    2.64000010
   16.35138893  108.76599884    4.90999985    2.64000010
   16.35472298  113.77600098    4.90999985    2.61999989
   16.35777855  117.93399811    4.90999985    2.64000010
   16.36111069  108.53500366    4.90999985    2.61999989
   16.36388969  106.69799805    4.90999985    2.61999989
   16.36472321  113.06700134    4.90999985    2.61999989
   16.36777878  112.59899902    4.90999985    2.61999989
   16.37416649  112.59899902    4.90999985    2.64000010
   16.37805557  115.08000183    4.90999985    2.61999989
   16.38138962  110.83399963    4.90999985    2.61999989
   16.38472176  111.35700226    4.90999985    2.61999989
   16.38777733  111.23200226    4.90999985    2.61999989
   16.39111137  115.14800262    4.90999985    2.61999989
   16.39416695  110.29499817    4.90999985    2.61999989
   16.39722252  110.07700348    4.90999985    2.61999989
   16.39805603  110.82499695    4.90999985    2.61999989
   16.40138817  112.38300323    4.90999985    2.64000010
   16.40444374  112.63999939    4.90999985    2.61999989
   16.40777779  114.81700134    4.90999985    2.61999989
   16.41083336  112.75399780    4.90999985    2.61999989
   16.41694450  112.75399780    4.90999985    2.64000010
   16.42111015  117.65499878    4.90999985    2.64000010
   16.42416573  112.42800140    4.90999985    2.64000010
   16.42749977  114.75800323    4.90999985    2.64000010
   16.43055534  116.03600311    4.90999985    2.64000010
   16.43111038  112.66899872    4.90999985    2.64000010
   16.43416595  117.12799835    4.90999985    2.64000010
   16.43750000  116.83499908    4.90999985    2.64000010
   16.44083214  103.42700195    4.90999985    2.64000010
   16.44388771  111.28700256    4.90999985    2.66000009
   16.44722176  111.26999664    4.90999985    2.64000010
   16.45027924  109.23699951    4.90999985    2.64000010
   16.45361137  109.62500000    4.90999985    2.64000010
   16.45972252  109.62500000    4.90999985    2.64000010
   16.46389008  117.95300293    4.90999985    2.64000010
   16.46444511  116.75599670    4.90999985    2.64000010
   16.46750069  116.21499634    4.90999985    2.64000010
   16.47083473  116.55599976    4.90999985    2.64000010
   16.47416687  111.09799957    4.90999985    2.64000010
   16.47722244  113.28099823    4.90999985    2.64000010
   16.48055649  116.59600067    4.90999985    2.66000009
   16.48388863  117.43800354    4.90999985    2.64000010
   16.48694420  117.69699860    4.90999985    2.64000010
   16.49027824  113.15200043    4.90999985    2.64000010
   16.49333382  117.85800171    4.90999985    2.64000010
   16.49666786  110.95899963    4.90999985    2.64000010
   16.49722290  116.55000305    4.90999985    2.64000010
   16.50250053  116.55000305    4.90999985    2.64000010
   16.50666618  112.22000122    4.90999985    2.64000010
   16.51000023  120.71499634    4.90999985    2.64000010
   16.51305580  113.36000061    4.90999985    2.66000009
   16.51638794  117.05599976    4.90999985    2.64000010
   16.51972198  119.28900146    4.90999985    2.66000009
   16.52277756  115.15100098    4.90999985    2.66000009
   16.52611160  111.69200134    4.90999985    2.66000009
   16.52944374  113.08100128    4.90999985    2.66000009
   16.53055573  117.01599884    4.90999985    2.66000009
   16.53305435  114.50499725    4.90999985    2.66000009
   16.53638840  114.21399689    4.90999985    2.64000010
   16.53944397  113.94300079    4.90999985    2.64000010
   16.54555511  113.94300079    4.90999985    2.66000009
   16.54944420  113.92199707    4.90999985    2.66000009
   16.55277634  113.18599701    4.90999985    2.66000009
   16.55611038  111.19999695    4.90999985    2.66000009
   16.55916595  117.94100189    4.90999985    2.66000009
   16.56250000  109.95400238    4.90999985    2.66000009
   16.56388855  109.45800018    4.90999985    2.64000010
   16.56611061  112.40599823    4.90999985    2.61999989
   16.56944466  103.80699921    4.90999985    2.64000010
   16.57250023  112.09200287    4.90999985    2.64000010
   16.57583427  113.59500122    4.90999985    2.66000009
   16.57888985  114.00000000    4.90999985    2.64000010
   16.58222389  111.96399689    4.90999985    2.64000010
   16.58833313  111.96399689    4.90999985    2.66000009
   16.59250069  116.99199677    4.90999985    2.66000009
   16.59555626  110.28700256    4.90999985    2.66000009
   16.59722328  110.43299866    4.90999985    2.66000009
   16.59916687  108.81600189    4.90999985    2.66000009
   16.60222244  118.30200195    4.90999985    2.64000010
   16.60555649  110.90899658    4.90999985    2.66000009
   16.60888863  111.60600281    4.90999985    2.66000009
   16.61194420  108.43299866    4.90999985    2.66000009
   16.61527824  107.11900330    4.90999985    2.66000009
   16.61861038  107.56600189    4.90999985    2.66000009
   16.62166595  110.71800232    4.90999985    2.67000008
   16.62500000  112.97699738    4.90999985    2.66000009
   16.63111115  112.97699738    4.90999985    2.66000009
   16.63527679  112.51899719    4.90999985    2.66000009
   16.63861084  108.76499939    4.90999985    2.66000009
   16.64166641  117.88099670    4.90999985    2.66000009
   16.64500046  109.99500275    4.90999985    2.66000009
   16.64805603  108.08899689    4.90999985    2.66000009
   16.65138817  116.70800018    4.90999985    2.66000009
   16.65472221  113.30200195    4.90999985    2.66000009
   16.65777779  110.82099915    4.90999985    2.66000009
   16.66110992  108.64399719    4.90999985    2.66000009
   16.66388893  115.59200287    4.90999985    2.66000009
   16.66472244  112.00499725    4.90999985    2.66000009
   16.66777802  106.19300079    4.90999985    2.66000009
   16.67388916  106.19300079    4.90999985    2.66000009
   16.67805481  109.85800171    4.90999985    2.67000008
   16.68138885  116.10600281    4.90999985    2.66000009
   16.68444443  115.37699890    4.90999985    2.66000009
   16.68777657  119.45300293    4.90999985    2.66000009
   16.69111061  110.30300140    4.90999985    2.66000009
   16.69416618  113.94699860    4.90999985    2.66000009
   16.69722176  110.23200226    4.90999985    2.67000008
   16.69777679  109.39600372    4.90999985    2.67000008
   16.70083427  112.85099792    4.90999985    2.66000009
   16.70416832  116.00000000    4.90999985    2.66000009
   16.70750046  115.45999908    4.90999985    2.66000009
   16.71055603  116.37699890    4.90999985    2.66000009
   16.71694565  116.37699890    4.90999985    2.66000009
   16.72083473  111.40599823    4.90999985    2.67000008
   16.72416687  107.84600067    4.90999985    2.67000008
   16.72750092   99.64510345    4.90999985    2.66000009
   16.73055649  108.81900024    4.90999985    2.66000009
   16.73111153  106.09500122    4.90999985    2.66000009
   16.73416710  111.75700378    4.90999985    2.66000009
   16.73750114  111.37400055    4.90999985    2.66000009
   16.74083328  110.54799652    4.90999985    2.66000009
   16.74388885  109.83799744    4.90999985    2.66000009
   16.74722290  111.52899933    4.90999985    2.66000009
   16.75027847  109.55899811    4.90999985    2.67000008
   16.75361061  112.80100250    4.90999985    2.67000008
   16.75972176  112.80100250    4.90999985    2.67000008
   16.76361084  114.13300323    4.90999985    2.66000009
   16.76416588  114.15499878    4.90999985    2.67000008
   16.76749992  109.79399872    4.90999985    2.67000008
   16.77083397  111.71600342    4.90999985    2.67000008
   16.77388954  107.71700287    4.90999985    2.69000006
   16.77722168  109.91600037    4.90999985    2.67000008
   16.78055573  108.81600189    4.90999985    2.67000008
   16.78361130  108.80400085    4.90999985    2.67000008
   16.78694344  111.19499969    4.90999985    2.67000008
   16.78999901  110.33999634    4.90999985    2.67000008
   16.79333305  111.05400085    4.90999985    2.67000008
   16.79666710  106.93599701    4.90999985    2.67000008
   16.79749870  108.57399750    4.90999985    2.67000008
   16.80249977  108.57399750    4.90999985    2.67000008
   16.80666542  109.66799927    4.90999985    2.67000008
   16.80972099  114.40599823    4.90999985    2.67000008
   16.81305504  110.56600189    4.90999985    2.67000008
   16.81638718  108.75199890    4.90999985    2.67000008
   16.81972313  103.66100311    4.90999985    2.67000008
   16.82277870  112.19899750    4.90999985    2.67000008
   16.82611275  109.14099884    4.90999985    2.67000008
   16.82916832  108.91200256    4.90999985    2.67000008
   16.83083344  109.26200104    4.90999985    2.67000008
   16.83277893  107.58499908    4.90999985    2.67000008
   16.83611107  108.52899933    4.90999985    2.67000008
   16.83916664  116.39900208    4.90999985    2.66000009
   16.84527779  116.39900208    4.90999985    2.66000009
   16.84944534  110.87000275    4.90999985    2.66000009
   16.85277748  112.78299713    4.90999985    2.67000008
   16.85583305  115.80300140    4.90999985    2.67000008
   16.85916710  114.72200012    4.90999985    2.67000008
   16.86222267  109.81099701    4.90999985    2.69000006
   16.86416626  122.43299866    4.90999985    2.67000008
   16.86583328  111.54299927    4.90999985    2.69000006
   16.86916733  115.14700317    4.90999985    2.67000008
   16.87222290  111.60199738    4.90999985    2.67000008
   16.87555504  108.15899658    4.90999985    2.69000006
   16.87888908  110.11599731    4.90999985    2.67000008
   16.88194466  118.94799805    4.90999985    2.67000008
   16.88805580  118.94799805    4.90999985    2.69000006
   16.89222145  104.79100037    4.90999985    2.69000006
   16.89555550  109.65699768    4.90999985    2.69000006
   16.89777756  108.44100189    4.90999985    2.69000006
   16.89916611  107.07199860    4.90999985    2.69000006
   16.90250015  100.35299683    4.90999985    2.67000008
   16.90555573  105.99299622    4.90999985    2.67000008
   16.90888786  110.22100067    4.90999985    2.67000008
   16.91222191  109.58899689    4.90999985    2.69000006
   16.91527748  110.60800171    4.90999985    2.67000008
   16.91860962  112.84500122    4.90999985    2.69000006
   16.92194366  108.16899872    4.90999985    2.67000008
   16.92499924  108.02899933    4.90999985    2.67000008
   16.93111038  108.02899933    4.90999985    2.69000006
   16.93499947  107.10500336    4.90999985    2.69000006
   16.93833160  109.41300201    4.90999985    2.67000008
   16.94166565  111.29599762    4.90999985    2.69000006
   16.94472122  112.96499634    4.90999985    2.69000006
   16.94805527  114.21299744    4.90999985    2.69000006
   16.95138931  112.36499786    4.90999985    2.69000006
   16.95444489  112.07499695    4.90999985    2.69000006
   16.95777893  112.87100220    4.90999985    2.69000006
   16.96083450  106.64800262    4.90999985    2.71000004
   16.96416664  102.35500336    4.90999985    2.69000006
   16.96611214  116.78600311    4.90999985    2.69000006
   16.96777916  110.31700134    4.90999985    2.69000006
   16.97389030  110.31700134    4.90999985    2.69000006
   16.97805595  102.49500275    4.90999985    2.69000006
   16.98111153  107.71099854    4.90999985    2.69000006
   16.98444557  107.38800049    4.90999985    2.69000006
   16.98777771  106.47000122    4.90999985    2.69000006
   16.99083328  107.86599731    4.90999985    2.69000006
   16.99416733  105.78900146    4.90999985    2.69000006
   16.99749947  107.41699982    4.90999985    2.67000008
   16.99944496  106.76100159    4.90999985    2.69000006
   17.00111198  104.47200012    4.90999985    2.67000008
   17.00416756  109.88899994    4.90999985    2.69000006
   17.00749969  105.07900238    4.90999985    2.69000006
   17.01083374  109.19999695    4.90999985    2.69000006
   17.01666641  109.19999695    4.90999985    2.69000006
   17.02083397  112.92400360    4.90999985    2.67000008
   17.02416611  110.99199677    4.90999985    2.69000006
   17.02722168  108.45999908    4.90999985    2.69000006
   17.03055573  106.30300140    4.90999985    2.69000006
   17.03305435  108.05200195    4.90999985    2.69000006
   17.03416634  110.57800293    4.90999985    2.69000006
   17.03750038  107.60099792    4.90999985    2.69000006
   17.04083252  110.22299957    4.90999985    2.67000008
   17.04388809  112.02999878    4.90999985    2.71000004
   17.04722214  107.18800354    4.90999985    2.69000006
   17.05055428  106.86000061    4.90999985    2.71000004
   17.05360985  106.67500305    4.90999985    2.69000006
   17.05972099  106.67500305    4.90999985    2.69000006
   17.06361008  109.36299896    4.90999985    2.71000004
   17.06638718  105.66300201    4.90999985    2.71000004
   17.06722260  113.07800293    4.90999985    2.69000006
   17.07055664  108.10199738    4.90999985    2.71000004
   17.07389069  102.84600067    4.90999985    2.69000006
   17.07694626  107.17099762    4.90999985    2.69000006
   17.08027840  107.95999908    4.90999985    2.69000006
   17.08333397  108.77500153    4.90999985    2.69000006
   17.08666801  104.06199646    4.90999985    2.69000006
   17.09000015  109.21900177    4.90999985    2.69000006
   17.09305573  113.28299713    4.90999985    2.69000006
   17.09638977  112.25399780    4.90999985    2.69000006
   17.10250092  112.25399780    4.90999985    2.69000006
   17.10639000  100.07399750    4.90999985    2.69000006
   17.10972214  113.00000000    4.90999985    2.69000006
   17.11305618  109.31199646    4.90999985    2.69000006
   17.11611176  105.87799835    4.90999985    2.69000006
   17.11944389  112.46399689    4.90999985    2.69000006
   17.12277794  111.13899994    4.90999985    2.71000004
   17.12583351  109.10199738    4.90999985    2.71000004
   17.12916756  110.16799927    4.90999985    2.69000006
   17.13222313  110.42400360    4.90999985    2.69000006
   17.13333321  117.14199829    4.90999985    2.71000004
   17.13583374  111.62100220    4.90999985    2.71000004
   17.13916588  113.10399628    4.90999985    2.73000002
   17.14527702  113.10399628    4.90999985    1.66999996
   17.14944458  111.43199921    0.07000000    0.55000001
   17.15250015  111.99500275    0.07000000    0.40000001
   17.15583229  114.33200073    0.05000000    0.15000001
   17.15916634  104.46499634    0.05000000    0.05000000
   17.16277695  110.24400330    0.05000000    0.05000000
   17.16583252  109.34200287    0.05000000    0.05000000
   17.16638756  107.26100159    0.05000000    0.05000000
   17.16944313  111.32499695    0.05000000    0.05000000
   17.17249870  105.48500061    0.05000000    0.05000000
   17.17583275  110.61199951    0.05000000    0.05000000
   17.17916679  117.90599823    0.05000000    0.05000000
   17.18222237  113.53099823    0.05000000    0.05000000
   17.18777657  113.53099823    0.05000000    0.05000000
   17.19194412  110.39199829    0.05000000    0.05000000
   17.19499969  115.18800354    0.05000000    0.05000000
   17.19833183  115.32800293    0.05000000    0.05000000
   17.19972038  109.75099945    0.05000000    0.05000000
   17.20194435  113.09999847    0.05000000    0.05000000
   17.20527840  111.87100220    0.05000000    0.05000000
   17.20833397  113.03900146    0.05000000    0.05000000
   17.21166801  110.98600006    0.05000000    0.05000000
   17.21500015  111.69100189    0.05000000    0.05000000
   17.21805573  111.27799988    0.05000000    0.05000000
   17.22138977  110.07399750    0.05000000    0.05000000
   17.22444534  110.09500122    0.05000000    0.05000000
   17.23055649  110.09500122    0.05000000    0.05000000
   17.24944496  113.48100281    0.05000000    0.05000000
   17.25250053  113.76399994    0.05000000    0.05000000
   17.25583267  114.68000031    0.05000000    0.05000000
   17.25888824  109.32099915    0.05000000    0.05000000
   17.26222229  115.18099976    0.05000000    0.05000000
   17.26555634  107.81700134    0.05000000    0.05000000
   17.26861000  108.78299713    0.05000000    0.05000000
   17.27388954  108.78299713    0.05000000    0.05000000
   17.27805519  114.09600067    0.05000000    0.05000000
   17.28138924  117.18000031    0.05000000    0.05000000
   17.28249931  115.76200104    0.05000000    0.05000000
   17.28499985  109.52899933    0.05000000    0.05000000
   17.28833199  118.93299866    0.05000000    0.05000000
   17.29138756  112.80699921    0.05000000    0.05000000
   17.29472160  117.32199860    0.05000000    0.05000000
   17.29805565  114.93000031    0.05000000    0.05000000
   17.30111122  115.64199829    0.05000000    0.05000000
   17.30444336  108.21199799    0.05000000    0.05000000
   17.30777740  106.63999939    0.05000000    0.05000000
   17.31083298  113.99199677    0.05000000    0.05000000
   17.31694603  113.99199677    0.05000000    0.05000000
   17.32111168  107.39499664    0.05000000    0.05000000
   17.32416725  111.64900208    0.05000000    0.05000000
   17.32750130  111.02300262    0.05000000    0.05000000
   17.33055687  108.42600250    0.05000000    0.05000000
   17.33388901  113.65699768    0.05000000    0.05000000
   17.33722305  111.43099976    0.05000000    0.05000000
   17.34027863  117.41100311    0.05000000    0.05000000
   17.34361267  113.39800262    0.05000000    0.05000000
   17.34694481  117.17299652    0.05000000    0.05000000
   17.34916687  120.65100098    0.05000000    0.05000000
   17.35027885  117.81199646    0.05000000    0.05000000
   17.35361099  110.90499878    0.05000000    0.05000000
   17.35972214  110.90499878    0.05000000    0.05000000
   17.36388969  116.42199707    0.05000000    0.05000000
   17.36722183  117.90799713    0.05000000    0.05000000
   17.37027740  110.63099670    0.05000000    0.05000000
   17.37361145  116.33899689    0.05000000    0.05000000
   17.37666702  114.91300201    0.05000000    0.05000000
   17.38000107  114.71299744    0.05000000    0.05000000
   17.38249969  113.65000153    0.05000000    0.05000000
   17.38361168  112.37200165    0.05000000    0.05000000
   17.38694382  112.38700104    0.05000000    0.05000000
   17.38999939  115.99900055    0.05000000    0.05000000
   17.39333344  111.74500275    0.05000000    0.05000000
   17.39666748  119.59899902    0.05000000    0.05000000
   17.40250015  119.59899902    0.05000000    0.05000000
   17.40666580  111.11599731    0.05000000    0.05000000
   17.40999985  112.04699707    0.05000000    0.05000000
   17.41305542  114.61599731    0.05000000    0.05000000
   17.41583252  109.35700226    0.05000000    0.05000000
   17.41666603  112.47200012    0.05000000    0.05000000
   17.42000008  111.75599670    0.05000000    0.05000000
   17.42333221  112.48100281    0.05000000    0.05000000
   17.42638779  106.00599670    0.05000000    0.05000000
   17.42972183  113.60399628    0.05000000    0.05000000
   17.43277740  113.34899902    0.05000000    0.05000000
   17.43610954  113.56099701    0.05000000    0.05000000
   17.43944359  118.74400330    0.05000000    0.05000000
   17.44527626  118.74400330    0.05000000    0.05000000
   17.44944382  109.62200165    0.05000000    0.05000000
   17.45277786  113.62999725    0.05000000    0.05000000
   17.45611191  112.35299683    0.05000000    0.05000000
   17.45916748  110.79399872    0.05000000    0.05000000
   17.46250153  114.17099762    0.05000000    0.05000000
   17.46555710  113.54799652    0.05000000    0.05000000
   17.46888924  113.50000000    0.05000000    0.05000000
   17.47222328  110.94599915    0.05000000    0.05000000
   17.47527885  111.78299713    0.05000000    0.05000000
   17.47861099  108.05500031    0.05000000    0.05000000
   17.48194504  113.43000031    0.05000000    0.05000000
   17.48250008  110.76300049    0.05000000    0.05000000
   17.48833275  110.76300049    0.05000000    0.05000000
   17.49250031  112.52300262    0.05000000    0.05000000
   17.49555588  110.39399719    0.05000000    0.05000000
   17.49888992  112.20899963    0.05000000    0.05000000
   17.50222206  113.84999847    0.05000000    0.05000000
   17.50527763  112.06500244    0.05000000    0.05000000
   17.50861168  114.14099884    0.05000000    0.05000000
   17.51194382  114.25399780    0.05000000    0.05000000
   17.51499939  112.38600159    0.05000000    0.05000000
   17.51583290  113.48799896    0.05000000    0.05000000
   17.51861000  113.19400024    0.05000000    0.05000000
   17.52194405  113.10500336    0.05000000    0.05000000
   17.52527809  109.98799896    0.05000000    0.05000000
   17.53111076  109.98799896    0.05000000    0.05000000
   17.53527641  108.71700287    0.05000000    0.05000000
   17.53833199  103.61399841    0.05000000    0.05000000
   17.54166603  109.13800049    0.05000000    0.05000000
   17.54500008  110.34899902    0.05000000    0.05000000
   17.54805565  111.23300171    0.05000000    0.05000000
   17.54916573  110.77700043    0.05000000    0.05000000
   17.55166626  108.06800079    0.05000000    0.05000000
   17.55499840  112.03600311    0.05000000    0.05000000
   17.55833244  107.07399750    0.05000000    0.05000000
   17.56138802  112.61900330    0.05000000    0.05000000
   17.56472206  115.58599854    0.05000000    0.05000000
   17.56777954  113.18000031    0.05000000    0.05000000
   17.57389069  113.18000031    0.05000000    0.05000000
   17.57805634  111.02500153    0.05000000    0.05000000
   17.58139038  113.64600372    0.05000000    0.05000000
   17.58250046  111.69300079    0.05000000    0.05000000
   17.58472252  112.69100189    0.05000000    0.05000000
   17.58805656  114.67500305    0.05000000    0.05000000
   17.59138870  111.22399902    0.05000000    0.05000000
   17.59444427  105.94599915    0.05000000    0.05000000
   17.59777832  112.36199951    0.05000000    0.05000000
   17.60083389  112.55699921    0.05000000    0.05000000
   17.60416794  114.47499847    0.05000000    0.05000000
   17.60750008  110.52999878    0.05000000    0.05000000
   17.61055565  110.74099731    0.05000000    0.05000000
   17.61694527  110.74099731    0.05000000    0.05000000
   17.62083435  109.31300354    0.05000000    0.05000000
   17.62416649  108.83699799    0.05000000    0.05000000
   17.62750053  106.45099640    0.05000000    0.05000000
   17.63055611  112.07299805    0.05000000    0.05000000
   17.63388824  109.93900299    0.05000000    0.05000000
   17.63722229  109.06400299    0.05000000    0.05000000
   17.64027786  110.16500092    0.05000000    0.05000000
   17.64361191  108.15200043    0.05000000    0.05000000
   17.64666748  112.62300110    0.05000000    0.05000000
   17.64916611  109.64600372    0.05000000    0.05000000
   17.65027809  108.80100250    0.05000000    0.05000000
   17.65361023  106.25700378    0.05000000    0.05000000
   17.65972137  106.25700378    0.05000000    0.05000000
   17.66388893  112.06199646    0.05000000    0.05000000
   17.66694450  110.36900330    0.05000000    0.05000000
   17.67027664  112.39099884    0.05000000    0.05000000
   17.67361069  116.69799805    0.05000000    0.05000000
   17.67666626  110.98400116    0.05000000    0.05000000
   17.68000031  109.61000061    0.05000000    0.05000000
   17.68249893  115.58100128    0.05000000    0.05000000
   17.68361092  107.93699646    0.05000000    0.05000000
   17.68694305  112.70999908    0.05000000    0.05000000
   17.69027710  112.26699829    0.05000000    0.05000000
   17.69333267  118.80000305    0.05000000    0.05000000
   17.69666672  107.54399872    0.05000000    0.05000000
   17.70250130  107.54399872    0.05000000    0.05000000
   17.70666695  111.67600250    0.05000000    0.05000000
   17.70972252  111.97100067    0.05000000    0.05000000
   17.71305656  113.67299652    0.05000000    0.05000000
   17.71583366  109.29900360    0.05000000    0.05000000
   17.71666718  111.76000214    0.05000000    0.05000000
   17.72000122  114.76799774    0.05000000    0.05000000
   17.72333336  114.28299713    0.05000000    0.05000000
   17.72638893  113.24400330    0.05000000    0.05000000
   17.72972298  113.73999786    0.05000000    0.05000000
   17.73277855  111.94200134    0.05000000    0.05000000
   17.73611069  107.42299652    0.05000000    0.05000000
   17.73944473  106.69599915    0.05000000    0.05000000
   17.74527740  106.69599915    0.05000000    0.05000000
   17.74944496  108.26100159    0.05000000    0.05000000
   17.75277710  110.43900299    0.05000000    0.05000000
   17.75611115  109.85199738    0.05000000    0.05000000
   17.75916672  114.59100342    0.05000000    0.05000000
   17.76250076  112.26599884    0.05000000    0.05000000
   17.76555634  103.27600098    0.05000000    0.05000000
   17.76888847  110.40499878    0.05000000    0.05000000
   17.77222252  110.66000366    0.05000000    0.05000000
   17.77527809  110.27999878    0.05000000    0.05000000
   17.77861023  105.19599915    0.05000000    0.05000000
   17.78194427  112.28199768    0.05000000    0.05000000
   17.78249931  108.75700378    0.05000000    0.05000000
   17.78805542  108.75700378    0.05000000    0.05000000
   17.79222107  110.52600098    0.05000000    0.05000000
   17.79555511  111.54499817    0.05000000    0.05000000
   17.79888916  107.90000153    0.05000000    0.05000000
   17.80194283  112.90200043    0.05000000    0.05000000
   17.80527687  111.31800079    0.05000000    0.05000000
   17.80833244  115.01999664    0.05000000    0.05000000
   17.81166649  107.06600189    0.05000000    0.05000000
   17.81499863  109.68800354    0.05000000    0.05000000
   17.81583214  106.37899780    0.05000000    0.05000000
   17.81833458  112.87699890    0.05000000    0.05000000
   17.82166672  108.08599854    0.05000000    0.05000000
   17.82500076  106.61499786    0.05000000    0.05000000
   17.83111191  106.61499786    0.05000000    0.05000000
   17.83527756  110.78299713    0.05000000    0.05000000
   17.83833313  109.75700378    0.05000000    0.05000000
   17.84166718  108.84500122    0.05000000    0.05000000
   17.84472275  109.19899750    0.05000000    0.05000000
   17.84805679  110.75599670    0.05000000    0.05000000
   17.84916687  111.05200195    0.05000000    0.05000000
   17.85166740  114.61599731    0.05000000    0.05000000
   17.85499954  108.50700378    0.05000000    0.05000000
   17.85833359  112.65899658    0.05000000    0.05000000
   17.86138916  108.86399841    0.05000000    0.05000000
   17.86472321  107.10600281    0.05000000    0.05000000
   17.86805534  115.64499664    0.05000000    0.05000000
   17.87388992  115.64499664    0.05000000    0.05000000
   17.87805557  111.70999908    0.05000000    0.05000000
   17.88111115  108.82299805    0.05000000    0.05000000
   17.88249969  113.10900116    0.05000000    0.05000000
   17.88472176  108.61199951    0.05000000    0.05000000
   17.88805580  119.06999969    0.05000000    0.05000000
   17.89138794  110.14199829    0.05000000    0.05000000
   17.89444351  107.06300354    0.05000000    0.05000000
   17.89777756  107.64499664    0.05000000    0.05000000
   17.90111160  106.47699738    0.05000000    0.05000000
   17.90416718  108.39299774    0.05000000    0.05000000
   17.90749931  111.85900116    0.05000000    0.05000000
   17.91055489  106.54399872    0.05000000    0.05000000
   17.91666603  106.54399872    0.05000000    0.05000000
   17.92083359  110.32399750    0.05000000    0.05000000
   17.92416573  108.95099640    0.05000000    0.05000000
   17.92722130  108.36699677    0.05000000    0.05000000
   17.93055534  112.03399658    0.05000000    0.05000000
   17.93388748  105.76399994    0.05000000    0.05000000
   17.93694305  107.62599945    0.05000000    0.05000000
   17.94027710  112.00700378    0.05000000    0.05000000
   17.94333267  109.71499634    0.05000000    0.05000000
   17.94666672  113.10199738    0.05000000    0.05000000
   17.94916534  111.88300323    0.05000000    0.05000000
   17.95027924  111.38500214    0.05000000    0.05000000
   17.95361137  105.18800354    0.05000000    0.05000000
   17.95944595  105.18800354    0.05000000    0.05000000
   17.96361160  112.73300171    0.05000000    0.05000000
   17.96694565  109.87500000    0.05000000    0.05000000
   17.97027779  117.15200043    0.05000000    0.05000000
   17.97333336  115.79799652    0.05000000    0.05000000
   17.97666740  112.60600281    0.05000000    0.05000000
   17.97972298  112.71499634    0.05000000    0.05000000
   17.98250008  113.91699982    0.05000000    0.05000000
   17.98333359  113.43099976    0.05000000    0.05000000
   17.98666763  113.63899994    0.05000000    0.05000000
   17.98999977  112.51699829    0.05000000    0.05000000
   17.99305534  111.88300323    0.05000000    0.05000000
   17.99638939  108.74800110    0.05000000    0.05000000
   18.00250053  108.74800110    0.05000000    0.05000000
   18.00666618  106.01999664    0.05000000    0.05000000
   18.00972176  113.07800293    0.05000000    0.05000000
   18.01305580  106.38800049    0.05000000    0.05000000
   18.01583290  112.59400177    0.05000000    0.05000000
   18.01638794  112.29299927    0.05000000    0.05000000
   18.01972198  110.21199799    0.05000000    0.05000000
   18.02305603  114.36100006    0.05000000    0.05000000
   18.02611160  111.42900085    0.05000000    0.05000000
   18.02944374  111.76100159    0.05000000    0.05000000
   18.03277779  110.00000000    0.05000000    0.05000000
   18.03583336  109.46299744    0.05000000    0.05000000
   18.03916550  110.75599670    0.05000000    0.05000000
   18.04527664  110.75599670    0.05000000    0.05000000
   18.04944420  117.51599884    0.05000000    0.05000000
   18.05277634  107.81500244    0.05000000    0.05000000
   18.05583191  111.12200165    0.05000000    0.05000000
   18.05916595  107.58499908    0.05000000    0.05000000
   18.06222153  113.18399811    0.05000000    0.05000000
   18.06555557  111.63300323    0.05000000    0.05000000
   18.06888962  110.40599823    0.05000000    0.05000000
   18.07194519  109.32099915    0.05000000    0.05000000
   18.07527924  110.93699646    0.05000000    0.05000000
   18.07861137  108.19400024    0.05000000    0.05000000
   18.08166695  108.74900055    0.05000000    0.05000000
   18.08250046  109.40899658    0.05000000    0.05000000
   18.08805656  109.40899658    0.05000000    0.05000000
   18.09222221  110.52500153    0.05000000    0.05000000
   18.09555626  112.58300018    0.05000000    0.05000000
   18.09861183  111.16400146    0.05000000    0.05000000
   18.10194397  110.68499756    0.05000000    0.05000000
   18.10527802  110.70999908    0.05000000    0.05000000
   18.10833359  109.06199646    0.05000000    0.05000000
   18.11166763  110.42600250    0.05000000    0.05000000
   18.11499977  109.33699799    0.05000000    0.05000000
   18.11583328  107.00099945    0.05000000    0.05000000
   18.11861038  109.82599640    0.05000000    0.05000000
   18.12166595  100.91400146    0.05000000    0.05000000
   18.12500000  107.13899994    0.05000000    0.05000000
   18.13083267  107.13899994    0.05000000    0.05000000
   18.13500023  108.20500183    0.05000000    0.05000000
   18.13833237  109.14499664    0.05000000    0.05000000
   18.14166641  113.92500305    0.05000000    0.05000000
   18.14472198  106.30200195    0.05000000    0.05000000
   18.14805603  111.77600098    0.05000000    0.05000000
   18.14916611  109.54900360    0.05000000    0.05000000
   18.15166664  108.84700012    0.05000000    0.05000000
   18.15472221  113.84200287    0.05000000    0.05000000
   18.15805435  108.66699982    0.05000000    0.05000000
   18.16110992  110.86399841    0.05000000    0.05000000
   18.16444397  110.02999878    0.05000000    0.05000000
   18.16777802  107.95099640    0.05000000    0.05000000
   18.17388916  107.95099640    0.05000000    0.05000000
   18.17805481  110.46399689    0.05000000    0.05000000
   18.18111038  110.16500092    0.05000000    0.05000000
   18.18249893  111.71600342    0.05000000    0.05000000
   18.18499947  108.23999786    0.05000000    0.05000000
   18.18805504  110.34899902    0.05000000    0.05000000
   18.19138718  113.78800201    0.05000000    0.05000000
   18.19444275  113.52100372    0.05000000    0.05000000
   18.19777679  116.67900085    0.05000000    0.05000000
   18.20111275  117.87000275    0.05000000    0.05000000
   18.20416832  111.49500275    0.05000000    0.05000000
   18.20750046  111.81900024    0.05000000    0.05000000
   18.21083450  115.35700226    0.05000000    0.05000000
   18.21666718  115.35700226    0.05000000    0.05000000
   18.22083473  109.86100006    0.05000000    0.05000000
   18.22389030  111.69499969    0.05000000    0.05000000
   18.22722244  112.97599792    0.05000000    0.05000000
   18.23055649  113.25800323    0.05000000    0.05000000
   18.23361206  109.10700226    0.05000000    0.05000000
   18.23694420  110.05100250    0.05000000    0.05000000
   18.24027824  108.94100189    0.05000000    0.05000000
   18.24333382  109.90799713    0.05000000    0.05000000
   18.24666786  107.70099640    0.05000000    0.05000000
   18.24916649  104.79799652    0.05000000    0.05000000
   18.26972198  104.79799652    0.05000000    0.05000000
   18.27388954  108.04799652    0.05000000    0.05000000
   18.27722168  105.06300354    0.05000000    0.05000000
   18.28027725  109.47699738    0.05000000    0.05000000
   18.28249931  108.55500031    0.05000000    0.05000000
   18.28416634  106.86299896    0.05000000    0.05000000
   18.28750038  104.99700165    0.05000000    0.05000000
   18.29055595  107.16300201    0.05000000    0.05000000
   18.29388809  112.79199982    0.05000000    0.05000000
   18.29694366  110.63600159    0.05000000    0.05000000
   18.30027771  110.55200195    0.05000000    0.05000000
   18.30360985  112.04599762    0.05000000    0.05000000
   18.30666542  118.74500275    0.05000000    0.05000000
   18.31250000  118.74500275    0.05000000    0.05000000
   18.31666756  111.18800354    0.05000000    0.05000000
   18.32000160  110.48400116    0.05000000    0.05000000
   18.32305717  111.33200073    0.05000000    0.05000000
   18.32638931  111.79100037    0.05000000    0.05000000
   18.32972336  112.37200165    0.05000000    0.05000000
   18.33277893  106.76799774    0.05000000    0.05000000
   18.33611107  111.13300323    0.05000000    0.05000000
   18.33916664  108.19599915    0.05000000    0.05000000
   18.34250069  109.98899841    0.05000000    0.05000000
   18.34583473  107.55500031    0.05000000    0.05000000
   18.34889030  111.70600128    0.05000000    0.05000000
   18.34944534  112.69200134    0.05000000    0.05000000
   18.35527802  112.69200134    0.05000000    0.05000000
   18.35944557  111.26599884    0.05000000    0.05000000
   18.36277771  111.63300323    0.05000000    0.05000000
   18.36611176  109.68499756    0.05000000    0.05000000
   18.36916733  115.62100220    0.05000000    0.05000000
   18.37249947  107.26399994    0.05000000    0.05000000
   18.37555504  108.66400146    0.05000000    0.05000000
   18.37888908  113.65499878    0.05000000    0.05000000
   18.38222313  113.48799896    0.05000000    0.05000000
   18.38277817  108.30400085    0.05000000    0.05000000
   18.38583374  113.40000153    0.05000000    0.05000000
   18.38916588  112.35900116    0.05000000    0.05000000
   18.39222145  110.41799927    0.05000000    0.05000000
   18.39833260  110.41799927    0.05000000    0.05000000
   18.40250015  111.39199829    0.05000000    0.05000000
   18.40555573  109.07599640    0.05000000    0.05000000
   18.40888786  114.81099701    0.05000000    0.05000000
   18.41194344  107.49700165    0.05000000    0.05000000
   18.41527748  109.11499786    0.05000000    0.05000000
   18.41611099  110.56500244    0.05000000    0.05000000
   18.41888809  108.23899841    0.05000000    0.05000000
   18.42194366  106.23799896    0.05000000    0.05000000
   18.42527771  107.75800323    0.05000000    0.05000000
   18.42860985  112.57199860    0.05000000    0.05000000
   18.43166542  111.95600128    0.05000000    0.05000000
   18.43499947  111.49700165    0.05000000    0.05000000
   18.44111061  111.49700165    0.05000000    0.05000000
   18.44527626  108.28199768    0.05000000    0.05000000
   18.44833183  110.47399902    0.05000000    0.05000000
   18.44944382  109.36599731    0.05000000    0.05000000
   18.45222282  105.59400177    0.05000000    0.05000000
   18.45527840  106.67400360    0.05000000    0.05000000
   18.45861244  106.66799927    0.05000000    0.05000000
   18.46194458  106.14099884    0.05000000    0.05000000
   18.46500015  102.04699707    0.05000000    0.05000000
   18.46833420  105.45600128    0.05000000    0.05000000
   18.47166634  107.73600006    0.05000000    0.05000000
   18.47472191  105.74500275    0.05000000    0.05000000
   18.47805595  116.50000000    0.05000000    0.05000000
   18.48388863  116.50000000    0.05000000    0.05000000
   18.48805618  109.19499969    0.05000000    0.05000000
   18.49111176  110.52899933    0.05000000    0.05000000
   18.49444389  120.47299957    0.05000000    0.05000000
   18.49777794  113.78600311    0.05000000    0.05000000
   18.50083351  133.14700317    0.05000000    0.05000000
   18.50416756  119.34899902    0.05000000    0.05000000
   18.50749969  143.76899719    0.05000000    0.05000000
   18.51055527  105.84600067    0.05000000    0.05000000
   18.51388931  115.02600098    0.05000000    0.05000000
   18.51611137  124.43199921    0.05000000    0.05000000
   18.51749992  109.14600372    0.05000000    0.05000000
   18.52083397  114.29699707    0.05000000    0.05000000
   18.52666664  114.29699707    0.05000000    0.05000000
   18.53083229  114.00800323    0.05000000    0.05000000
   18.53416634  130.93499756    0.05000000    0.05000000
   18.53722191  113.36799622    0.05000000    0.05000000
   18.54055595  122.24700165    0.05000000    0.05000000
   18.54388809  112.54000092    0.05000000    0.05000000
   18.54694366  114.29299927    0.05000000    0.05000000
   18.54944420  116.38899994    0.05000000    0.05000000
   18.55055428  115.83899689    0.05000000    0.05000000
   18.55388832  113.97399902    0.05000000    0.05000000
   18.55694389  112.71399689    0.05000000    0.05000000
   18.56027794  114.22200012    0.05000000    0.05000000
   18.56361008  113.09700012    0.05000000    0.05000000
   18.56972313  113.09700012    0.05000000    0.05000000
   18.57361221  113.67299652    0.05000000    0.05000000
   18.57694626  108.70899963    0.05000000    0.05000000
   18.58027840  115.43099976    0.05000000    0.05000000
   18.58277893  111.87400055    0.05000000    0.05000000
   18.58388901  109.29799652    0.05000000    0.05000000
   18.58722305  108.41200256    0.05000000    0.05000000
   18.59027863  108.05100250    0.05000000    0.05000000
   18.59361267  109.44899750    0.05000000    0.05000000
   18.59666824  109.57099915    0.05000000    0.05000000
   18.60000038  112.47499847    0.05000000    0.05000000
   18.60333443  113.18199921    0.05000000    0.05000000
   18.60639000  110.75299835    0.05000000    0.05000000
   18.61250114  110.75299835    0.05000000    0.05000000
   18.61666679  106.72499847    0.05000000    0.05000000
   18.61972237  106.94200134    0.05000000    0.05000000
   18.62305641  110.29100037    0.05000000    0.05000000
   18.62638855  110.05599976    0.05000000    0.05000000
   18.62944412  111.93000031    0.05000000    0.05000000
   18.63277817  111.40000153    0.05000000    0.05000000
   18.63583374  111.30799866    0.05000000    0.05000000
   18.63916588  109.91400146    0.05000000    0.05000000
   18.64249992  113.90000153    0.05000000    0.05000000
   18.64555550  107.12500000    0.05000000    0.05000000
   18.64888954  111.03399658    0.05000000    0.05000000
   18.64944458  109.06800079    0.05000000    0.05000000
   18.65527725  109.06800079    0.05000000    0.05000000
   18.65944481  115.08100128    0.05000000    0.05000000
   18.66277695  115.24600220    0.05000000    0.05000000
   18.66583252  112.63800049    0.05000000    0.05000000
   18.66916656  108.60600281    0.05000000    0.05000000
   18.67222214  106.91100311    0.05000000    0.05000000
   18.67555428  110.74099731    0.05000000    0.05000000
   18.67888832  108.93900299    0.05000000    0.05000000
   18.68194389  110.29900360    0.05000000    0.05000000
   18.68277740  115.12699890    0.05000000    0.05000000
   18.68555450  112.87599945    0.05000000    0.05000000
   18.68888855  105.64099884    0.05000000    0.05000000
   18.69194412  114.52799988    0.05000000    0.05000000
   18.69805527  114.52799988    0.05000000    0.05000000
   18.70222282  111.81099701    0.05000000    0.05000000
   18.70555687  113.77700043    0.05000000    0.05000000
   18.70861244  111.83100128    0.05000000    0.05000000
   18.71194458  106.29100037    0.05000000    0.05000000
   18.71527863  116.23699951    0.05000000    0.05000000
   18.71611214  109.17800140    0.05000000    0.05000000
   18.71888924  110.30300140    0.05000000    0.05000000
   18.72222328  111.36000061    0.05000000    0.05000000
   18.72527885  109.44999695    0.05000000    0.05000000
   18.72861099  109.00499725    0.05000000    0.05000000
   18.73194504  110.11199951    0.05000000    0.05000000
   18.73500061  111.69899750    0.05000000    0.05000000
   18.74111176  111.69899750    0.05000000    0.05000000
   18.74500084  116.73999786    0.05000000    0.05000000
   18.74833298  112.84600067    0.05000000    0.05000000
   18.74944496  112.92800140    0.05000000    0.05000000
   18.75194359  112.26200104    0.05000000    0.05000000
   18.75527763  109.33999634    0.05000000    0.05000000
   18.75833321  111.02500153    0.05000000    0.05000000
   18.76166725  115.95800018    0.05000000    0.05000000
   18.76499939  110.95300293    0.05000000    0.05000000
   18.76805496  110.85099792    0.05000000    0.05000000
   18.77138901  105.73400116    0.05000000    0.05000000
   18.77444458  109.12200165    0.05000000    0.05000000
   18.77777672  106.24600220    0.05000000    0.05000000
   18.78388786  106.24600220    0.05000000    0.05000000
   18.78805542  108.51300049    0.05000000    0.05000000
   18.79111099  111.01999664    0.05000000    0.05000000
   18.79444313  110.51300049    0.05000000    0.05000000
   18.79777718  111.62200165    0.05000000    0.05000000
   18.80083275  106.23200226    0.05000000    0.05000000
   18.80416679  110.45999908    0.05000000    0.05000000
   18.80722237  110.54699707    0.05000000    0.05000000
   18.81055450  112.10900116    0.05000000    0.05000000
   18.81388855  108.18299866    0.05000000    0.05000000
   18.81611061  116.45099640    0.05000000    0.05000000
   18.81750107  112.28800201    0.05000000    0.05000000
   18.82083511  108.25199890    0.05000000    0.05000000
   18.82666779  108.25199890    0.05000000    0.05000000
   18.83083344  112.21499634    0.05000000    0.05000000
   18.83416748  110.32399750    0.05000000    0.05000000
   18.83722305  109.08899689    0.05000000    0.05000000
   18.84055710  109.94599915    0.05000000    0.05000000
   18.84361267  109.90799713    0.05000000    0.05000000
   18.84694481  114.36499786    0.05000000    0.05000000
   18.84944534  109.58000183    0.05000000    0.05000000
   18.85055542  110.76200104    0.05000000    0.05000000
   18.85388947  108.80100250    0.05000000    0.05000000
   18.85694504  108.21800232    0.05000000    0.05000000
   18.86027908  110.39399719    0.05000000    0.05000000
   18.86361122  111.38999939    0.05000000    0.05000000
   18.86944389  111.38999939    0.05000000    0.05000000
   18.87361145  107.58300018    0.05000000    0.05000000
   18.87694550  112.65000153    0.05000000    0.05000000
   18.88000107  109.94599915    0.05000000    0.05000000
   18.88277817  109.35800171    0.05000000    0.05000000
   18.88361168  106.65599823    0.05000000    0.05000000
   18.88694382  109.91300201    0.05000000    0.05000000
   18.89027786  107.61599731    0.05000000    0.05000000
   18.89333344  109.43299866    0.05000000    0.05000000
   18.89666748  107.13899994    0.05000000    0.05000000
   18.89972115  107.57700348    0.05000000    0.05000000
   18.90305519  108.10399628    0.05000000    0.05000000
   18.90638924  108.81099701    0.05000000    0.05000000
   18.91250038  108.81099701    0.05000000    0.05000000
   18.91638756  109.46900177    0.05000000    0.05000000
   18.91972160  113.46099854    0.05000000    0.05000000
   18.92305565  112.82800293    0.05000000    0.05000000
   18.92611122  109.31999969    0.05000000    0.05000000
   18.92944336  112.14800262    0.05000000    0.05000000
   18.93249893  110.46900177    0.05000000    0.05000000
   18.93583298  110.82099915    0.05000000    0.05000000
   18.93916512  109.61799622    0.05000000    0.05000000
   18.94222069  107.39499664    0.05000000    0.05000000
   18.94555473  111.76300049    0.05000000    0.05000000
   18.94888878  107.96700287    0.05000000    0.05000000
   18.94944382  106.68900299    0.05000000    0.05000000
   18.95527840  106.68900299    0.05000000    0.05000000
   18.95944595  111.93900299    0.05000000    0.05000000
   18.96250153  108.64900208    0.05000000    0.05000000
   18.96583366  110.57399750    0.05000000    0.05000000
   18.96888924  109.03099823    0.05000000    0.05000000
   18.97222328  110.11799622    0.05000000    0.05000000
   18.97555542  131.89199829    0.05000000    0.05000000
   18.97888947  127.22899628    0.05000000    0.05000000
   18.98194504  150.78599548    0.05000000    0.05000000
   18.98277855  145.83500671    0.05000000    0.05000000
   18.98555565  183.92599487    0.05000000    0.05000000
   18.98888969  177.52999878    0.05000000    0.05000000
   18.99194527  184.29299927    0.05000000    0.05000000
   18.99805641  184.29299927    0.05000000    0.05000000
   19.00222206  168.46800232    0.05000000    0.05000000
   19.00555611  192.49699402    0.05000000    0.05000000
   19.00861168  149.42199707    0.05000000    0.05000000
   19.01194382  188.48800659    0.05000000    0.05000000
   19.01499939  212.09399414    0.05000000    0.05000000
   19.01638794  190.16799927    0.05000000    0.05000000
   19.01861000  193.71000671    0.05000000    0.05000000
   19.02194405  145.11599731    0.05000000    0.05000000
   19.02499962  173.10299683    0.05000000    0.05000000
   19.02833366  163.50999451    0.05000000    0.05000000
   19.03166580  166.77900696    0.05000000    0.05000000
   19.03472137  158.68499756    0.05000000    0.05000000
   19.04083252  158.68499756    0.05000000    0.05000000
   19.04500008  149.66400146    0.05000000    0.05000000
   19.04833221  161.79499817    0.05000000    0.05000000
   19.04972076  146.61099243    0.05000000    0.05000000
   19.05194283  147.61300659    0.05000000    0.05000000
   19.05527687  142.95300293    0.05000000    0.05000000
   19.05861092  153.52099609    0.05000000    0.05000000
   19.06166649  136.60499573    0.05000000    0.05000000
   19.06499863  111.93099976    0.05000000    0.05000000
   19.06805611  126.64600372    0.05000000    0.05000000
   19.07139015  143.67199707    0.05000000    0.05000000
   19.07472229  128.05499268    0.05000000    0.05000000
   19.07777786  116.61799622    0.05000000    0.05000000
   19.08361244  116.61799622    0.05000000    0.05000000
   19.08777809  113.30300140    0.05000000    0.05000000
   19.09111214  130.68699646    0.05000000    0.05000000
   19.09444427  115.85900116    0.05000000    0.05000000
   19.09749985  133.42300415    0.05000000    0.05000000
