    HOUR (UT)   FLARE FACTOR    SKY TESTER    SUN TESTER
   10.44194412   -1.00000000   -1.00000000   -1.00000000
   10.66666698  282.88101196    0.05000000    0.25000000
   10.66972256  281.86199951    0.07000000    0.25000000
   10.67305565  265.87500000    0.07000000    0.23000000
   10.67638874  310.20901489    0.07000000    0.23000000
   10.67944431  337.95401001    0.07000000    0.23000000
   10.68277836  345.21398926    0.11000000    0.23000000
   10.68694496  345.21398926    3.34999990    1.51999998
   10.69111156  266.06201172    3.34999990    1.53999996
   10.69416714  285.43701172    3.36999989    1.53999996
   10.69750023  318.35699463    3.36999989    1.55999994
   10.69972229  298.56600952    3.36999989    1.55999994
   10.70111084  274.87799072    3.36999989    1.55999994
   10.70444393  282.36099243    3.39000010    1.55999994
   10.70749950  258.81500244    3.39000010    1.55999994
   10.71083355  287.51699829    3.39000010    1.58000004
   10.71416664  260.76000977    3.39000010    1.58000004
   10.71722221  252.01400757    3.39000010    1.58000004
   10.72055531  251.69799805    3.39000010    1.58000004
   10.72361088  245.82200623    3.39000010    1.60000002
   10.72972202  245.82200623    3.39000010    1.60000002
   10.73388958  238.24000549    3.36999989    1.61000001
   10.73694515  223.54499817    3.34999990    1.61000001
   10.74027824  225.83399963    3.34999990    1.61000001
   10.74361134  202.83099365    3.32999992    1.61000001
   10.74666691  230.44799805    3.30999994    1.63000000
   10.75000000  185.31399536    3.30999994    1.61000001
   10.75333309  197.49400330    3.28999996    1.63000000
   10.75638866  228.97700500    3.26999998    1.63000000
   10.75972176  200.47300720    3.26999998    1.63000000
   10.76277733  186.13200378    3.25000000    1.64999998
   10.76611137  197.25300598    3.25000000    1.64999998
   10.76666641  175.46800232    3.23000002    1.64999998
   10.77250004  175.46800232    3.23000002    1.64999998
   10.77666664  177.52799988    3.21000004    1.64999998
   10.77999973  193.87100220    3.21000004    1.64999998
   10.78305531  182.63999939    3.21000004    1.66999996
   10.78638935  174.65899658    3.20000005    1.66999996
   10.78972244  171.78100586    3.18000007    1.66999996
   10.79277802  165.04800415    3.18000007    1.69000006
   10.79611111  161.70199585    3.16000009    1.69000006
   10.79916668  160.86399841    3.14000010    1.69000006
   10.80000019  160.16700745    3.16000009    1.71000004
   10.80277824  148.70500183    3.11999989    1.71000004
   10.80611134  164.48500061    3.11999989    1.69000006
   10.80944443  158.97700500    3.09999990    1.71000004
   10.81527805  158.97700500    3.05999994    1.71000004
   10.81944466  143.58500671    3.03999996    1.71000004
   10.82277775  145.26899719    3.01999998    1.71000004
   10.82583332  151.22300720    3.00000000    1.73000002
   10.82916641  166.88800049    2.98000002    1.73000002
   10.83249950  148.03700256    2.96000004    1.75000000
   10.83333302  156.88099670    2.96000004    1.75000000
   10.83583260  176.09300232    2.94000006    1.75000000
   10.83916664  142.69299316    2.93000007    1.75000000
   10.84249973  153.96000671    2.91000009    1.75000000
   10.84555531  160.42100525    2.89000010    1.76999998
   10.84888840  150.09300232    2.86999989    1.76999998
   10.85222244  142.16299438    2.84999990    1.76999998
   10.85833359  142.16299438    2.80999994    1.76999998
   10.86222267  137.42700195    2.78999996    1.76999998
   10.86555576  135.39900208    2.76999998    1.78999996
   10.86666679  133.89999390    2.76999998    1.78999996
   10.86916637  137.87100220    2.75000000    1.78999996
   10.87250042  142.31599426    2.75000000    1.78999996
   10.87583351  134.94299316    2.75000000    1.78999996
   10.87888908  133.91999817    2.75000000    1.80999994
   10.88222218  143.08700562    2.75000000    1.80999994
   10.88555527  141.87600708    2.75000000    1.80999994
   10.88861084  134.03700256    2.73000002    1.80999994
   10.89194393  150.23800659    2.73000002    1.80999994
   10.89527798  137.74499512    2.73000002    1.83000004
   10.90111065  137.74499512    2.73000002    1.83000004
   10.90527725  143.24499512    2.75000000    1.83000004
   10.90833282  128.92500305    2.78999996    1.85000002
   10.91166592  141.61500549    2.86999989    1.85000002
   10.91499996  144.16299438    2.98000002    1.85000002
   10.91805553  136.67500305    3.11999989    1.86000001
   10.92138958  137.09300232    3.51999998    1.86000001
   10.92444515  129.24899292    3.99000001    1.85000002
   10.92777824  128.05099487    4.48999977    1.86000001
   10.93111134  130.72700500    4.84999990    1.86000001
   10.93333340  129.69400024    4.90999985    1.86000001
   10.93444443  133.88699341    4.90999985    1.88000000
   10.93777752  130.17100525    4.90999985    1.88000000
   10.94388866  130.17100525    4.90999985    1.88000000
   10.94805527  128.88699341    4.90999985    1.89999998
   10.95138836  127.28800201    4.90999985    1.89999998
   10.95444393  123.91899872    4.90999985    1.91999996
   10.95777798  124.30999756    4.90999985    1.91999996
   10.96083355  130.58099365    4.90999985    1.91999996
   10.96416664  123.76200104    4.90999985    1.91999996
   10.96666622  119.12100220    4.90999985    1.91999996
   10.96777725  135.36300659    4.90999985    1.91999996
   10.97111034  133.08700562    4.90999985    1.89999998
   10.97444439  118.78199768    4.90999985    1.91999996
   10.97749996  134.25599670    4.90999985    1.91999996
   10.98083305  122.19000244    4.90999985    1.94000006
   10.98666668  122.19000244    4.90999985    1.91999996
   10.99083328  143.42300415    4.90999985    1.89999998
   10.99416733  160.11300659    4.90999985    1.88000000
   10.99722290  151.06799316    4.90999985    1.86000001
   11.00000000  120.49600220    4.90999985    1.89999998
   11.00083351  123.37699890    4.90999985    1.91999996
   11.00416660  121.26399994    4.90999985    1.96000004
   11.00749969  118.52999878    4.90999985    1.98000002
   11.01055527  123.68299866    4.90999985    1.98000002
   11.01388931  121.12999725    4.90999985    1.98000002
   11.01722240  115.48000336    4.90999985    1.98000002
   11.02027798  124.37000275    4.90999985    1.98000002
   11.02361107  122.71600342    4.90999985    1.98000002
   11.02972221  122.71600342    4.90999985    1.98000002
   11.03361130  123.69699860    4.90999985    2.00000000
   11.03694534  120.85099792    4.90999985    2.00000000
   11.04027843  122.45600128    4.90999985    2.00000000
   11.04333401  123.06600189    4.90999985    2.00000000
   11.04666710  125.07399750    4.90999985    2.01999998
   11.05000019  116.44999695    4.90999985    2.03999996
   11.05305576  126.39399719    4.90999985    2.03999996
   11.05638885  137.62800598    4.90999985    1.98000002
   11.05972195  140.16900635    4.90999985    1.76999998
   11.06277752  155.19299316    4.90999985    1.63000000
   11.06611156  152.58399963    4.90999985    1.60000002
   11.06666660  146.62699890    4.90999985    1.60000002
   11.07250023  146.62699890    4.90999985    1.85000002
   11.07666683  130.76100159    4.90999985    2.01999998
   11.07972240  130.96600342    4.90999985    2.09999990
   11.08305550  131.25999451    4.90999985    2.11999989
   11.08638859  118.66600037    4.90999985    2.11999989
   11.08944416  118.78900146    4.90999985    2.11999989
   11.09277725  125.17600250    4.90999985    2.09999990
   11.09611034  126.39299774    4.90999985    2.07999992
   11.09916592  133.84599304    4.90999985    2.07999992
   11.10000038  125.65799713    4.90999985    2.09999990
   11.10277843  114.65899658    4.90999985    2.07999992
   11.10583401  119.82900238    4.90999985    2.07999992
   11.10916710  122.59200287    4.90999985    2.07999992
   11.11527824  122.59200287    4.90999985    2.07999992
   11.11944485  125.26399994    4.90999985    2.07999992
   11.12277794  128.00700378    4.90999985    2.07999992
   11.12583351  125.22899628    4.90999985    2.07999992
   11.12916660  139.58000183    4.90999985    2.09999990
   11.13249969  131.11199951    4.90999985    2.09999990
   11.13333321  129.97000122    4.90999985    2.09999990
   11.13611126  129.87800598    4.90999985    2.09999990
   11.13916683  132.14199829    4.90999985    2.11999989
   11.14249992  130.16700745    4.90999985    2.11999989
   11.14583302  124.59899902    4.90999985    2.11999989
   11.14888859  142.07099915    4.90999985    2.11999989
   11.15222168  123.98999786    4.90999985    2.13000011
   11.15805531  123.98999786    4.90999985    2.13000011
   11.16222191  118.06099701    4.90999985    2.11999989
   11.16555500  122.79599762    4.90999985    2.09999990
   11.16666698  129.79100037    4.90999985    2.09999990
   11.16916656  122.01699829    4.90999985    2.07999992
   11.17222214  135.92799377    4.90999985    2.07999992
   11.17555618  152.47099304    4.90999985    2.05999994
   11.17888927  139.13299561    4.90999985    2.03999996
   11.18194485  141.39900208    4.90999985    2.00000000
   11.18527794  149.31799316    4.90999985    1.96000004
   11.18833351  177.36300659    4.90999985    1.91999996
   11.19166660  204.43899536    4.90999985    1.88000000
   11.19499969  332.86599731    4.90999985    1.83000004
   11.20111084  332.86599731    4.90999985    1.71000004
   11.20527744  266.86700439    4.90999985    1.69000006
   11.20833302  207.04499817    4.90999985    1.69000006
   11.21166611  228.15800476    4.90999985    1.69000006
   11.21472168  286.15200806    4.90999985    1.71000004
   11.21805477  375.76400757    4.90999985    1.73000002
   11.22138882  233.93400574    4.90999985    1.73000002
   11.22444439  167.15100098    4.90999985    1.69000006
   11.22777748  174.67199707    4.90999985    1.69000006
   11.23111057  156.29499817    4.90999985    1.69000006
   11.23333359  178.28900146    4.90999985    1.69000006
   11.23472214  153.58099365    4.90999985    1.69000006
   11.23777771   37.58280182    4.90999985    1.64999998
   11.24388885   37.58280182    4.90999985    1.48000002
   11.24805546   -1.00000000    4.90999985    1.38000000
   11.25111103   -1.00000000    4.90999985    1.33000004
   11.25444412   -1.00000000    4.90999985    1.30999994
   11.25777817   -1.00000000    4.90999985    1.30999994
   11.26083374   -1.00000000    4.90999985    1.36000001
   11.26416683   -1.00000000    4.90999985    1.39999998
   11.26777744   -1.00000000    4.90999985    1.41999996
   11.27083302   -1.00000000    4.90999985    1.38000000
   11.27416611   -1.00000000    4.90999985    1.33000004
   11.27722168   -1.00000000    4.90999985    1.26999998
   11.28055573   -1.00000000    4.90999985    1.28999996
   11.28666687   -1.00000000    4.90999985    1.33000004
   11.29083347   -1.00000000    4.90999985    1.36000001
   11.29416752   -1.00000000    4.90999985    1.38000000
   11.29722309   -1.00000000    4.90999985    1.38000000
   11.30083370   -1.00000000    4.90999985    1.30999994
   11.30416679   -1.00000000    4.90999985    1.23000002
   11.30749989   -1.00000000    4.90999985    1.13000000
   11.31055546   -1.00000000    4.90999985    1.09000003
   11.31388950   -1.00000000    4.90999985    1.05999994
   11.31722260   -1.00000000    4.90999985    1.05999994
   11.32027817   -1.00000000    4.90999985    1.05999994
   11.32361126   -1.00000000    4.90999985    1.03999996
   11.33361053   -1.00000000    4.90999985    1.00000000
   11.33694458   -1.00000000    4.90999985    0.98000002
   11.34000015   -1.00000000    4.90999985    0.98000002
   11.34333324   -1.00000000    4.90999985    0.98000002
   11.34666634   -1.00000000    4.90999985    0.98000002
   11.34972191   -1.00000000    4.90999985    0.98000002
   11.35305595   -1.00000000    4.90999985    1.00000000
   11.35638905   -1.00000000    4.90999985    1.01999998
   11.35944462   -1.00000000    4.90999985    1.01999998
   11.36277771   -1.00000000    4.90999985    0.98000002
   11.36583328   -1.00000000    4.90999985    0.95999998
   11.37638855   -1.00000000    4.90999985    0.94000000
   11.37972260   -1.00000000    4.90999985    0.92000002
   11.38305569   -1.00000000    4.90999985    0.94000000
   11.38611126   -1.00000000    4.90999985    0.94000000
   11.38944435   -1.00000000    4.90999985    0.92000002
   11.39277744   -1.00000000    4.90999985    0.88000000
   11.39583302   -1.00000000    4.90999985    0.89999998
   11.39916611   -1.00000000    4.90999985    0.94000000
   11.40277767   -1.00000000    4.90999985    1.01999998
   11.40583324   -1.00000000    4.90999985    1.03999996
   11.40916634   -1.00000000    4.90999985    1.00000000
   11.41944504   -1.00000000    4.90999985    0.83999997
   11.42250061   -1.00000000    4.90999985    0.81999999
   11.42583370   -1.00000000    4.90999985    0.81999999
   11.42916679   -1.00000000    4.90999985    0.79000002
   11.43222237   -1.00000000    4.90999985    0.76999998
   11.43583298   -1.00000000    4.90999985    0.76999998
   11.43888855   -1.00000000    4.90999985    0.79000002
   11.44222260   -1.00000000    4.90999985    0.81999999
   11.44555569   -1.00000000    4.90999985    0.81999999
   11.44861126   -1.00000000    4.90999985    0.80000001
   11.45194435   -1.00000000    4.90999985    0.79000002
   11.46222210   -1.00000000    4.90999985    0.86000001
   11.46527767   -1.00000000    4.90999985    0.88000000
   11.46888828   -1.00000000    4.90999985    0.88000000
   11.47222137   -1.00000000    4.90999985    0.89999998
   11.47555542   -1.00000000    4.90999985    0.94000000
   11.47861099   -1.00000000    4.90999985    0.95999998
   11.48194408   -1.00000000    4.90999985    0.95999998
   11.48527813   -1.00000000    4.90999985    0.95999998
   11.48833370   -1.00000000    4.90999985    0.95999998
   11.49166679   -1.00000000    4.90999985    0.92000002
   11.49472237   -1.00000000    4.90999985    0.86000001
   11.50500011   -1.00000000    4.90999985    0.98000002
   11.50833321   -1.00000000    4.90999985    1.01999998
   11.51138878   -1.00000000    4.90999985    1.03999996
   11.51472187   -1.00000000    4.90999985    1.03999996
   11.51777744   -1.00000000    4.90999985    1.05999994
   11.52111053   -1.00000000    4.90999985    1.05999994
   11.52444458   -1.00000000    4.90999985    1.11000001
   11.52750015   -1.00000000    4.90999985    1.19000006
   11.53083324   -1.00000000    4.90999985    1.28999996
   11.53416729   -1.00000000    4.90999985    1.34000003
   11.53750038   -1.00000000    4.90999985    1.36000001
   11.54777813   -1.00000000    4.90999985    1.11000001
   11.55111122   -1.00000000    4.90999985    1.09000003
   11.55444431   -1.00000000    4.90999985    1.09000003
   11.55749989   -1.00000000    4.90999985    1.09000003
   11.56083393   -1.00000000    4.90999985    1.07000005
   11.56388950   -1.00000000    4.90999985    1.05999994
   11.56777763   -1.00000000    4.90999985    1.03999996
   11.57083321   -1.00000000    4.90999985    1.01999998
   11.57416630   -1.00000000    4.90999985    1.03999996
   11.57722187   -1.00000000    4.90999985    1.07000005
   11.58055592   -1.00000000    4.90999985    1.09000003
   11.59055519   -1.00000000    4.90999985    1.01999998
   11.59388828   -1.00000000    4.90999985    1.00000000
   11.59722233   -1.00000000    4.90999985    1.07000005
   11.60083389   -1.00000000    4.90999985    1.11000001
   11.60388947   -1.00000000    4.90999985    1.13000000
   11.60722256   -1.00000000    4.90999985    1.16999996
   11.61027813   -1.00000000    4.90999985    1.21000004
   11.61361122   -1.00000000    4.90999985    1.19000006
   11.61694431   -1.00000000    4.90999985    1.14999998
   11.61999989   -1.00000000    4.90999985    1.16999996
   11.62333393   -1.00000000    4.90999985    1.25000000
   11.63361073   -1.00000000    4.90999985    1.38000000
   11.63666630   -1.00000000    4.90999985    1.44000006
   11.64000034   -1.00000000    4.90999985    1.48000002
   11.64333344   -1.00000000    4.90999985    1.53999996
   11.64638901   -1.00000000    4.90999985    1.60000002
   11.64972210   -1.00000000    4.90999985    1.60000002
   11.65305519   -1.00000000    4.90999985    1.51999998
   11.65611076   -1.00000000    4.90999985    1.46000004
   11.65944386   -1.00000000    4.90999985    1.44000006
   11.66249943   -1.00000000    4.90999985    1.48000002
   11.66583252   72.44349670    4.90999985    1.60000002
   11.66666698   83.34490204    4.90999985    1.63000000
   11.69166660   -1.00000000    4.90999985    1.13000000
   11.69472218   -1.00000000    4.90999985    0.98000002
   11.69805527   -1.00000000    4.90999985    1.00000000
   11.70166683   -1.00000000    4.90999985    1.03999996
   11.70472240   -1.00000000    4.90999985    1.03999996
   11.70805550   -1.00000000    4.90999985    1.07000005
   11.71138859   -1.00000000    4.90999985    1.03999996
   11.71444416   -1.00000000    4.90999985    1.00000000
   11.71777725   -1.00000000    4.90999985    1.00000000
   11.72083282   -1.00000000    4.90999985    0.95999998
   11.72416592   -1.00000000    4.90999985    0.83999997
   11.73416710   -1.00000000    4.90999985    0.80000001
   11.73750019   -1.00000000    4.90999985    0.80000001
   11.74083328   -1.00000000    4.90999985    0.76999998
   11.74388885   -1.00000000    4.90999985    0.70999998
   11.74722290   -1.00000000    4.90999985    0.70999998
   11.75027752   -1.00000000    4.90999985    0.70999998
   11.75361156   -1.00000000    4.90999985    0.70999998
   11.75694466   -1.00000000    4.90999985    0.64999998
   11.76000023   -1.00000000    4.90999985    0.61000001
   11.76333332   -1.00000000    4.90999985    0.56999999
   11.76666641   -1.00000000    4.90999985    0.55000001
   11.77722168   -1.00000000    4.90999985    0.61000001
   11.78027725   -1.00000000    4.90999985    0.61000001
   11.78361130   -1.00000000    4.90999985    0.58999997
   11.78666687   -1.00000000    4.90999985    0.55000001
   11.79000092   -1.00000000    4.90999985    0.55000001
   11.79333401   -1.00000000    4.90999985    0.55000001
   11.79638958   -1.00000000    4.90999985    0.58999997
   11.79972267   -1.00000000    4.90999985    0.64999998
   11.80333328   -1.00000000    4.90999985    0.67000002
   11.80638885   -1.00000000    4.90999985    0.63000000
   11.80972195   -1.00000000    4.90999985    0.73000002
   11.81999969   -1.00000000    4.90999985    1.05999994
   11.82305527   -1.00000000    4.90999985    1.11000001
   11.82638836   -1.00000000    4.90999985    1.21000004
   11.82972240   -1.00000000    4.90999985    1.39999998
   11.83277798   -1.00000000    4.90999985    1.53999996
   11.83638859   -1.00000000    4.90999985    1.60000002
   11.83944416   -1.00000000    4.90999985    1.60000002
   11.84277725   -1.00000000   -1.00000000   -1.00000000
   11.84611034  131.47399902    4.90999985    1.69000006
   11.84916592  321.28201294    4.90999985    1.85000002
   11.85249996  245.88099670    4.90999985    1.91999996
   11.85861111  245.88099670    4.90999985    1.83000004
   11.86277771   -1.00000000    4.90999985    1.76999998
   11.86611176   -1.00000000    4.90999985    1.53999996
   11.86972237   -1.00000000    4.90999985    1.53999996
   11.87277794   -1.00000000    4.90999985    1.48000002
   11.87611103   -1.00000000    4.90999985    1.41999996
   11.87944412   -1.00000000   -1.00000000   -1.00000000
   11.88249969   -1.00000000    4.90999985    1.75000000
   11.88583279   -1.00000000    4.90999985    1.55999994
   11.88916683   -1.00000000    4.90999985    1.28999996
   11.89222240   -1.00000000    4.90999985    1.38000000
   11.89555550   -1.00000000    4.90999985    1.53999996
   11.90166664   -1.00000000    4.90999985    1.80999994
   11.90583324   -1.00000000    4.90999985    1.66999996
   11.90888882   -1.00000000    4.90999985    1.41999996
   11.91222191   -1.00000000    4.90999985    1.50000000
   11.91527748   -1.00000000    4.90999985    1.48000002
   11.91861153   -1.00000000    4.90999985    1.50000000
   11.92194462   -1.00000000    4.90999985    1.58000004
   11.92500019   -1.00000000    4.90999985    1.55999994
   11.92833328   -1.00000000    4.90999985    1.58000004
   11.93166733   -1.00000000    4.90999985    1.55999994
   11.93388939   74.47889709    4.90999985    1.64999998
   11.93527794   23.57019997    4.90999985    1.69000006
   11.93861103  101.43099976    4.90999985    1.75000000
   11.94444466  101.43099976    4.90999985    1.85000002
   11.94861126   -1.00000000    4.90999985    1.76999998
   11.95166683   -1.00000000    4.90999985    1.71000004
   11.95499992   -1.00000000    4.90999985    1.66999996
   11.95833302   -1.00000000    4.90999985    1.64999998
   11.96138859   48.89920044    4.90999985    1.71000004
   11.96472168   -1.00000000    4.90999985    1.73000002
   11.96805477   -1.00000000    4.90999985    1.64999998
   11.97138882   -1.00000000    4.90999985    1.60000002
   11.97444439   -1.00000000    4.90999985    1.60000002
   11.97777748   -1.00000000    4.90999985    1.55999994
   11.98111057   -1.00000000    4.90999985    1.58000004
   11.98722267   -1.00000000    4.90999985    1.46000004
   11.99138927   -1.00000000    4.90999985    1.53999996
   11.99472237   -1.00000000    4.90999985    1.51999998
   11.99805546   -1.00000000    4.90999985    1.50000000
   12.00138855   -1.00000000    4.90999985    1.58000004
   12.00472260   -1.00000000    4.90999985    1.53999996
   12.00805569   -1.00000000    4.90999985    1.48000002
   12.01111126   -1.00000000    4.90999985    1.48000002
   12.01444435   -1.00000000    4.90999985    1.51999998
   12.01777744   -1.00000000    4.90999985    1.50000000
   12.02083302   -1.00000000    4.90999985    1.51999998
   12.02416611   -1.00000000    4.90999985    1.48000002
   12.03416729   -1.00000000    4.90999985    1.36000001
   12.03750038   -1.00000000    4.90999985    1.36000001
   12.04083347   -1.00000000    4.90999985    1.39999998
   12.04388905   -1.00000000    4.90999985    1.41999996
   12.04722309   -1.00000000    4.90999985    1.50000000
   12.05027771   -1.00000000    4.90999985    1.51999998
   12.05361176   -1.00000000    4.90999985    1.55999994
   12.05694485   -1.00000000    4.90999985    1.55999994
   12.06000042   -1.00000000    4.90999985    1.53999996
   12.06333351   -1.00000000    4.90999985    1.55999994
   12.06638908   -1.00000000    4.90999985    1.60000002
   12.07305527   -1.00000000    4.90999985    1.66999996
   12.07722187   23.57019997    4.90999985    1.71000004
   12.08027744   63.24489975    4.90999985    1.75000000
   12.08361053  158.26300049    4.90999985    1.80999994
   12.08666611  164.25399780    4.90999985    1.89999998
   12.09000015  103.93099976    4.90999985    1.86000001
   12.09333324  199.51899719    4.90999985    1.85000002
   12.09638882   94.52469635    4.90999985    1.85000002
   12.09972191  163.61399841    4.90999985    1.78999996
   12.10055637  148.58000183    4.90999985    1.78999996
   12.10305595  162.20799255    4.90999985    1.83000004
   12.10638905  246.50100708    4.90999985    1.86000001
   12.10972214  204.36900330    4.90999985    1.88000000
   12.11583328  204.36900330    4.90999985    2.01999998
   12.11999989  229.34700012    4.90999985    2.07999992
   12.12305546  226.68099976    4.90999985    2.07999992
   12.12638855  317.46398926    4.90999985    2.05999994
   12.12972260  127.16799927    4.90999985    1.98000002
   12.13277817   -1.00000000    4.90999985    1.85000002
   12.13638878   -1.00000000    4.90999985    1.75000000
   12.13972187   -1.00000000    4.90999985    1.76999998
   12.14277744   72.25910187    4.90999985    1.78999996
   12.14611053   52.40819931    4.90999985    1.78999996
   12.14944458   -1.00000000    4.90999985    1.76999998
   12.15249920   -1.00000000    4.90999985    1.69000006
   12.15861034   -1.00000000    4.90999985    1.66999996
   12.16277695   -1.00000000    4.90999985    1.53999996
   12.16611099   -1.00000000    4.90999985    1.48000002
   12.16944504   -1.00000000    4.90999985    1.53999996
   12.17277813   -1.00000000    4.90999985    1.53999996
   12.17611122   -1.00000000    4.90999985    1.50000000
   12.17916679   -1.00000000    4.90999985    1.48000002
   12.18249989   -1.00000000    4.90999985    1.46000004
   12.18555546   -1.00000000    4.90999985    1.41999996
   12.18888855   -1.00000000    4.90999985    1.41999996
   12.19222260   -1.00000000    4.90999985    1.46000004
   12.19527817   -1.00000000    4.90999985    1.46000004
   12.20138836   -1.00000000    4.90999985    1.48000002
   12.20555496   -1.00000000    4.90999985    1.44000006
   12.20888901   -1.00000000    4.90999985    1.41999996
   12.21194458   -1.00000000    4.90999985    1.39999998
   12.21527767   -1.00000000    4.90999985    1.39999998
   12.21861076   -1.00000000    4.90999985    1.41999996
   12.22166634   -1.00000000    4.90999985    1.48000002
   12.22499943   -1.00000000    4.90999985    1.51999998
   12.22833252   -1.00000000    4.90999985    1.51999998
   12.23138809   -1.00000000    4.90999985    1.48000002
   12.23500061   -1.00000000    4.90999985    1.46000004
   12.23833370   -1.00000000    4.90999985    1.41999996
   12.24444485   -1.00000000    4.90999985    1.36000001
   12.24861145   -1.00000000    4.90999985    1.39999998
   12.25166702   -1.00000000    4.90999985    1.39999998
   12.25500011   -1.00000000    4.90999985    1.41999996
   12.25805569   -1.00000000    4.90999985    1.51999998
   12.26138878   -1.00000000    4.90999985    1.66999996
   12.26472187   88.33249664    4.90999985    1.76999998
   12.26722240   54.86719894    4.90999985    1.80999994
   12.26805496   -1.00000000    4.90999985    1.78999996
   12.27138901   -1.00000000    4.90999985    1.73000002
   12.27472210   -1.00000000    4.90999985    1.69000006
   12.27777767   -1.00000000    4.90999985    1.73000002
   12.28111076   23.57019997    4.90999985    1.76999998
   12.28722286   23.57019997    4.90999985    1.69000006
   12.29138947   -1.00000000    4.90999985    1.64999998
   12.29444504   -1.00000000    4.90999985    1.71000004
   12.29777813   -1.00000000    4.90999985    1.73000002
   12.30138874   -1.00000000    4.90999985    1.73000002
   12.30472279   -1.00000000    4.90999985    1.73000002
   12.30805588   -1.00000000    4.90999985    1.78999996
   12.31111145   -1.00000000    4.90999985    1.80999994
   12.31444454   -1.00000000    4.90999985    1.78999996
   12.31750011   -1.00000000    4.90999985    1.75000000
   12.32083321   -1.00000000    4.90999985    1.71000004
   12.32416630   -1.00000000    4.90999985    1.64999998
   12.32999992   -1.00000000    4.90999985    1.60000002
   12.33416653   -1.00000000    4.90999985    1.61000001
   12.33749962   -1.00000000    4.90999985    1.61000001
   12.34055519   -1.00000000    4.90999985    1.58000004
   12.34388828   -1.00000000    4.90999985    1.58000004
   12.34722233   -1.00000000    4.90999985    1.50000000
   12.35027790   -1.00000000    4.90999985    1.41999996
   12.35361195   -1.00000000    4.90999985    1.39999998
   12.35694504   -1.00000000    4.90999985    1.50000000
   12.36000061   -1.00000000    4.90999985    1.58000004
   12.36333370   -1.00000000    4.90999985    1.61000001
   12.36638927   -1.00000000    4.90999985    1.63000000
   12.37277794   -1.00000000    4.90999985    1.61000001
   12.37694454   -1.00000000    4.90999985    1.63000000
   12.38027763   -1.00000000    4.90999985    1.64999998
   12.38361073   -1.00000000    4.90999985    1.64999998
   12.38666630   -1.00000000    4.90999985    1.69000006
   12.39000034   -1.00000000    4.90999985    1.66999996
   12.39305496   -1.00000000    4.90999985    1.61000001
   12.39638901   -1.00000000    4.90999985    1.60000002
   12.39972210   -1.00000000    4.90999985    1.60000002
   12.40305519   -1.00000000    4.90999985    1.58000004
   12.40638828   -1.00000000    4.90999985    1.58000004
   12.40972137   -1.00000000    4.90999985    1.60000002
   12.41583252   -1.00000000    4.90999985    1.69000006
   12.42000008   -1.00000000    4.90999985    1.64999998
   12.42305565   -1.00000000    4.90999985    1.66999996
   12.42638874   -1.00000000    4.90999985    1.69000006
   12.42944431   -1.00000000    4.90999985    1.64999998
   12.43277836   -1.00000000    4.90999985    1.60000002
   12.43611145   -1.00000000    4.90999985    1.51999998
   12.43944454   -1.00000000    4.90999985    1.48000002
   12.44277763   -1.00000000    4.90999985    1.41999996
   12.44583321   -1.00000000    4.90999985    1.39999998
   12.44916630   -1.00000000    4.90999985    1.34000003
   12.45249939   -1.00000000    4.90999985    1.30999994
   12.46277714   -1.00000000    4.90999985    1.34000003
   12.46583271   -1.00000000    4.90999985    1.33000004
   12.46944427   -1.00000000    4.90999985    1.26999998
   12.47277737   -1.00000000    4.90999985    1.23000002
   12.47611046   -1.00000000    4.90999985    1.21000004
   12.47916603   -1.00000000    4.90999985    1.21000004
   12.48249912   -1.00000000    4.90999985    1.16999996
   12.48555565   -1.00000000    4.90999985    1.13000000
   12.48888874   -1.00000000    4.90999985    1.07000005
   12.49222279   -1.00000000    4.90999985    1.05999994
   12.49527836   -1.00000000    4.90999985    1.07000005
   12.50555515   -1.00000000    4.90999985    1.07000005
   12.50861073   -1.00000000    4.90999985    1.07000005
   12.51194477   -1.00000000    4.90999985    1.09000003
   12.51527786   -1.00000000    4.90999985    1.09000003
   12.51833344   -1.00000000    4.90999985    1.07000005
   12.52166653   -1.00000000    4.90999985    1.05999994
   12.52499962   -1.00000000    4.90999985    1.05999994
   12.52805519   -1.00000000    4.90999985    1.11000001
   12.53138828   -1.00000000    4.90999985    1.16999996
   12.53472233   -1.00000000    4.90999985    1.19000006
   12.53805637   -1.00000000    4.90999985    1.16999996
   12.54833412   -1.00000000    4.90999985    1.19000006
   12.55166721   -1.00000000    4.90999985    1.21000004
   12.55472279   -1.00000000    4.90999985    1.23000002
   12.55805588   -1.00000000    4.90999985    1.25000000
   12.56138897   -1.00000000    4.90999985    1.25000000
   12.56444454   -1.00000000    4.90999985    1.25000000
   12.56805515   -1.00000000    4.90999985    1.28999996
   12.57138920   -1.00000000    4.90999985    1.30999994
   12.57472229   -1.00000000    4.90999985    1.26999998
   12.57777786   -1.00000000    4.90999985    1.25000000
   12.58111095   -1.00000000    4.90999985    1.25000000
   12.59111118   -1.00000000    4.90999985    1.26999998
   12.59444427   -1.00000000    4.90999985    1.33000004
   12.59777737   -1.00000000    4.90999985    1.33000004
   12.60111141   -1.00000000    4.90999985    1.30999994
   12.60444450   -1.00000000    4.90999985    1.33000004
   12.60777855   -1.00000000    4.90999985    1.34000003
   12.61083412   -1.00000000    4.90999985    1.34000003
   12.61416721   -1.00000000    4.90999985    1.34000003
   12.61722279   -1.00000000    4.90999985    1.36000001
   12.62055588   -1.00000000    4.90999985    1.36000001
   12.62388897   -1.00000000    4.90999985    1.34000003
   12.63416672   -1.00000000    4.90999985    1.36000001
   12.63722229   -1.00000000    4.90999985    1.36000001
   12.64055538   -1.00000000    4.90999985    1.36000001
   12.64361095   -1.00000000    4.90999985    1.39999998
   12.64694405   -1.00000000    4.90999985    1.44000006
   12.65027714   -1.00000000    4.90999985    1.46000004
   12.65333271   -1.00000000    4.90999985    1.51999998
   12.65666676   -1.00000000    4.90999985    1.58000004
   12.65999985   -1.00000000    4.90999985    1.51999998
   12.66305542   -1.00000000    4.90999985    1.50000000
   12.66638851   -1.00000000    4.90999985    1.39999998
   12.67694473   -1.00000000    4.90999985    1.30999994
   12.68000031   -1.00000000    4.90999985    1.41999996
   12.68333340   -1.00000000    4.90999985    1.50000000
   12.70333290   -1.00000000    4.90999985    1.46000004
   12.70638847   -1.00000000    4.90999985    1.46000004
   12.70972157   -1.00000000    4.90999985    1.50000000
   12.71583271   -1.00000000    4.90999985    1.53999996
   12.71999931   -1.00000000    4.90999985    1.51999998
   12.72305489   -1.00000000    4.90999985    1.48000002
   12.72638798   -1.00000000    4.90999985    1.50000000
   12.72944355   -1.00000000    4.90999985    1.53999996
   12.73277760   -1.00000000    4.90999985    1.50000000
   12.73611164   -1.00000000    4.90999985    1.44000006
   12.73944473   -1.00000000    4.90999985    1.38000000
   12.74277782   -1.00000000    4.90999985    1.39999998
   12.74583340   -1.00000000    4.90999985    1.41999996
   12.74916649   -1.00000000    4.90999985    1.39999998
   12.75249958   -1.00000000    4.90999985    1.36000001
   12.76277733   -1.00000000    4.90999985    1.34000003
   12.76583290   -1.00000000    4.90999985    1.33000004
   12.76944447   -1.00000000    4.90999985    1.30999994
   12.77277756   -1.00000000    4.90999985    1.23000002
   12.77611065   -1.00000000    4.90999985    1.19000006
   12.77916622   -1.00000000    4.90999985    1.13000000
   12.78249931   -1.00000000    4.90999985    1.07000005
   12.78583336   -1.00000000    4.90999985    1.05999994
   12.78888893   -1.00000000    4.90999985    1.01999998
   12.79222298   -1.00000000    4.90999985    1.00000000
   12.79527855   -1.00000000    4.90999985    1.05999994
   12.80555534   -1.00000000    4.90999985    1.19000006
   12.80861092   -1.00000000    4.90999985    1.23000002
   12.81194496   -1.00000000    4.90999985    1.21000004
   12.81527805   -1.00000000    4.90999985    1.13000000
   12.81833363   -1.00000000    4.90999985    1.13000000
   12.82166672   -1.00000000    4.90999985    1.14999998
   12.82499981   -1.00000000    4.90999985    1.14999998
   12.82805538   -1.00000000    4.90999985    1.16999996
   12.83138847   -1.00000000    4.90999985    1.23000002
   12.83472157   -1.00000000    4.90999985    1.25000000
   12.83805561   -1.00000000    4.90999985    1.25000000
   12.84833336   -1.00000000    4.90999985    1.30999994
   12.85166740   -1.00000000    4.90999985    1.34000003
   12.85472298   -1.00000000    4.90999985    1.38000000
   12.85805607   -1.00000000    4.90999985    1.36000001
   12.86138916   -1.00000000    4.90999985    1.38000000
   12.86444473   -1.00000000    4.90999985    1.39999998
   12.86805534   -1.00000000    4.90999985    1.41999996
   12.87111092   -1.00000000    4.90999985    1.39999998
   12.87444496   -1.00000000    4.90999985    1.28999996
   12.87750053   -1.00000000    4.90999985    1.21000004
   12.88083363   -1.00000000    4.90999985    1.23000002
   12.89111137   -1.00000000    4.90999985    1.38000000
   12.89444447   -1.00000000    4.90999985    1.33000004
   12.89777756   -1.00000000    4.90999985    1.34000003
   12.90111065   -1.00000000    4.90999985    1.28999996
   12.90444374   -1.00000000    4.90999985    1.33000004
   12.90777779   -1.00000000    4.90999985    1.38000000
   12.91083336   -1.00000000    4.90999985    1.33000004
   12.91416645   -1.00000000    4.90999985    1.38000000
   12.91750050   -1.00000000    4.90999985    1.50000000
   12.92055607   -1.00000000    4.90999985    1.55999994
   12.92388916   -1.00000000    4.90999985    1.51999998
   12.93416691   -1.00000000    4.90999985    1.34000003
   12.93777752   -1.00000000    4.90999985    1.44000006
   12.94083309   -1.00000000    4.90999985    1.46000004
   12.94416714   -1.00000000    4.90999985    1.51999998
   12.94750023   -1.00000000    4.90999985    1.50000000
   12.95055580   -1.00000000    4.90999985    1.51999998
   12.95388889   -1.00000000    4.90999985    1.48000002
   12.95722198   -1.00000000    4.90999985    1.38000000
   12.96027756   -1.00000000    4.90999985    1.36000001
   12.96361065   -1.00000000    4.90999985    1.39999998
   12.96666622   -1.00000000    4.90999985    1.39999998
   12.97694397   -1.00000000    4.90999985    1.30999994
   12.97999954   -1.00000000    4.90999985    1.30999994
   12.98333359   -1.00000000    4.90999985    1.33000004
   12.98666668   -1.00000000    4.90999985    1.39999998
   12.98972225   -1.00000000    4.90999985    1.44000006
   12.99305534   -1.00000000    4.90999985    1.53999996
   12.99638939   -1.00000000    4.90999985    1.60000002
   12.99944496   -1.00000000    4.90999985    1.51999998
   13.00305557   -1.00000000    4.90999985    1.50000000
   13.00611115   -1.00000000    4.90999985    1.60000002
   13.00944424   -1.00000000    4.90999985    1.64999998
   13.01555538   -1.00000000    4.90999985    1.73000002
   13.01972198   -1.00000000    4.90999985    1.58000004
   13.02305508   -1.00000000    4.90999985    1.58000004
   13.02611065   -1.00000000    4.90999985    1.55999994
   13.02944374   -1.00000000    4.90999985    1.55999994
   13.03277779   -1.00000000    4.90999985    1.55999994
   13.03638935   -1.00000000    4.90999985    1.53999996
   13.03944492   -1.00000000    4.90999985    1.46000004
   13.04277802   -1.00000000    4.90999985    1.50000000
   13.04611111   -1.00000000    4.90999985    1.55999994
   13.04916668   -1.00000000    4.90999985    1.71000004
   13.05249977   -1.00000000    4.90999985    1.80999994
   13.05861092   -1.00000000    4.90999985    1.76999998
   13.06250000   -1.00000000    4.90999985    1.73000002
   13.06583309   -1.00000000    4.90999985    1.69000006
   13.06944466   -1.00000000    4.90999985    1.63000000
   13.07250023   -1.00000000    4.90999985    1.63000000
   13.07583332   -1.00000000    4.90999985    1.60000002
   13.07916641   -1.00000000    4.90999985    1.61000001
   13.08222198   -1.00000000    4.90999985    1.63000000
   13.08555508   -1.00000000    4.90999985    1.60000002
   13.08888817   -1.00000000    4.90999985    1.60000002
   13.09194374   -1.00000000    4.90999985    1.61000001
   13.09527779   -1.00000000    4.90999985    1.64999998
   13.10138893   -1.00000000    4.90999985    1.83000004
   13.10555553   -1.00000000    4.90999985    1.83000004
   13.10861111   -1.00000000    4.90999985    1.76999998
   13.11194515   -1.00000000    4.90999985    1.69000006
   13.11527824   -1.00000000    4.90999985    1.66999996
   13.11833382   -1.00000000    4.90999985    1.64999998
   13.12166691   -1.00000000    4.90999985    1.60000002
   13.12500000   -1.00000000    4.90999985    1.63000000
   13.12805557   -1.00000000    4.90999985    1.63000000
   13.13138866   -1.00000000    4.90999985    1.63000000
   13.13500023   -1.00000000    4.90999985    1.64999998
   13.13805580   -1.00000000    4.90999985    1.61000001
   13.14416695   -1.00000000    4.90999985    1.60000002
   13.14833355   -1.00000000    4.90999985    1.60000002
   13.15166664   -1.00000000    4.90999985    1.61000001
   13.15472221   -1.00000000    4.90999985    1.64999998
   13.15805531   -1.00000000    4.90999985    1.69000006
   13.16111088   -1.00000000    4.90999985    1.71000004
   13.16444397   -1.00000000    4.90999985    1.71000004
   13.16777802   -1.00000000    4.90999985    1.63000000
   13.17138958   -1.00000000    4.90999985    1.61000001
   13.17472267   -1.00000000    4.90999985    1.60000002
   13.17777824   -1.00000000    4.90999985    1.63000000
   13.18111134   -1.00000000    4.90999985    1.63000000
   13.18694496   -1.00000000    4.90999985    1.66999996
   13.19111156   -1.00000000    4.90999985    1.69000006
   13.19444466   -1.00000000    4.90999985    1.66999996
   13.19750023   -1.00000000    4.90999985    1.64999998
   13.20083332   -1.00000000    4.90999985    1.80999994
   13.20444393   -1.00000000    4.90999985    1.80999994
   13.20777798   -1.00000000    4.90999985    1.78999996
   13.21083355   -1.00000000    4.90999985    1.73000002
   13.21416664   -1.00000000    4.90999985    1.69000006
   13.21722221   -1.00000000    4.90999985    1.63000000
   13.22055531   -1.00000000    4.90999985    1.64999998
   13.22388840   -1.00000000    4.90999985    1.73000002
   13.22999954   -1.00000000    4.90999985    1.83000004
   13.23388958   -1.00000000    4.90999985    1.86000001
   13.23750019   -1.00000000    4.90999985    1.78999996
   13.24083328   -1.00000000    4.90999985    1.75000000
   13.24388885   -1.00000000    4.90999985    1.76999998
   13.24722290   -1.00000000    4.90999985    1.76999998
   13.25027752   -1.00000000    4.90999985    1.80999994
   13.25361156   -1.00000000    4.90999985    1.78999996
   13.25694466   -1.00000000    4.90999985    1.73000002
   13.26000023   -1.00000000    4.90999985    1.63000000
   13.26333332   -1.00000000    4.90999985    1.58000004
   13.26666641   -1.00000000    4.90999985    1.46000004
   13.27694416   -1.00000000    4.90999985    1.48000002
   13.27999973   -1.00000000    4.90999985    1.50000000
   13.28333378   -1.00000000    4.90999985    1.50000000
   13.28638935   -1.00000000    4.90999985    1.61000001
   13.28972244   -1.00000000    4.90999985    1.69000006
   13.29305553   -1.00000000    4.90999985    1.71000004
   13.29638958   -1.00000000    4.90999985    1.58000004
   13.29944515   -1.00000000    4.90999985    1.50000000
   13.30305576   -1.00000000    4.90999985    1.55999994
   13.30638885   -1.00000000    4.90999985    1.53999996
   13.30944443   -1.00000000    4.90999985    1.51999998
   13.31555557   -1.00000000    4.90999985    1.64999998
   13.31972218   -1.00000000    4.90999985    1.75000000
   13.32305527   -1.00000000    4.90999985    1.73000002
   13.32611084   -1.00000000    4.90999985    1.75000000
   13.32944393   -1.00000000    4.90999985    1.64999998
   13.33249950   -1.00000000    4.90999985    1.53999996
   13.33500004   -1.00000000   -1.00000000   -1.00000000
   13.33611107   65.81449890    4.90999985    1.83000004
   13.33944416   -1.00000000    4.90999985    1.85000002
   13.34249973  128.11300659    4.90999985    1.83000004
   13.34583282  102.49500275    4.90999985    1.91999996
   13.34916592   -1.00000000    4.90999985    1.89999998
   13.35222244  179.08000183    4.90999985    1.80999994
   13.35833359  179.08000183    4.90999985    1.98000002
   13.36250019   -1.00000000    4.90999985    1.73000002
   13.36583328  102.50000000    4.90999985    1.88000000
   13.36833382   79.45819855    4.90999985    1.91999996
   13.36944485  127.30100250    4.90999985    1.91999996
   13.37277794   -1.00000000    4.90999985    1.89999998
   13.37583351  145.63099670    4.90999985    1.83000004
   13.37916660   74.09700012    4.90999985    1.91999996
   13.38249969  278.04901123    4.90999985    1.88000000
   13.38555527  150.75700378    4.90999985    2.01999998
   13.38888836  288.87298584    4.90999985    1.98000002
   13.39222240  249.16000366    4.90999985    2.05999994
   13.39527798  215.02799988    4.90999985    2.07999992
   13.40138817  215.02799988    4.90999985    2.09999990
   13.40527725  253.67399597    4.90999985    2.03999996
   13.40861034  303.86401367    4.90999985    2.00000000
   13.41194439  188.74899292    4.90999985    2.07999992
   13.41499996  170.04200745    4.90999985    2.23000002
   13.41833401  242.71699524    4.90999985    2.17000008
   13.42166710  216.88999939    4.90999985    2.09999990
   13.42472267  262.05899048    4.90999985    2.03999996
   13.42805576   23.57019997    4.90999985    1.88000000
   13.43111134  119.75599670    4.90999985    1.85000002
   13.43444443  183.10600281    4.90999985    1.89999998
   13.43638897   -1.00000000   -1.00000000   -1.00000000
   13.43805599   23.57019997    4.90999985    1.89999998
   13.44416714   23.57019997    4.90999985    1.89999998
   13.44833374  241.16099548    4.90999985    1.88000000
   13.45138836  280.09100342    4.90999985    1.96000004
   13.45472240  465.01800537    4.90999985    1.96000004
   13.45666695  381.99499512    4.90999985    2.01999998
   13.45805550  397.91400146    4.90999985    2.03999996
   13.45944405  514.20300293    4.90999985    2.01999998
   13.46083355  532.15502930    4.90999985    2.01999998
   13.46222210  477.00299072    4.90999985    2.03999996
   13.46361065  207.48100281    4.90999985    2.01999998
   13.46361065  183.10600281    4.90999985    1.89999998
   13.46361065   23.57019997    4.90999985    1.89999998
   13.46361065  241.16099548    4.90999985    1.88000000
   13.46388912  280.09100342    4.90999985    1.96000004
   13.46388912  465.01800537    4.90999985    1.96000004
   13.46388912  216.88999939    4.90999985    2.09999990
   13.46388912  262.05899048    4.90999985    2.03999996
   13.46388912   23.57019997    4.90999985    1.88000000
   13.46416664  119.75599670    4.90999985    1.85000002
   13.46472168  365.78201294    4.90999985    1.98000002
   13.46777725  452.72198486    4.90999985    2.01999998
   13.46972179  507.52700806    4.90999985    2.05999994
   13.47111034  207.21000671    4.90999985    2.01999998
   13.47111034  365.78201294    4.90999985    1.98000002
   13.47138882  452.72198486    4.90999985    2.01999998
   13.47249985  300.81600952    4.90999985    1.96000004
   13.47555542  308.53799438    4.90999985    1.98000002
   13.47888851  503.11199951    4.90999985    2.01999998
   13.48083305  130.22399902    4.90999985    2.00000000
   13.48083305  300.81600952    4.90999985    1.96000004
   13.48111057  308.53799438    4.90999985    1.98000002
   13.48111057  503.11199951    4.90999985    2.01999998
   13.48305511  105.72699738    4.90999985    1.88000000
   13.48611164  325.42599487    4.90999985    1.98000002
   13.48944473  226.29600525    4.90999985    1.98000002
   13.49277782  126.22200012    4.90999985    2.00000000
   13.49583340  192.58900452    4.90999985    2.25000000
   13.50166702  192.58900452    4.90999985    2.17000008
   13.50583363  195.61500549    4.90999985    2.21000004
   13.50888920  179.14999390    4.90999985    2.28999996
   13.51222229  353.21701050    4.90999985    2.15000010
   13.51472187  370.84600830    4.90999985    2.07999992
   13.51583290  413.67098999    4.90999985    2.03999996
   13.51777744  299.49301147    4.90999985    2.05999994
   13.51777744  105.72699738    4.90999985    1.88000000
   13.51777744  325.42599487    4.90999985    1.98000002
   13.51777744  226.29600525    4.90999985    1.98000002
   13.51805496  126.22200012    4.90999985    2.00000000
   13.51805496  192.58900452    4.90999985    2.25000000
   13.51805496  195.61500549    4.90999985    2.21000004
   13.51805496  179.14999390    4.90999985    2.28999996
   13.51805496  353.21701050    4.90999985    2.15000010
   13.51833344  413.67098999    4.90999985    2.03999996
   13.52027798  204.07200623    4.90999985    2.21000004
   13.52333355  201.61000061    4.90999985    2.19000006
   13.52666664  227.66499329    4.90999985    2.11999989
   13.52999973  275.23300171    4.90999985    2.15000010
   13.53305531  173.73599243    4.90999985    2.07999992
   13.53861141  173.73599243    4.90999985    2.17000008
   13.54277802  230.56199646    4.90999985    2.17000008
   13.54583359  264.01501465    4.90999985    2.13000011
   13.54916668  280.50000000    4.90999985    2.01999998
   13.55166721  155.69400024    4.90999985    1.96000004
   13.55249977  171.91200256    4.90999985    1.91999996
   13.55583382  259.94799805    4.90999985    1.96000004
   13.55916691  252.61000061    4.90999985    1.98000002
   13.56222248  291.49301147    4.90999985    1.98000002
   13.56555557  284.56600952    4.90999985    2.01999998
   13.56861115  334.94400024    4.90999985    1.98000002
   13.57194424  280.38400269    4.90999985    2.00000000
   13.57527733  302.26000977    4.90999985    2.01999998
   13.58138847  302.26000977    4.90999985    2.17000008
   13.58555508  235.72500610    4.90999985    2.07999992
   13.58888817  266.40701294    4.90999985    2.07999992
   13.59194374  283.64498901    4.90999985    2.07999992
   13.59527779  262.25299072    4.90999985    2.09999990
   13.59861088  274.26199341    4.90999985    2.03999996
   13.60166740  251.82600403    4.90999985    2.01999998
   13.60500050  282.06298828    4.90999985    2.00000000
   13.60805607  275.04699707    4.90999985    2.00000000
   13.61138916  264.26901245    4.90999985    2.05999994
   13.61472225  258.51599121    4.90999985    2.07999992
   13.61777782  214.46099854    4.90999985    2.09999990
   13.61833382  265.57000732    4.90999985    2.11999989
   13.62416649  265.57000732    4.90999985    2.13000011
   13.62833309  161.33399963    4.90999985    2.15000010
   13.63166714  204.85000610    4.90999985    2.11999989
   13.63472176  171.90100098    4.90999985    2.13000011
   13.63805580  166.63800049    4.90999985    2.15000010
   13.64138889  182.79100037    4.90999985    2.15000010
   13.64444447  203.68800354    4.90999985    2.17000008
   13.64777756  163.66600037    4.90999985    2.17000008
   13.65083313  150.07000732    4.90999985    2.23000002
   13.65166664  154.79800415    4.90999985    2.25000000
   13.65472221  145.59700012    4.90999985    2.26999998
   13.65777779  169.56300354    4.90999985    2.25000000
   13.66111088  150.08299255    4.90999985    2.21000004
   13.66694450  150.08299255    4.90999985    2.23000002
   13.67111111  156.67100525    4.90999985    2.25000000
   13.67444515  152.95899963    4.90999985    2.23000002
   13.67777824  147.54899597    4.90999985    2.23000002
   13.68083382  127.86599731    4.90999985    2.25000000
   13.68416691  146.68299866    4.90999985    2.26999998
   13.68500042  123.79799652    4.90999985    2.26999998
   13.68777752  133.20799255    4.90999985    2.28999996
   13.69083309  129.75000000    4.90999985    2.28999996
   13.69416714  133.13600159    4.90999985    2.30999994
   13.69750023  126.40200043    4.90999985    2.30999994
   13.70055580  126.20200348    4.90999985    2.30999994
   13.72166634  126.20200348    4.90999985    2.23000002
   13.72583294  189.40499878    4.90999985    2.19000006
   13.72888851  243.64999390    4.90999985    2.13000011
   13.73222160  271.57299805    4.90999985    2.09999990
   13.73555565  264.00698853    4.90999985    2.05999994
   13.73861122  309.41299438    4.90999985    2.03999996
   13.74194431  296.29800415    4.90999985    2.05999994
   13.74499989  294.52899170    4.90999985    2.05999994
   13.74833393  315.08599854    4.90999985    2.03999996
   13.75166702  249.11599731    4.90999985    2.07999992
   13.75249958  331.92599487    4.90999985    2.09999990
   13.75500011  251.80000305    4.90999985    2.03999996
   13.75833321  295.46200562    4.90999985    2.07999992
   13.76444435  295.46200562    4.90999985    2.07999992
   13.76861095  249.76199341    4.90999985    2.09999990
   13.77166653  244.13200378    4.90999985    2.09999990
   13.77499962  245.49600220    4.90999985    2.07999992
   13.77805519  199.02699280    4.90999985    2.13000011
   13.78138828  230.46400452    4.90999985    2.15000010
   13.78472233  214.38099670    4.90999985    2.17000008
   13.78583336  197.56500244    4.90999985    2.15000010
   13.78805637  193.73100281    4.90999985    2.15000010
   13.79138947  189.66299438    4.90999985    2.17000008
   13.79472256  199.12300110    4.90999985    2.17000008
   13.79777813  183.78700256    4.90999985    2.17000008
   13.80111122  199.88099670    4.90999985    2.17000008
   13.80722237  199.88099670    4.90999985    2.19000006
   13.81138897  153.92199707    4.90999985    2.28999996
   13.81444454  166.39199829    4.90999985    2.28999996
   13.81777763  152.75700378    4.90999985    2.25000000
   13.81916618  156.10600281    4.90999985    2.25000000
   13.82138920  155.05000305    4.90999985    2.25000000
   13.82472229  187.97399902    4.90999985    2.19000006
   13.82777786  192.41200256    4.90999985    2.17000008
   13.83111095  197.17500305    4.90999985    2.15000010
   13.83444405  189.94299316    4.90999985    2.15000010
   13.83749962  242.35499573    4.90999985    2.15000010
   13.84083271  296.89700317    4.90999985    2.09999990
   13.84388828  320.69900513    4.90999985    2.03999996
   13.85000038  320.69900513    4.90999985    2.11999989
   13.85416698  190.08500671    4.90999985    2.11999989
   13.85750008  212.22700500    4.90999985    2.19000006
   13.86055565  168.52699280    4.90999985    2.17000008
   13.86388969  166.24600220    4.90999985    2.17000008
   13.86722279  141.19299316    4.90999985    2.26999998
   13.87027836  130.02000427    4.90999985    2.34999990
   13.87361145  144.31700134    4.90999985    2.32999992
   13.87666702  137.12399292    4.90999985    2.28999996
   13.88000011  158.57000732    4.90999985    2.19000006
   13.88333321  164.11300659    4.90999985    2.25000000
   13.88583279  149.63900757    4.90999985    2.23000002
   13.88694477  152.20300293    4.90999985    2.25000000
   13.89277744  152.20300293    4.90999985    2.15000010
   13.89694405  137.79699707    4.90999985    2.26999998
   13.90027714  151.53700256    4.90999985    2.25000000
   13.90361118  137.11300659    4.90999985    2.23000002
   13.90666676  139.42599487    4.90999985    2.28999996
   13.90999985  134.60499573    4.90999985    2.34999990
   13.91305542  143.48199463    4.90999985    2.36999989
   13.91638851  135.12300110    4.90999985    2.30999994
   13.91916656  131.16799927    4.90999985    2.28999996
   13.92000008  144.91600037    4.90999985    2.28999996
   13.92333412  152.44299316    4.90999985    2.30999994
   13.92638874  141.20199585    4.90999985    2.26999998
   13.92972279  171.72099304    4.90999985    2.26999998
   13.93583298  171.72099304    4.90999985    2.25000000
   13.94000053  151.20599365    4.90999985    2.23000002
   13.94305515  152.23399353    4.90999985    2.28999996
   13.94638920  163.49800110    4.90999985    2.30999994
   13.94944477  150.51600647    4.90999985    2.28999996
   13.95249939  170.97500610    4.90999985    2.26999998
   13.95333290  144.49000549    4.90999985    2.26999998
   13.95666695  148.92500305    4.90999985    2.28999996
   13.95972157  169.54899597    4.90999985    2.26999998
   13.96305561  143.97000122    4.90999985    2.26999998
   13.96638870  143.37500000    4.90999985    2.28999996
   13.96944427  146.21499634    4.90999985    2.25000000
   13.97277737  163.58399963    4.90999985    2.26999998
   13.97861099  163.58399963    4.90999985    2.25000000
   13.98277760  296.39001465    4.90999985    2.17000008
   13.98583317  225.44099426    4.90999985    2.00000000
   13.98638916  254.79100037    4.90999985    2.00000000
   13.98972225  340.40301514    4.90999985    2.09999990
   13.99277782  266.75698853    4.90999985    2.01999998
   13.99611092  196.25000000    4.90999985    2.09999990
   13.99944496  198.58999634    4.90999985    2.17000008
   14.00249958  147.10899353    4.90999985    2.15000010
   14.00583363  144.16299438    4.90999985    2.28999996
   14.00888920  330.82299805    4.90999985    2.30999994
   14.01222229  319.83801270    4.90999985    2.00000000
   14.01555538  256.08099365    4.90999985    2.07999992
   14.02138901  256.08099365    4.90999985    1.96000004
   14.02555561  128.26400757    4.90999985    1.89999998
   14.02888870   77.31600189    4.90999985    1.85000002
   14.03194427  314.35998535    4.90999985    1.83000004
   14.03527832  214.81100464    4.90999985    2.00000000
   14.03861141  178.02900696    4.90999985    2.09999990
   14.04166698  250.72200012    4.90999985    2.17000008
   14.04500008  167.31399536    4.90999985    2.11999989
   14.04833412  167.34800720    4.90999985    2.30999994
   14.05138874  195.98500061    4.90999985    2.30999994
   14.05277824  206.00900269    4.90999985    2.28999996
   14.05500031  220.44400024    4.90999985    2.17000008
   14.05833340  184.00999451    4.90999985    2.21000004
   14.06416702  184.00999451    4.90999985    2.25000000
   14.06833363  152.57200623    4.90999985    2.28999996
   14.07166672  141.64599609    4.90999985    2.32999992
   14.07499981  164.49400330    4.90999985    2.26999998
   14.07805538  128.64900208    4.90999985    2.28999996
   14.08138847  137.13499451    4.90999985    2.34999990
   14.08444405  138.39900208    4.90999985    2.30999994
   14.08611107  137.08799744    4.90999985    2.32999992
   14.08805561  144.22399902    4.90999985    2.34999990
   14.09138870  140.24899292    4.90999985    2.30999994
   14.09444427  159.51100159    4.90999985    2.30999994
   14.09777737  187.27400208    4.90999985    2.25000000
   14.10111141  152.86799622    4.90999985    2.25000000
   14.10722256  152.86799622    4.90999985    2.32999992
   14.11138916  174.40499878    4.90999985    2.32999992
   14.11444473  164.91900635    4.90999985    2.28999996
   14.11777782  223.42500305    4.90999985    2.23000002
   14.11944485  175.43499756    4.90999985    2.17000008
   14.12138939  190.18499756    4.90999985    2.23000002
   14.12472248  239.26699829    4.90999985    2.21000004
   14.12777805  213.37600708    4.90999985    2.11999989
   14.13111115  215.33900452    4.90999985    2.09999990
   14.13444424  279.16699219    4.90999985    2.09999990
   14.13749981  144.54400635    4.90999985    2.11999989
   14.14083290  110.00499725    4.90999985    1.94000006
   14.14416695  204.11900330    4.90999985    1.96000004
   14.14999962  204.11900330    4.90999985    2.01999998
   14.15416622  224.69700623    4.90999985    2.01999998
   14.15722179  241.47500610    4.90999985    2.21000004
   14.16055489  305.46398926    4.90999985    2.11999989
   14.16388893  269.45401001    4.90999985    2.05999994
   14.16694450  218.83399963    4.90999985    2.03999996
   14.17027855  224.94700623    4.90999985    2.13000011
   14.17361164  144.56399536    4.90999985    2.11999989
   14.17666721  180.52200317    4.90999985    2.39000010
   14.18000031  176.52900696    4.90999985    2.23000002
   14.18305588  177.67199707    4.90999985    2.25000000
   14.18611145  142.11799622    4.90999985    2.23000002
   14.18666649  134.55799866    4.90999985    2.30999994
   14.19277763  134.55799866    4.90999985    2.48000002
   14.19694424  133.23300171    4.90999985    2.44000006
   14.20027733  131.29499817    4.90999985    2.40000010
   14.20333290  146.76199341    4.90999985    2.40000010
   14.20666695  133.51100159    4.90999985    2.40000010
   14.21000004  151.79899597    4.90999985    2.44000006
   14.21305561  133.52999878    4.90999985    2.39000010
   14.21638870  151.26899719    4.90999985    2.36999989
   14.21944427  126.87799835    4.90999985    2.32999992
   14.21999931  164.77699280    4.90999985    2.32999992
   14.22333336  161.71000671    4.90999985    2.30999994
   14.22638798  143.10800171    4.90999985    2.28999996
   14.22972202  157.39700317    4.90999985    2.26999998
   14.23555565  157.39700317    4.90999985    2.34999990
   14.23972225  173.76899719    4.90999985    2.28999996
   14.24305534  162.07299805    4.90999985    2.28999996
   14.24638939  150.53399658    4.90999985    2.28999996
   14.24944496  159.29699707    4.90999985    2.28999996
   14.25277805  144.89799500    4.90999985    2.28999996
   14.25333309  162.05599976    4.90999985    2.32999992
   14.25638866  149.50399780    4.90999985    2.30999994
   14.25972176  138.87100220    4.90999985    2.36999989
   14.26305580  140.05400085    4.90999985    2.44000006
   14.26611137  140.32499695    4.90999985    2.42000008
   14.26944447  133.33299255    4.90999985    2.44000006
   14.27250004  128.35299683    4.90999985    2.42000008
   14.27861118  128.35299683    4.90999985    2.46000004
   14.28277779  127.88999939    4.90999985    2.44000006
   14.28583336  136.78300476    4.90999985    2.46000004
   14.28666687  131.87600708    4.90999985    2.44000006
   14.28944492  131.57600403    4.90999985    2.40000010
   14.29277802  144.85299683    4.90999985    2.34999990
   14.29611111  144.72599792    4.90999985    2.39000010
   14.29916668  141.85800171    4.90999985    2.36999989
   14.30249977  158.27000427    4.90999985    2.36999989
   14.30555534  150.49499512    4.90999985    2.40000010
   14.30888939  162.99899292    4.90999985    2.36999989
   14.31222248  155.38299561    4.90999985    2.32999992
   14.31527805  155.73399353    4.90999985    2.28999996
   14.32138920  155.73399353    4.90999985    2.36999989
   14.32555580  140.22700500    4.90999985    2.40000010
   14.32861137  161.11399841    4.90999985    2.44000006
   14.33194447  137.70700073    4.90999985    2.21000004
   14.33527756  166.57200623    4.90999985    2.30999994
   14.33833313  141.31599426    4.90999985    2.32999992
   14.34166622  196.31900024    4.90999985    2.21000004
   14.34499931  146.00900269    4.90999985    2.26999998
   14.34805489  146.95300293    4.90999985    2.30999994
   14.35138893  212.65400696    4.90999985    2.19000006
   14.35333347  308.56201172    4.90999985    2.15000010
   14.35472298  276.22000122    4.90999985    2.09999990
   14.35805607  297.75000000    4.90999985    1.96000004
   14.36416721  297.75000000    4.90999985    2.09999990
   14.36833382  322.05801392    4.90999985    2.13000011
   14.37166691  209.88000488    4.90999985    2.11999989
   14.37500000  224.88600159    4.90999985    2.21000004
   14.37805557  300.80200195    4.90999985    2.13000011
   14.38138866  274.89001465    4.90999985    2.09999990
   14.38472176  336.85198975    4.90999985    2.09999990
   14.38666630  255.57200623    4.90999985    2.03999996
   14.38805580  312.65200806    4.90999985    2.09999990
   14.39138889  379.63699341    4.90999985    2.11999989
   14.39472198  345.70901489    4.90999985    2.05999994
   14.39777756  239.76499939    4.90999985    1.96000004
   14.40111065  285.58999634    4.90999985    2.07999992
   14.40694427  285.58999634    4.90999985    2.07999992
   14.41111088  294.22000122    4.90999985    2.13000011
   14.41444397  258.75799561    4.90999985    2.15000010
   14.41777802  167.96099854    4.90999985    2.23000002
   14.42000008  199.39799500    4.90999985    2.30999994
   14.42111111  244.71099854    4.90999985    2.28999996
   14.42444515  253.35499573    4.90999985    2.19000006
   14.42777824  211.81100464    4.90999985    2.19000006
   14.43083382  166.97999573    4.90999985    2.26999998
   14.43416691  355.04699707    4.90999985    2.03999996
   14.43722248  189.53399658    4.90999985    2.05999994
   14.44055557  185.03999329    4.90999985    2.15000010
   14.44388866  198.97599792    4.90999985    2.26999998
   14.44999981  198.97599792    4.90999985    2.28999996
   14.45416641  183.41700745    4.90999985    2.26999998
   14.45722198  190.45799255    4.90999985    2.25000000
   14.46055508  231.98699951    4.90999985    2.19000006
   14.46388912  317.58300781    4.90999985    2.13000011
   14.46694374  265.94400024    4.90999985    2.11999989
   14.47027779  285.73001099    4.90999985    2.17000008
   14.47333336  342.71499634    4.90999985    2.11999989
   14.47666645  398.79000854    4.90999985    2.07999992
   14.47999954  208.25399780    4.90999985    2.03999996
   14.48305511   87.22740173    4.90999985    2.00000000
   14.48638916  105.59799957    4.90999985    1.89999998
   14.48694515   83.29389954    4.90999985    1.88000000
   14.49277782   83.29389954    4.90999985    1.91999996
   14.49694443   96.27330017    4.90999985    1.94000006
   14.50027752   67.27459717    4.90999985    1.91999996
   14.50333309   23.57019997    4.90999985    1.86000001
   14.50666714   39.34949875    4.90999985    1.83000004
   14.50972176   -1.00000000   -1.00000000   -1.00000000
   14.51305580   -1.00000000    4.90999985    1.86000001
   14.51638889   -1.00000000    4.90999985    1.85000002
   14.51944447   -1.00000000   -1.00000000   -1.00000000
   14.52027798   51.29050064    4.90999985    1.83000004
   14.52305508   88.74800110    4.90999985    1.86000001
   14.52638817  156.87399292    4.90999985    1.94000006
   14.52972221  138.25199890    4.90999985    2.00000000
   14.53555584  138.25199890    4.90999985    1.91999996
   14.53972244  379.50500488    4.90999985    2.00000000
   14.54305553  162.88200378    4.90999985    2.00000000
   14.54611111  364.79299927    4.90999985    2.00000000
   14.54944515  329.95001221    4.90999985    2.03999996
   14.55277824  338.28399658    4.90999985    2.17000008
   14.55361176  397.99200439    4.90999985    2.17000008
   14.55611134  205.55299377    4.90999985    2.01999998
   14.55944443  328.33300781    4.90999985    1.96000004
   14.56277752  397.16198730    4.90999985    2.01999998
   14.56583309  371.77200317    4.90999985    2.07999992
   14.56916618  375.66900635    4.90999985    2.05999994
   14.57250023  372.96798706    4.90999985    2.03999996
   14.57833290  372.96798706    4.90999985    2.07999992
   14.58249950  386.72601318    4.90999985    2.07999992
   14.58583260  390.16101074    4.90999985    2.03999996
   14.58694458  375.12899780    4.90999985    2.01999998
   14.58916664  345.36199951    4.90999985    2.05999994
   14.59249973  178.51100159    4.90999985    1.98000002
   14.59583282  390.93301392    4.90999985    1.98000002
   14.59888840  297.61401367    4.90999985    2.05999994
   14.60222244  251.27200317    4.90999985    2.13000011
   14.60555553  266.25399780    4.90999985    2.17000008
   14.60861111  274.50601196    4.90999985    2.17000008
   14.61194515  239.18699646    4.90999985    2.19000006
   14.61500072  278.82299805    4.90999985    2.19000006
   14.62138939  278.82299805    4.90999985    2.07999992
   14.62555599  157.99000549    4.90999985    2.01999998
   14.62861156  124.36900330    4.90999985    1.98000002
   14.63194466  183.00900269    4.90999985    1.96000004
   14.63500023  135.00000000    4.90999985    2.00000000
   14.63833332   99.01519775    4.90999985    1.96000004
   14.64166641  105.56700134    4.90999985    1.94000006
   14.64472198   75.28299713    4.90999985    1.91999996
   14.64805508  103.10099792    4.90999985    1.88000000
   14.65138817   86.00939941    4.90999985    1.89999998
   14.65361118   87.54969788    4.90999985    1.88000000
   14.65472221   78.29399872    4.90999985    1.86000001
   14.65805531   99.39160156    4.90999985    1.88000000
   14.66444397   99.39160156    4.90999985    1.86000001
   14.66888905   51.40999985    4.90999985    1.85000002
   14.67222214  107.02799988    4.90999985    1.88000000
   14.67527771   83.35320282    4.90999985    1.91999996
   14.67861176   69.63719940    4.90999985    1.89999998
   14.68194485   80.01989746    4.90999985    1.88000000
   14.68500042   66.82160187    4.90999985    1.89999998
   14.68694496  103.40000153    4.90999985    1.89999998
   14.68861103  103.61799622    4.90999985    1.89999998
   14.69194412  140.41000366    4.90999985    1.96000004
   14.69527817  221.84399414    4.90999985    2.01999998
   14.69833374  327.91799927    4.90999985    1.98000002
   14.70166683  347.79299927    4.90999985    2.05999994
   14.70694447  347.79299927    4.90999985    2.00000000
   14.71111107  123.71399689    4.90999985    2.00000000
   14.71444416  148.04899597    4.90999985    1.94000006
   14.71749973  371.11499023    4.90999985    2.00000000
   14.73527813  495.26800537    4.90999985    2.07999992
   14.73722267  495.86898804    4.90999985    2.07999992
   14.73944473  479.01000977    4.90999985    2.09999990
   14.74055576  382.17001343    4.90999985    2.11999989
   14.74194431  235.02400208    4.90999985    2.07999992
   14.74194431  140.41000366    4.90999985    1.96000004
   14.74222279  221.84399414    4.90999985    2.01999998
   14.74222279  327.91799927    4.90999985    1.98000002
   14.74222279  347.79299927    4.90999985    2.05999994
   14.74222279  123.71399689    4.90999985    2.00000000
   14.74222279  148.04899597    4.90999985    1.94000006
   14.74250031  371.11499023    4.90999985    2.00000000
   14.74250031  495.86898804    4.90999985    2.07999992
   14.74250031  103.61799622    4.90999985    1.89999998
   14.74305534  170.00000000    4.90999985    2.05999994
   14.74638939  185.01899719    4.90999985    2.00000000
   14.74944496  166.39900208    4.90999985    2.01999998
   14.75277805  136.21499634    4.90999985    2.00000000
   14.75611115  119.67299652    4.90999985    1.96000004
   14.76277733  119.67299652    4.90999985    1.91999996
   14.76694393   77.61180115    4.90999985    1.94000006
   14.77027798  106.79000092    4.90999985    1.86000001
   14.77333355  105.19699860    4.90999985    1.96000004
   14.77583313  122.28199768    4.90999985    1.94000006
   14.77694416   97.73789978    4.90999985    1.96000004
   14.77999973   84.92970276    4.90999985    1.94000006
   14.78333378   79.73789978    4.90999985    1.91999996
   14.78666687   96.10019684    4.90999985    1.89999998
   14.78972244  105.61299896    4.90999985    1.91999996
   14.79305553  136.28700256    4.90999985    1.94000006
   14.79611111  490.36300659    4.90999985    2.00000000
   14.79833412  435.69500732    4.90999985    2.09999990
   14.79944515  323.33300781    4.90999985    2.09999990
   14.79944515   84.92970276    4.90999985    1.94000006
   14.79972267   79.73789978    4.90999985    1.91999996
   14.79972267   96.10019684    4.90999985    1.89999998
   14.79972267  105.61299896    4.90999985    1.91999996
   14.79972267  136.28700256    4.90999985    1.94000006
   14.79972267  490.36300659    4.90999985    2.00000000
   14.80000019  106.79000092    4.90999985    1.86000001
   14.80000019  105.19699860    4.90999985    1.96000004
   14.80000019   97.73789978    4.90999985    1.96000004
   14.80111122  382.55099487    4.90999985    2.05999994
   14.80444431  137.61700439    4.90999985    2.01999998
   14.80749989  269.05499268    4.90999985    2.01999998
   14.81083393  259.06799316    4.90999985    2.01999998
   14.81416702  197.81300354    4.90999985    2.01999998
   14.82027817  197.81300354    4.90999985    1.98000002
   14.82444477  146.14100647    4.90999985    2.03999996
   14.82777786   93.72779846    4.90999985    1.96000004
   14.83083344  154.14999390    4.90999985    1.91999996
   14.83333302  163.52400208    4.90999985    1.98000002
   14.83444405  129.65600586    4.90999985    2.01999998
   14.83749962   93.83910370    4.90999985    1.98000002
   14.84083271  202.55299377    4.90999985    1.94000006
   14.84416676  113.01599884    4.90999985    2.01999998
   14.84722233   96.00199890    4.90999985    1.96000004
   14.85055637  231.39799500    4.90999985    1.96000004
   14.85361195  342.53500366    4.90999985    2.03999996
   14.85694504  433.51300049    4.90999985    2.05999994
   14.85888958  441.16299438    4.90999985    2.07999992
   14.86027813  424.60000610    4.90999985    2.07999992
   14.86166668  456.44100952    4.90999985    2.07999992
   14.86305618  441.63000488    4.90999985    2.07999992
   14.86444473  385.00601196    4.90999985    2.07999992
   14.86583328  464.17898560    4.90999985    2.05999994
   14.86722279  366.50299072    4.90999985    2.05999994
   14.86861134  388.29199219    4.90999985    2.13000011
   14.86999989  411.85598755    4.90999985    2.17000008
   14.87138939  426.50299072    4.90999985    2.13000011
   14.87277794  391.07998657    4.90999985    2.11999989
   14.87416649  244.38600159    4.90999985    2.07999992
   14.87416649   93.83910370    4.90999985    1.98000002
   14.87416649  202.55299377    4.90999985    1.94000006
   14.87444496  113.01599884    4.90999985    2.01999998
   14.87444496   96.00199890    4.90999985    1.96000004
   14.87444496  231.39799500    4.90999985    1.96000004
   14.87444496  342.53500366    4.90999985    2.03999996
   14.87444496  433.51300049    4.90999985    2.05999994
   14.87472248  154.14999390    4.90999985    1.91999996
   14.87472248  129.65600586    4.90999985    2.01999998
   14.87527752  172.75199890    4.90999985    2.05999994
   14.87833309  149.19999695    4.90999985    2.00000000
   14.88166714  130.67399597    4.90999985    2.01999998
   14.88500023  102.35600281    4.90999985    2.00000000
   14.88805580   81.40660095    4.90999985    1.96000004
   14.89499950   81.40660095    4.90999985    1.96000004
   14.89916611   79.10820007    4.90999985    1.96000004
   14.90222168   70.00610352    4.90999985    1.94000006
   14.90555477   92.38629913    4.90999985    1.94000006
   14.90805531  104.09700012    4.90999985    1.98000002
   14.90888882  102.04799652    4.90999985    1.98000002
   14.91222191   78.99600220    4.90999985    2.00000000
   14.91555500   85.54070282    4.90999985    2.00000000
   14.91861153   75.13849640    4.90999985    1.94000006
   14.92194462   76.81410217    4.90999985    1.88000000
   14.92500019   73.17859650    4.90999985    1.88000000
   14.92833328   74.92549896    4.90999985    1.91999996
   14.93166733  105.60900116    4.90999985    1.94000006
   14.93777752  105.60900116    4.90999985    1.91999996
   14.94194412   59.90739822    4.90999985    1.89999998
   14.94527817   84.36419678    4.90999985    1.89999998
   14.94833374   86.90760040    4.90999985    1.94000006
   14.95166683   84.19139862    4.90999985    1.91999996
   14.95472240  129.06399536    4.90999985    1.96000004
   14.95805550   89.74970245    4.90999985    1.98000002
   14.96138859   65.53569794    4.90999985    1.96000004
   14.96444416   -1.00000000    4.90999985    1.85000002
   14.96777725   -1.00000000    4.90999985    1.75000000
   14.97111034   74.71810150    4.90999985    1.75000000
   14.97416592  112.53600311    4.90999985    1.88000000
   14.97472191   75.51039886    4.90999985    1.88000000
   14.98055553   75.51039886    4.90999985    1.88000000
   14.98472214   94.41300201    4.90999985    1.94000006
   14.98805618   74.12249756    4.90999985    1.98000002
   14.99111176   85.14530182    4.90999985    1.89999998
   14.99444485  108.73600006    4.90999985    1.88000000
   14.99777794  117.87999725    4.90999985    1.98000002
   15.00083351  116.09999847    4.90999985    1.98000002
   15.00416660  139.31199646    4.90999985    2.03999996
   15.00749969   67.97899628    4.90999985    2.00000000
   15.00805569  108.38200378    4.90999985    2.00000000
   15.01111126   97.79419708    4.90999985    1.86000001
   15.01416683   81.07440186    4.90999985    1.89999998
   15.01749992   91.80599976    4.90999985    1.94000006
   15.02361107   91.80599976    4.90999985    1.94000006
   15.02750015   -1.00000000    4.90999985    1.85000002
   15.03083324   -1.00000000    4.90999985    1.75000000
   15.03416729   81.13980103    4.90999985    1.75000000
   15.03750038   71.14459991    4.90999985    1.89999998
   15.04055595   -1.00000000    4.90999985    1.91999996
   15.04388905   87.07469940    4.90999985    1.83000004
   15.04722309  157.76699829    4.90999985    1.96000004
   15.05055618  216.78399658    4.90999985    2.03999996
   15.05361176  169.85000610    4.90999985    2.03999996
   15.05694485  102.18000031    4.90999985    2.01999998
   15.06000042   95.61440277    4.90999985    1.96000004
   15.06638908   95.61440277    4.90999985    1.94000006
   15.07055569   72.63359833    4.90999985    1.89999998
   15.07361126   82.99109650    4.90999985    1.91999996
   15.07472229   88.79149628    4.90999985    1.91999996
   15.07750034   55.48949814    4.90999985    1.89999998
   15.08055592  118.46700287    4.90999985    1.86000001
   15.08388901   63.87440109    4.90999985    1.91999996
   15.08694458   86.67160034    4.90999985    1.86000001
   15.09027767   79.37729645    4.90999985    1.86000001
   15.09361076   -1.00000000   -1.00000000   -1.00000000
   15.09666634   83.16290283    4.90999985    1.80999994
   15.10000038   -1.00000000    4.90999985    1.80999994
   15.10333347   69.49479675    4.90999985    1.73000002
   15.10916710   69.49479675    4.90999985    1.94000006
   15.11333370  112.49400330    4.90999985    1.98000002
   15.11638927  298.53201294    4.90999985    1.98000002
   15.11972237  338.18899536    4.90999985    2.03999996
   15.12305546  350.41000366    4.90999985    2.09999990
   15.12611103  336.48400879    4.90999985    2.15000010
   15.12944412  333.80200195    4.90999985    2.13000011
   15.13277817  288.68099976    4.90999985    2.17000008
   15.13583279  375.72399902    4.90999985    2.13000011
   15.13916683  306.25100708    4.90999985    2.15000010
   15.14138889  279.36300659    4.90999985    2.19000006
   15.14277744  364.29800415    4.90999985    2.21000004
   15.14583302  293.33200073    4.90999985    2.13000011
   15.25388908   -1.00000000   -1.00000000   -1.00000000
   15.38777733   -1.00000000   -1.00000000   -1.00000000
   15.49972248   -1.00000000   -1.00000000   -1.00000000
   15.55444431  285.54699707    4.90999985    2.01999998
   15.55916691   -1.00000000    4.90999985    1.78999996
   15.56333351   -1.00000000    4.90999985    1.75000000
   15.56666660   -1.00000000    4.90999985    1.76999998
   15.56972218   -1.00000000    4.90999985    1.75000000
   15.57444477   -1.00000000    4.90999985    1.94000006
   15.57861137   -1.00000000    4.90999985    1.80999994
   15.58194447   -1.00000000    4.90999985    1.78999996
   15.58666611  103.35900116    4.90999985    1.83000004
   15.58777714   98.57710266    4.90999985    1.86000001
   15.59027767   -1.00000000    4.90999985    1.89999998
   15.59361076  264.97100830    4.90999985    1.91999996
   15.59694386   47.69869995    4.90999985    2.07999992
   15.60000038   -1.00000000    4.90999985    1.76999998
   15.60333347   -1.00000000    4.90999985    1.69000006
   15.60638905   -1.00000000    4.90999985    1.71000004
   15.60972214   67.83570099    4.90999985    1.78999996
   15.61305618  375.98300171    4.90999985    1.96000004
   15.61750031  375.98300171    4.90999985    1.98000002
   15.62166691  331.87500000    4.90999985    2.01999998
   15.62472248  193.48199463    4.90999985    2.09999990
   15.62805557  222.66299438    4.90999985    2.13000011
   15.63111115  178.54499817    4.90999985    2.32999992
   15.63444424  282.23599243    4.90999985    2.28999996
   15.63777733  179.93800354    4.90999985    2.15000010
   15.64083290  319.75100708    4.90999985    2.11999989
   15.64416695  236.71699524    4.90999985    2.11999989
   15.64722252  241.09199524    4.90999985    2.13000011
   15.65055561  218.66200256    4.90999985    2.11999989
   15.65388870  282.04299927    4.90999985    2.05999994
   15.65444374  249.07299805    4.90999985    2.01999998
   15.66027737  249.07299805    4.90999985    2.09999990
   15.66444397  281.82199097    4.90999985    2.19000006
   15.66750050  232.69000244    4.90999985    2.13000011
   15.67083359  199.04299927    4.90999985    2.23000002
   15.67444515  267.77301025    4.90999985    2.25000000
   15.67777824  353.98901367    4.90999985    2.01999998
   15.68111134  166.48500061    4.90999985    1.98000002
   15.68416691  327.38800049    4.90999985    2.00000000
   15.68750000  277.50900269    4.90999985    2.09999990
   15.68805599  246.58599854    4.90999985    2.09999990
   15.69111156  220.84599304    4.90999985    2.17000008
   15.69444466  277.28698730    4.90999985    2.21000004
   15.69750023  240.79899597    4.90999985    2.15000010
   15.70305538  240.79899597    4.90999985    2.13000011
   15.70722198  383.28100586    4.90999985    2.09999990
   15.71055508  332.55499268    4.90999985    2.09999990
   15.71361065  314.52600098    4.90999985    2.09999990
   15.71694374  236.52000427    4.90999985    2.15000010
   15.71999931  167.27200317    4.90999985    2.25000000
   15.72138882  185.77299500    4.90999985    2.28999996
   15.72361088  181.41299438    4.90999985    2.26999998
   15.72694397  156.69000244    4.90999985    2.26999998
   15.72999954  140.14999390    4.90999985    2.34999990
   15.73333359  162.52999878    4.90999985    2.39000010
   15.73666668  155.63400269    4.90999985    2.32999992
   15.73972225  161.01100159    4.90999985    2.30999994
   15.74583340  161.01100159    4.90999985    2.26999998
   15.75000000  159.19099426    4.90999985    2.25000000
   15.75333309  158.65299988    4.90999985    2.30999994
   15.75500011  168.72200012    4.90999985    2.26999998
   15.75722218  154.08599854    4.90999985    2.28999996
   15.76055527  143.46800232    4.90999985    2.34999990
   15.76388931  140.89500427    4.90999985    2.39000010
   15.76694393  141.77200317    4.90999985    2.39000010
   15.77027798  148.67399597    4.90999985    2.40000010
   15.77333355  196.04100037    4.90999985    2.32999992
   15.77666664  194.85499573    4.90999985    2.17000008
   15.77972221  192.73399353    4.90999985    2.23000002
   15.78305531  183.64199829    4.90999985    2.19000006
   15.78888893  183.64199829    4.90999985    2.26999998
   15.79277802  182.94200134    4.90999985    2.25000000
   15.79611111  208.57699585    4.90999985    2.23000002
   15.79944515  222.06399536    4.90999985    2.19000006
   15.80249977  363.14300537    4.90999985    2.11999989
   15.80583382  153.44999695    4.90999985    2.09999990
   15.80888939  176.83599854    4.90999985    2.30999994
   15.81222248  220.68499756    4.90999985    2.19000006
   15.81527805  206.38299561    4.90999985    2.19000006
   15.81861115  224.85600281    4.90999985    2.23000002
   15.82166672  195.83900452    4.90999985    2.19000006
   15.82194424  192.45399475    4.90999985    2.19000006
   15.82527733  202.17300415    4.90999985    2.23000002
   15.83166695  202.17300415    4.90999985    2.17000008
   15.83583260  192.32800293    4.90999985    2.25000000
   15.83888817  203.34599304    4.90999985    2.23000002
   15.84222221  166.39399719    4.90999985    2.25000000
   15.84527779  150.51600647    4.90999985    2.30999994
   15.84861088  157.25000000    4.90999985    2.28999996
   15.85194492  160.00599670    4.90999985    2.34999990
   15.85500050  157.11599731    4.90999985    2.32999992
   15.85527802  149.02200317    4.90999985    2.30999994
   15.85861111  151.16700745    4.90999985    2.30999994
   15.86194515  146.39199829    4.90999985    2.39000010
   15.86500072  148.70700073    4.90999985    2.39000010
   15.86833382  128.23300171    4.90999985    2.36999989
   15.87444496  128.23300171    4.90999985    2.44000006
   15.87861156  138.28999329    4.90999985    2.39000010
   15.88194466  123.78500366    4.90999985    2.42000008
   15.88500023  198.96400452    4.90999985    2.34999990
   15.88833332  177.52699280    4.90999985    2.09999990
   15.88861084  160.48599243    4.90999985    2.09999990
   15.89194393  162.02699280    4.90999985    2.30999994
   15.89527798  195.58099365    4.90999985    2.21000004
   15.89833355  335.83099365    4.90999985    2.21000004
   15.90166664  299.67498779    4.90999985    2.01999998
   15.90472221  272.27398682    4.90999985    2.09999990
   15.90805531   74.29049683    4.90999985    2.01999998
   15.91111088   72.00099945    4.90999985    1.89999998
   15.91722298   72.00099945    4.90999985    1.85000002
   15.92138958   95.34200287    4.90999985    1.98000002
   15.92194462   99.41979980    4.90999985    1.96000004
   15.92527771   90.32649994    4.90999985    1.89999998
   15.92833328   96.21649933    4.90999985    2.00000000
   15.93166733   44.38280106    4.90999985    1.89999998
   15.93472195   -1.00000000    4.90999985    1.85000002
   15.93805599  103.55200195    4.90999985    1.83000004
   15.94111156  139.15199280    4.90999985    2.00000000
   15.94444466  271.24499512    4.90999985    1.96000004
   15.94777775  238.34199524    4.90999985    2.00000000
   15.95083332  170.36599731    4.90999985    2.19000006
   15.95416641  147.41700745    4.90999985    2.26999998
   15.95527744  178.71000671    4.90999985    2.28999996
   15.96027756  178.71000671    4.90999985    2.21000004
   15.96444416  287.28298950    4.90999985    2.13000011
   15.96749973  297.77801514    4.90999985    1.98000002
   15.97083282  256.47900391    4.90999985    2.05999994
   15.97388840  211.27499390    4.90999985    2.05999994
   15.97722149  192.83900452    4.90999985    1.98000002
   15.98027706  187.79400635    4.90999985    2.26999998
   15.98361111  187.93200684    4.90999985    2.23000002
   15.98694515  237.67999268    4.90999985    2.25000000
   15.98861122   49.97370148    4.90999985    2.21000004
   15.99055576   99.75869751    4.90999985    1.98000002
   15.99361134  102.87799835    4.90999985    1.83000004
   15.99694443   -1.00000000    4.90999985    1.73000002
   16.00305557   -1.00000000    4.90999985    2.17000008
   16.00722313  105.89800262    4.90999985    2.00000000
   16.01027870   -1.00000000    4.90999985    1.71000004
   16.01361084   -1.00000000    4.90999985    1.13000000
   16.01666641   -1.00000000    4.90999985    1.16999996
   16.02000046   -1.00000000    4.90999985    1.00000000
   16.02333260   -1.00000000    4.90999985    0.67000002
   16.02666664   -1.00000000    4.90999985    0.31999999
   16.03000069   -1.00000000    4.90999985    0.38000000
   16.03305435   -1.00000000    4.90999985    0.23000000
   16.03638840   -1.00000000    4.90999985    0.15000001
   16.03944397   -1.00000000    4.90999985    0.15000001
   16.04999924   -1.00000000    4.90999985    0.31999999
   16.05305481   -1.00000000    4.90999985    0.46000001
   16.05666542   -1.00000000    4.90999985    0.38000000
   16.05999947   -1.00000000    4.90999985    0.38000000
   16.06333351  157.01199341    4.90999985    0.79000002
   16.06638718  165.74200439    4.90999985    2.39000010
   16.06972313  236.78900146    4.90999985    2.11999989
   16.07277870  207.55700684    4.90999985    2.17000008
   16.07611275  318.03799438    4.90999985    1.98000002
   16.07916832  280.19198608    4.90999985    1.98000002
   16.08250046  237.07099915    4.90999985    2.03999996
   16.08861160  237.07099915    4.90999985    2.30999994
   16.09277916   92.66400146    4.90999985    2.30999994
   16.09611130  233.16700745    4.90999985    1.80999994
   16.09916687  270.83200073    4.90999985    2.05999994
   16.10250092  112.87100220    4.90999985    2.09999990
   16.10555649  114.25599670    4.90999985    2.57999992
   16.10888863  112.47699738    4.90999985    2.66000009
   16.11222267  116.63500214    4.90999985    2.61999989
   16.11527824  110.64399719    4.90999985    2.55999994
   16.11861038  104.65699768    4.90999985    2.66000009
   16.12166595  104.38099670    4.90999985    2.67000008
   16.12222290  106.53700256    4.90999985    2.67000008
   16.12555504  108.89299774    4.90999985    2.69000006
   16.13166618  108.89299774    4.90999985    2.73000002
   16.13583374   99.50000000    4.90999985    2.76999998
   16.13888931  102.38600159    4.90999985    2.76999998
   16.14222145  103.63099670    4.90999985    2.75000000
   16.14527702  102.09700012    4.90999985    2.67000008
   16.14861107  103.57499695    4.90999985    2.66000009
   16.15166664  101.59100342    4.90999985    2.76999998
   16.15499878   98.43699646    4.90999985    2.78999996
   16.15555573   97.97190094    4.90999985    2.78999996
   16.15861130  101.34899902    4.90999985    2.80999994
   16.16166687  100.12400055    4.63999987    2.78999996
   16.16499901   98.33809662    4.88999987    2.78999996
   16.16805458   96.07540131    4.32999992    2.78999996
   16.17444420   96.07540131    3.25000000    2.82999992
   16.17860985   97.44270325    2.11999989    2.82999992
   16.18166542   98.28540039    1.16999996    2.80999994
   16.18499947   99.60279846    0.89999998    2.80999994
   16.18805504   98.76640320    0.98000002    2.78999996
   16.18888855   98.19049835    0.98000002    2.78999996
   16.19194412   96.83699799    1.50000000    2.78999996
   16.19499969   99.37249756    2.05999994    2.80999994
   16.19833183  102.62100220    2.73000002    2.80999994
   16.20138931   97.91200256    2.36999989    2.78999996
   16.20472336  102.72499847    2.26999998    2.76999998
   16.20777893  103.44899750    2.48000002    2.78999996
   16.21111107  103.20700073    2.42000008    2.78999996
   16.21722221  103.20700073    2.66000009    2.76999998
   16.22138977  104.63600159    2.67000008    2.76999998
   16.22222328   99.59230042    2.66000009    2.78999996
   16.22500038   97.13410187    2.73000002    2.78999996
   16.22805595   98.26319885    3.34999990    2.78999996
   16.23139000   95.30829620    4.19999981    2.76999998
   16.23444557  100.34600067    4.90999985    2.75000000
   16.23777771   96.56549835    4.90999985    2.75000000
   16.24111176  100.20400238    4.90999985    2.75000000
   16.24416733   98.48999786    4.90999985    2.71000004
   16.24749947   95.72519684    4.90999985    2.71000004
   16.25055504   98.18039703    4.90999985    2.71000004
   16.25388908   95.62770081    4.90999985    2.71000004
   16.25555611   96.59980011    4.90999985    2.73000002
   16.26000023   96.59980011    4.90999985    2.76999998
   16.26416588   94.04419708    4.90999985    2.75000000
   16.26749992  100.43199921    4.90999985    2.76999998
   16.27055550  100.34300232    4.90999985    2.75000000
   16.27388954   99.55770111    4.90999985    2.75000000
   16.27722168   97.60389709    4.90999985    2.69000006
   16.28027725   96.70709991    4.90999985    2.69000006
   16.28361130   96.21099854    4.90999985    2.75000000
   16.28666687   99.43949890    4.90999985    2.75000000
   16.28888893   94.65059662    4.90999985    2.76999998
   16.29027748   93.90979767    4.90999985    2.76999998
   16.29333305   95.17169952    4.90999985    2.78999996
   16.29666710   91.91549683    4.90999985    2.76999998
   16.30305481   91.91549683    4.90999985    2.66000009
   16.30722237  106.45700073    4.90999985    2.66000009
   16.31027794   99.85849762    4.90999985    2.66000009
   16.31361008  105.45500183    4.90999985    2.59999990
   16.31666756  106.27500153    4.90999985    2.57999992
   16.32000160  119.76899719    4.90999985    2.46000004
   16.32222366  118.02999878    4.90999985    2.42000008
   16.32361221  113.40100098    4.90999985    2.46000004
   16.32666779  107.24099731    4.90999985    2.53999996
   16.33000183  119.08300018    4.90999985    2.55999994
   16.33305550  109.63899994    4.90999985    2.50000000
   16.33638954  117.30599976    4.90999985    2.48000002
   16.33972359  112.62100220    4.90999985    2.42000008
   16.34583473  112.62100220    4.90999985    2.39000010
   16.35000038  127.13099670    4.90999985    2.30999994
   16.35305595  137.49400330    4.90999985    2.34999990
   16.35555649  133.45500183    4.90999985    2.36999989
   16.35666656  143.91400146    4.90999985    2.32999992
   16.35972214  131.72399902    4.90999985    2.25000000
   16.36305618  151.27299500    4.90999985    2.25000000
   16.36611176  157.69099426    4.90999985    2.21000004
   16.36944389  135.14799500    4.90999985    2.23000002
   16.37277794  143.51800537    4.90999985    2.26999998
   16.37583351  165.36900330    4.90999985    2.17000008
   16.37916756  146.88200378    4.90999985    2.26999998
   16.38222313  121.69000244    4.90999985    2.39000010
   16.38861084  121.69000244    4.90999985    2.26999998
   16.39277840  111.67800140    4.90999985    2.30999994
   16.39611053  128.66600037    4.90999985    2.36999989
   16.39916611  126.17199707    4.90999985    2.32999992
   16.40250015  139.85099792    4.90999985    2.32999992
   16.40555573  129.35699463    4.90999985    2.32999992
   16.40888786  107.72899628    4.90999985    2.44000006
   16.41194344  119.89399719    4.90999985    2.48000002
   16.41527748  113.83899689    4.90999985    2.50000000
   16.41860962  120.14499664    4.90999985    2.48000002
   16.42166519  121.50000000    4.90999985    2.44000006
   16.42361069  114.81099701    4.90999985    2.40000010
   16.42527771  116.96499634    4.90999985    2.42000008
   16.43138885  116.96499634    4.90999985    2.39000010
   16.43555450  112.97499847    4.90999985    2.46000004
   16.43888855  106.21900177    4.90999985    2.53999996
   16.44194412  106.72799683    4.90999985    2.55999994
   16.44527626   98.97820282    4.90999985    2.73000002
   16.44861031  107.14199829    4.90999985    2.64000010
   16.45166779  114.02500153    4.90999985    2.50000000
   16.45499992  113.10299683    4.90999985    2.42000008
   16.45694542  111.47000122    4.90999985    2.42000008
   16.45861244  112.36699677    4.90999985    2.46000004
   16.46166801  104.59300232    4.90999985    2.59999990
   16.46500015  102.80000305    4.90999985    2.59999990
   16.46833420  101.74199677    4.90999985    2.57999992
   16.47444534  101.74199677    4.90999985    2.46000004
   16.47833443  117.57399750    4.90999985    2.34999990
   16.48166656  122.47799683    4.90999985    2.48000002
   16.48500061  194.00700378    4.90999985    2.21000004
   16.48805618  135.56500244    4.90999985    2.23000002
   16.49055672  139.56799316    4.90999985    2.28999996
   16.49194527  126.52600098    4.90999985    2.26999998
   16.49500084  163.38999939    4.90999985    2.28999996
   16.49833298  200.20700073    4.90999985    2.15000010
   16.50138855  202.88699341    4.90999985    2.01999998
   16.50472260  123.04199982    4.90999985    2.23000002
   16.50777817  129.50500488    4.90999985    2.42000008
   16.51111031  112.91300201    4.90999985    2.34999990
   16.51722145  112.91300201    4.90999985    2.30999994
   16.52138901  111.90000153    4.90999985    2.42000008
   16.52388954  107.92500305    4.90999985    2.44000006
   16.52499962  108.22200012    4.90999985    2.48000002
   16.52805519  101.10099792    4.90999985    2.53999996
   16.53138924  107.00099945    4.90999985    2.67000008
   16.53472137  110.13999939    4.90999985    2.66000009
   16.53777695  103.94899750    4.90999985    2.57999992
   16.54111099   99.67500305    4.90999985    2.75000000
   16.54416656   97.45619965    4.90999985    2.78999996
   16.54749870  102.10199738    4.90999985    2.71000004
   16.55055428  108.25900269    4.90999985    2.59999990
   16.55388832  112.33399963    4.90999985    2.53999996
   16.57500076  112.33399963    4.90999985    2.15000010
   16.57916832  106.01000214    4.90999985    2.00000000
   16.58250046   -1.00000000    4.90999985    1.89999998
   16.58555603   68.68759918    4.90999985    1.73000002
   16.58889008  126.40699768    4.90999985    1.85000002
   16.59194565   81.95320129    4.90999985    1.89999998
   16.59527779  241.02299500    4.90999985    1.89999998
   16.59861183  249.41200256    4.90999985    2.09999990
   16.60166740   34.12509918    4.90999985    2.07999992
   16.60499954  340.83999634    4.90999985    1.85000002
   16.60583305  252.48199463    4.90999985    1.91999996
   16.60861206   49.18759918    4.90999985    1.94000006
   16.61194420   -1.00000000    4.90999985    1.76999998
   16.62194443   -1.00000000    4.90999985    1.60000002
   16.62527847   65.46869659    4.90999985    1.55999994
   16.62833405   -1.00000000   -1.00000000   -1.00000000
   16.63166618   -1.00000000    4.90999985    1.71000004
   16.63472176  157.36199951    4.90999985    1.71000004
   16.63805580  141.58399963    4.90999985    1.94000006
   16.63916588  309.82400513    4.90999985    1.94000006
   16.64166641   54.00939941    4.90999985    2.03999996
   16.64472198  240.27999878    4.90999985    1.83000004
   16.64805603  234.48699951    4.90999985    2.17000008
   16.65138817  178.36999512    4.90999985    1.94000006
   16.65444374  268.61401367    4.90999985    2.01999998
   16.66083336  268.61401367    4.90999985    1.94000006
   16.66472244  110.74700165    4.90999985    2.32999992
   16.66805458  119.90499878    4.90999985    2.46000004
   16.67111015  123.68199921    4.90999985    2.55999994
   16.67277718  112.30699921    4.90999985    2.48000002
   16.67499924  106.80999756    4.90999985    2.42000008
   16.67805481  108.76000214    4.90999985    2.61999989
   16.68138885  105.58200073    4.90999985    2.59999990
   16.68444443  105.79499817    4.90999985    2.57999992
   16.68777657   94.86930084    4.90999985    2.67000008
   16.69083214  110.81099701    4.90999985    2.61999989
   16.69416618  103.95999908    4.90999985    2.48000002
   16.69749832   97.44719696    4.90999985    2.55999994
   16.70361137   97.44719696    4.90999985    2.78999996
   16.70777893  101.22499847    4.90999985    2.53999996
   16.71083450   98.82489777    4.90999985    2.66000009
   16.71416664   97.17050171    4.90999985    2.64000010
   16.71722221   96.39499664    4.90999985    2.84999990
   16.72055626   95.91059875    4.90999985    2.84999990
   16.72389030   93.96019745    4.90999985    2.82999992
   16.72694588   95.07569885    4.90999985    2.84999990
   16.73027802   96.86100006    4.90999985    2.84999990
   16.73333359   96.83730316    4.90999985    2.86999989
   16.73666763   93.38600159    4.90999985    2.84999990
   16.73944473   98.82790375    4.90999985    2.84999990
   16.74027824   93.68029785    4.90999985    2.84999990
   16.74638939   93.68029785    4.90999985    2.71000004
   16.75055504   86.54609680    4.90999985    2.73000002
   16.75361061   90.19450378    4.90999985    2.64000010
   16.75694466   98.79270172    4.90999985    2.61999989
   16.76027870  100.47299957    4.90999985    2.51999998
   16.76333427   93.82250214    4.90999985    2.69000006
   16.76666641   91.29019928    4.90999985    2.76999998
   16.76972198   93.86630249    4.90999985    2.76999998
   16.77277756   94.26809692    4.90999985    2.78999996
   16.77333260   96.75469971    4.90999985    2.75000000
   16.77638817   93.01080322    4.90999985    2.75000000
   16.77972221   98.63880157    4.90999985    2.71000004
   16.78277779   92.61090088    4.90999985    2.82999992
   16.78916550   92.61090088    4.90999985    2.80999994
   16.79333305   96.26650238    4.90999985    2.73000002
   16.79666710  102.12500000    4.90999985    2.67000008
   16.79972076  102.85399628    4.90999985    2.71000004
   16.80305481  104.85500336    4.90999985    2.71000004
   16.80611038  101.45099640    4.90999985    2.61999989
   16.80666542  113.73600006    4.90999985    2.64000010
   16.80972099  108.44899750    4.90999985    2.61999989
   16.81305504  118.44799805    4.90999985    2.53999996
   16.81611061   91.80770111    4.90999985    2.55999994
   16.81944466  102.03600311    4.90999985    2.57999992
   16.82277870  104.19200134    4.90999985    2.66000009
   16.82583427  110.62799835    4.90999985    2.59999990
   16.83222389  110.62799835    4.90999985    2.71000004
   16.83611107  104.33200073    4.90999985    2.61999989
   16.83944511   94.77719879    4.90999985    2.80999994
   16.84000015   95.78440094    4.90999985    2.80999994
   16.84305573   93.71920013    4.90999985    2.76999998
   16.84638977   94.83920288    4.90999985    2.66000009
   16.84944534   96.52890015    4.90999985    2.82999992
   16.85277748  100.19999695    4.90999985    2.75000000
   16.85611153   92.21569824    4.90999985    2.75000000
   16.85916710  103.30000305    4.90999985    2.59999990
   16.86250114  104.92099762    4.90999985    2.48000002
   16.86555672  101.50700378    4.90999985    2.55999994
   16.86888885   98.75360107    4.90999985    2.66000009
   16.87500000   98.75360107    4.90999985    2.66000009
   16.87916756   95.85269928    4.90999985    2.75000000
   16.88222313   98.23290253    4.90999985    2.71000004
   16.88555527  102.12000275    4.90999985    2.57999992
   16.88861084  101.00099945    4.90999985    2.40000010
   16.89194489   95.73249817    4.90999985    2.57999992
   16.89527702   90.75180054    4.90999985    2.76999998
   16.89833260   94.40709686    4.90999985    2.80999994
   16.90166664   95.79959869    3.11999989    2.80999994
   16.90472221   88.78040314    2.09999990    2.82999992
   16.90611076   91.52799988    2.13000011    2.80999994
   16.90861130   90.92410278    2.32999992    2.80999994
   16.91166687   89.67690277    2.15000010    2.80999994
   16.91777802   89.67690277    1.48000002    2.80999994
   16.92194366   93.25180054    0.76999998    2.78999996
   16.92499924   91.88079834    0.61000001    2.82999992
   16.92833328   90.96630096    0.58999997    2.80999994
   16.93166542   94.60099792    0.61000001    2.80999994
   16.93472099   90.04139709    0.64999998    2.80999994
   16.93805504   91.13909912    0.64999998    2.80999994
   16.93944359   93.44480133    0.64999998    2.80999994
   16.94166565   90.89080048    0.64999998    2.80999994
   16.94472122   94.85379791    0.69000000    2.80999994
   16.94805527   91.86100006    0.67000002    2.78999996
   16.95111275   90.09049988    0.67000002    2.80999994
   16.95444489   91.43589783    0.69000000    2.80999994
   16.96055603   91.43589783    0.58999997    2.80999994
   16.96472359   92.33709717    0.52999997    2.80999994
   16.96805573   92.27359772    0.52999997    2.80999994
   16.97111130   92.93009949    0.51999998    2.80999994
   16.97305679   74.94740295    0.51999998    2.80999994
   16.97500038   89.44110107    0.51999998    2.80999994
   16.97805595   93.13510132    0.50000000    2.80999994
   16.98139000   94.87729645    0.50000000    2.80999994
   16.98444557   90.73979950    0.52999997    2.80999994
   16.98777771   87.90789795    0.55000001    2.80999994
   16.99111176   88.92140198    0.55000001    2.80999994
   16.99416733   90.15360260    0.63000000    2.80999994
   16.99749947   92.12390137    0.51999998    2.80999994
   17.00333405   92.12390137    0.55000001    2.80999994
   17.00749969   93.16799927    0.50000000    2.80999994
   17.01083374   95.96309662    0.52999997    2.80999994
   17.01388931   93.70549774    0.47999999    2.80999994
   17.01722145   95.14160156    0.47999999    2.80999994
   17.02055550   95.88680267    0.47999999    2.80999994
   17.02388954   92.36299896    0.51999998    2.80999994
   17.02694511   93.18099976    0.51999998    2.80999994
   17.03027725   92.94129944    0.50000000    2.80999994
   17.03333282   91.53160095    0.47999999    2.80999994
   17.03666687   91.70420074    0.50000000    2.80999994
   17.03972244   90.80930328    0.51999998    2.78999996
   17.04027748   93.89559937    0.51999998    2.78999996
   17.04638863   93.89559937    0.51999998    2.80999994
   17.05055428   95.26170349    0.52999997    2.78999996
   17.05360985   92.78050232    0.52999997    2.78999996
   17.05694389   90.88030243    0.51999998    2.78999996
   17.05999947   93.41179657    0.51999998    2.78999996
   17.06333351   91.98049927    0.52999997    2.80999994
   17.06666756   91.48429871    0.52999997    2.80999994
   17.06972313   94.27079773    0.52999997    2.80999994
   17.07305717   90.36750031    0.52999997    2.80999994
   17.07333374   91.48310089    0.51999998    2.80999994
   17.07666779   93.96549988    0.51999998    2.80999994
   17.08000183   91.01349640    0.52999997    2.80999994
   17.08305550   92.45610046    0.50000000    2.80999994
   17.08916664   92.45610046    0.51999998    2.80999994
   17.09333420   91.70480347    0.51999998    2.80999994
   17.09666824   96.42289734    0.51999998    2.80999994
   17.09972191   92.31710052    0.51999998    2.80999994
   17.10305595   91.59709930    0.51999998    2.80999994
   17.10611153   89.07890320    0.51999998    2.80999994
   17.10666656   86.93399811    0.51999998    2.80999994
   17.10972214   92.39659882    0.51999998    2.80999994
   17.11305618   92.44920349    0.56999999    2.80999994
   17.11611176   90.74199677    0.58999997    2.80999994
   17.11944389   90.04049683    0.63000000    2.78999996
   17.12249947   93.84279633    0.70999998    2.80999994
   17.12583351   96.01100159    0.70999998    2.80999994
   17.13194466   96.01100159    0.64999998    2.80999994
   17.13611031   97.82140350    0.70999998    2.80999994
   17.13944435   89.41400146    0.73000002    2.80999994
   17.13999939   89.79699707    0.73000002    2.80999994
   17.14277840   90.10829926    0.73000002    2.80999994
   17.14611053   90.42919922    0.58999997    2.80999994
   17.14916611   89.16390228    0.61000001    2.78999996
   17.15250015   88.02809906    0.58999997    2.80999994
   17.15583229   90.69010162    0.58999997    2.80999994
   17.15888786   91.15390015    0.58999997    2.80999994
   17.16222191   87.93450165    0.58999997    2.80999994
   17.16527748   90.08959961    0.58999997    2.80999994
   17.16860962   90.10109711    0.56999999    2.78999996
   17.17499924   90.10109711    0.56999999    2.80999994
   17.17888832   87.48459625    0.56999999    2.80999994
   17.18222237   92.66609955    0.58999997    2.78999996
   17.18555450   91.53389740    0.58999997    2.80999994
   17.18861008   89.30789948    0.58999997    2.80999994
   17.19194412   88.57530212    0.61000001    2.78999996
   17.19499969   92.06099701    0.61000001    2.80999994
   17.19833183   91.05539703    0.64999998    2.80999994
   17.20138931   89.21929932    0.69000000    2.78999996
   17.20472336   93.80639648    0.69000000    2.80999994
   17.20722389   93.05030060    0.69000000    2.80999994
   17.20861244   91.53910065    0.70999998    2.78999996
   17.21194458   88.09909821    0.76999998    2.80999994
   17.21777916   88.09909821    0.73000002    2.78999996
   17.22194481   89.53399658    0.76999998    2.78999996
   17.22500038   89.47540283    0.79000002    2.80999994
   17.22833443   87.14420319    0.75000000    2.78999996
   17.23139000   86.53160095    0.70999998    2.80999994
   17.23472214   86.66290283    0.73000002    2.78999996
   17.23777771   86.74040222    0.73000002    2.78999996
   17.24027824   88.12429810    0.75000000    2.78999996
   17.24138832   87.27040100    0.75000000    2.78999996
   17.24472237   85.73020172    0.79000002    2.78999996
   17.24777794   88.50879669    0.79000002    2.78999996
   17.25111198   88.14530182    0.76999998    2.78999996
   17.25416756   88.82579803    0.76999998    2.78999996
   17.26055527   88.82579803    0.75000000    2.78999996
   17.26472282   86.39029694    0.73000002    2.78999996
   17.26777840   87.88420105    0.73000002    2.78999996
   17.27111053   89.21659851    0.70999998    2.80999994
   17.27361107   91.65390015    0.70999998    2.78999996
   17.27472115   87.54930115    0.70999998    2.78999996
   17.27805519   89.32289886    0.70999998    2.78999996
   17.28111076   90.80999756    0.70999998    2.80999994
   17.28444481   91.77469635    0.73000002    2.78999996
   17.28750038   92.01670074    0.75000000    2.78999996
   17.29083252   89.45050049    0.79000002    2.78999996
   17.29416656   89.77420044    0.79000002    2.78999996
   17.29722214   90.18150330    0.79000002    2.78999996
   17.30333328   90.18150330    0.76999998    2.78999996
   17.30749893   93.02359772    0.75000000    2.78999996
   17.31083298   91.65090179    0.70999998    2.80999994
   17.31388855   91.12100220    0.69000000    2.80999994
   17.31722260   89.75000000    0.69000000    2.80999994
   17.32027817   85.05200195    0.64999998    2.78999996
   17.32361221   88.66100311    0.64999998    2.78999996
   17.32666779   89.22080231    0.67000002    2.78999996
   17.33000183   88.78140259    0.69000000    2.78999996
   17.33333397   89.04660034    0.69000000    2.78999996
   17.33638954   88.87750244    0.69000000    2.78999996
   17.33972359   87.82119751    0.69000000    2.78999996
   17.34027863   85.99780273    0.70999998    2.78999996
   17.34611130   85.99780273    0.69000000    2.78999996
   17.35027885   88.93029785    0.70999998    2.78999996
   17.35361099   87.71669769    0.75000000    2.76999998
   17.35666656   92.11180115    0.76999998    2.78999996
   17.36000061   87.99960327    0.76999998    2.80999994
   17.36333466   91.02719879    0.76999998    2.78999996
   17.36638832   90.87049866    0.76999998    2.78999996
   17.36972237   87.46240234    0.76999998    2.78999996
   17.37277794   87.96559906    0.76999998    2.78999996
   17.37361145   93.36450195    0.76999998    2.78999996
   17.37638855   87.24009705    0.76999998    2.78999996
   17.37972260   91.51119995    0.76999998    2.78999996
   17.38277817   88.89179993    0.76999998    2.78999996
   17.38916588   88.89179993    0.73000002    2.78999996
   17.39333344   91.50849915    0.73000002    2.78999996
   17.39638901   88.64170074    0.70999998    2.78999996
   17.39972115   90.51689911    0.70999998    2.78999996
   17.40277672   92.70099640    0.70999998    2.78999996
   17.40611076   91.62069702    0.70999998    2.78999996
   17.40694427   87.97720337    0.70999998    2.78999996
   17.40972137   89.03749847    0.70999998    2.78999996
   17.41305542   91.12719727    0.70999998    2.78999996
   17.41611099   94.28769684    0.70999998    2.78999996
   17.41944313   86.55709839    0.70999998    2.78999996
   17.42277718   86.77940369    0.70999998    2.78999996
   17.42583275   84.13259888    0.67000002    2.78999996
   17.43194389   84.13259888    0.67000002    2.78999996
   17.43610954   89.08000183    0.67000002    2.78999996
   17.43916512   87.58139801    0.64999998    2.78999996
   17.44027710   88.67739868    0.64999998    2.78999996
   17.44277763   89.94640350    0.67000002    2.78999996
   17.44610977   91.87229919    0.70999998    2.78999996
   17.44916534   90.77359772    0.67000002    2.80999994
   17.45250130   88.36329651    0.67000002    2.80999994
   17.45583344   89.56410217    0.67000002    2.78999996
   17.45888901   93.16770172    0.67000002    2.78999996
   17.46222305   92.37270355    0.69000000    2.78999996
   17.46527863   90.62719727    0.70999998    2.78999996
   17.46861076   90.83249664    0.70999998    2.78999996
   17.47472191   90.83249664    0.70999998    2.78999996
   17.47888947   90.28600311    0.69000000    2.78999996
   17.48222351   94.12079620    0.69000000    2.78999996
   17.48527718   91.52739716    0.79000002    2.80999994
   17.48861122   89.86000061    0.79000002    2.80999994
   17.49166679   92.38829803    0.75000000    2.78999996
   17.49500084   89.17700195    0.76999998    2.78999996
   17.49833298   90.87370300    0.79000002    2.78999996
   17.50138855   85.88610077    0.73000002    2.78999996
   17.50472260   92.70159912    0.89999998    2.78999996
   17.50694466   89.96579742    4.73999977    2.76999998
   17.50805473   90.05480194    3.78999996    2.76999998
   17.51138878   86.87010193    2.55999994    2.76999998
   17.51749992   86.87010193    3.18000007    2.76999998
   17.52166557   91.40560150    4.26999998    2.75000000
   17.52499962   95.19680023    3.95000005    2.71000004
   17.52805519   85.03540039    2.23000002    2.78999996
   17.53138924   93.57350159    0.83999997    2.78999996
   17.53472137   89.26069641    0.75000000    2.78999996
   17.53777695   93.85250092    0.79000002    2.78999996
   17.54027748   95.28700256    0.95999998    2.78999996
   17.54138756   92.29360199    0.95999998    2.78999996
   17.54472160   94.42459869    2.15000010    2.76999998
   17.54777718   91.07910156    2.71000004    2.76999998
   17.55111122   93.29290009    4.90999985    2.73000002
   17.55444336   92.14019775    4.90999985    2.69000006
   17.56055450   92.14019775    2.82999992    2.78999996
   17.56472206   93.40670013    2.48000002    2.78999996
   17.56777954   89.77980042    2.76999998    2.78999996
   17.57111168   90.65419769    3.91000009    2.71000004
   17.58861160  196.77099609    4.90999985    2.55999994
   17.59083366  223.71499634    4.90999985    2.01999998
   17.59388924  149.54200745    4.90999985    1.66999996
   17.59722328  101.91699982    4.90999985    2.15000010
   17.60333443  101.91699982    4.01999998    2.80999994
   17.60750008   89.23090363    0.76999998    2.78999996
   17.61083412   92.40239716    0.73000002    2.78999996
   17.61388969   92.49130249    0.75000000    2.78999996
   17.61722183   91.56629944    0.76999998    2.78999996
   17.62055588   92.39029694    0.76999998    2.76999998
   17.62194443   89.61689758    0.79000002    2.78999996
   17.62388992   91.15219879    0.79000002    2.78999996
   17.62722206   94.94889832    0.80000001    2.78999996
   17.63055611   92.67330170    0.79000002    2.76999998
   17.63361168   90.54229736    0.79000002    2.78999996
   17.63694382   91.53769684    0.80000001    2.78999996
   17.63999939   90.63330078    0.79000002    2.76999998
   17.64638901   90.63330078    0.80000001    2.78999996
   17.65027809   86.33470154    0.81999999    2.78999996
   17.65361023   91.18479919    0.86000001    2.78999996
   17.65527725   88.20339966    0.86000001    2.78999996
   17.65749931   91.74800110    0.86000001    2.78999996
   17.66055489   91.40200043    0.81999999    2.78999996
   17.66388893   85.27429962    0.83999997    2.78999996
   17.66694450   89.21209717    0.83999997    2.78999996
   17.67027664   87.85749817    0.80000001    2.78999996
   17.67333221   92.66880035    0.79000002    2.78999996
   17.67666626   89.86370087    0.79000002    2.76999998
   17.67972183   89.78140259    0.79000002    2.76999998
   17.68305397   87.62799835    0.79000002    2.76999998
   17.68916512   87.62799835    0.76999998    2.78999996
   17.69333267   87.32199860    0.76999998    2.78999996
   17.69638824   87.73100281    0.76999998    2.78999996
   17.69972038   90.08519745    0.76999998    2.76999998
   17.70305634   89.73739624    0.76999998    2.78999996
   17.70611191   86.22979736    0.86000001    2.78999996
   17.70944595   86.95659637    0.86000001    2.78999996
   17.71250153   89.19999695    2.80999994    2.75000000
   17.71583366   90.96209717    0.92000002    2.78999996
   17.71888924   89.73459625    0.81999999    2.78999996
   17.72194481   88.23100281    1.64999998    2.78999996
   17.72249985   87.10639954    1.64999998    2.78999996
   17.72583389   97.10179901    4.90999985    2.76999998
   17.73611069   57.08420181    4.90999985    1.23000002
   17.73916626   34.13589859    4.90999985    1.63000000
   17.74250031   93.29509735    4.90999985    1.83000004
   17.74583435  302.21200562    4.90999985    2.05999994
   17.74888992   -1.00000000    4.90999985    1.80999994
   17.75222206   -1.00000000    4.90999985    1.63000000
   17.75555611   -1.00000000    4.90999985    1.34000003
   17.75888824  113.41300201    4.90999985    1.85000002
   17.76222229   89.91110229    4.90999985    2.66000009
   17.76527786   99.71589661    4.90999985    2.61999989
   17.76861000  140.70899963    4.90999985    2.69000006
   17.77472115  140.70899963    4.90999985    2.64000010
   17.77888870   91.84639740    0.86000001    2.78999996
   17.78222275   91.66889954    3.18000007    2.78999996
   17.78527641  104.48200226    4.90999985    2.80999994
   17.78861046  136.95100403    4.90999985    2.36999989
   17.78916550  121.37699890    4.90999985    2.36999989
   17.79222107  119.12400055    4.90999985    1.98000002
   17.79555511  110.80000305    4.90999985    2.03999996
   17.79861069   -1.00000000    4.90999985    2.55999994
   17.80194283   95.98889923    4.90999985    2.36999989
   17.80499840  105.66100311    4.90999985    2.46000004
   17.80833244   96.68180084    4.90999985    2.71000004
   17.81138802  104.26999664    4.90999985    2.66000009
   17.81777954  104.26999664    4.90999985    2.48000002
   17.82194519  108.06400299    4.90999985    2.40000010
   17.82222366  104.36100006    4.90999985    2.40000010
   17.82555580   88.46890259    4.90999985    2.50000000
   17.82861137   92.28500366    4.63999987    2.75000000
   17.83194542   88.96289825    2.80999994    2.76999998
   17.83527756   88.16120148    1.07000005    2.76999998
   17.83833313   93.28880310    0.79000002    2.78999996
   17.84166718   84.82289886    0.80000001    2.76999998
   17.84472275   92.54650116    0.80000001    2.76999998
   17.84805679   96.60939789    0.89999998    2.76999998
   17.85138893   89.17209625    4.61999989    2.75000000
   17.85444450   86.96559906    4.90999985    2.75000000
   17.85555649   98.24150085    4.90999985    2.71000004
   17.86055565   98.24150085    4.90999985    2.53999996
   17.86472321   88.08209991    4.90999985    2.67000008
   17.86777878   87.66020203    3.78999996    2.78999996
   17.87111092   90.81710052    2.30999994    2.78999996
   17.87416649   91.43609619    2.51999998    2.78999996
   17.87750053   90.39369965    2.07999992    2.76999998
   17.88083267   96.11380005    0.76999998    2.78999996
   17.88388824   90.32479858    0.73000002    2.78999996
   17.88722229   86.37860107    0.73000002    2.76999998
   17.88888931   84.93109894    0.69000000    2.76999998
   17.89083290   93.48269653    0.70999998    2.76999998
   17.89388847   90.78929901    0.70999998    2.76999998
   17.89722252   92.32420349    0.70999998    2.76999998
   17.90333366   92.32420349    0.69000000    2.78999996
   17.90749931   89.49479675    0.69000000    2.76999998
   17.91083336   87.30149841    0.69000000    2.78999996
   17.91388893   90.04789734    0.69000000    2.78999996
   17.91722107   91.92160034    0.69000000    2.78999996
   17.92027664   87.78919983    0.69000000    2.78999996
   17.92222214   86.64379883    0.69000000    2.78999996
   17.92388916   89.28610229    0.69000000    2.78999996
   17.92694473   98.32029724    0.70999998    2.78999996
   17.93027687   87.34310150    0.70999998    2.78999996
   17.93361092   87.54139709    0.70999998    2.76999998
   17.93666649   84.98600006    0.70999998    2.78999996
   17.93999863   87.39679718    0.70999998    2.78999996
   17.94610977   87.39679718    0.70999998    2.78999996
   17.95027924   81.90419769    0.70999998    2.76999998
   17.95361137   87.30290222    0.73000002    2.76999998
   17.95555687   85.98989868    0.73000002    2.78999996
   17.95722389   88.62419891    0.73000002    2.78999996
   17.96055603   95.56349945    0.73000002    2.78999996
   17.96361160   93.44069672    0.70999998    2.78999996
   17.96694565   98.25189972    0.70999998    2.78999996
   17.97000122   86.73680115    0.70999998    2.78999996
   17.97333336   92.86879730    0.70999998    2.78999996
   17.97638893   92.11750031    0.70999998    2.76999998
   17.97972298   96.50299835    0.73000002    2.78999996
   17.98305511   96.04299927    0.73000002    2.78999996
   17.98916626   96.04299927    0.73000002    2.76999998
   17.99333382   88.24250031    0.70999998    2.78999996
   17.99638939   90.72389984    0.70999998    2.78999996
   17.99972153   92.01959991    0.70999998    2.78999996
   18.00277710   87.37300110    0.70999998    2.78999996
   18.00611115   90.76300049    0.70999998    2.76999998
   18.00916672   94.31050110    0.70999998    2.78999996
   18.01250076   85.11229706    0.70999998    2.78999996
   18.01583290   90.78350067    0.70999998    2.78999996
   18.01888847   92.03150177    0.73000002    2.78999996
   18.02222252   89.60130310    0.75000000    2.78999996
   18.02249908   88.81009674    0.75000000    2.78999996
   18.02583313   90.15019989    0.75000000    2.76999998
   18.03194427   90.15019989    0.75000000    2.78999996
   18.03610992   88.07080078    0.75000000    2.78999996
   18.03944397   87.52950287    0.75000000    2.78999996
   18.04249954   87.13369751    0.75000000    2.78999996
   18.04583359   86.67990112    0.75000000    2.76999998
   18.04888916   90.37329865    0.76999998    2.78999996
   18.05222130   86.79119873    0.76999998    2.78999996
   18.05555534   96.31089783    0.76999998    2.78999996
   18.05611038   90.80480194    0.76999998    2.78999996
   18.05888748   89.72859955    0.76999998    2.78999996
   18.06222153   88.55770111    0.76999998    2.78999996
   18.06527710   90.27400208    0.76999998    2.78999996
   18.06861115   92.41960144    0.76999998    2.78999996
   18.07500076   92.41960144    0.79000002    2.78999996
   18.07916832   94.66880035    0.80000001    2.76999998
   18.08222389   91.38639832    0.80000001    2.78999996
   18.08555603   92.94660187    0.80000001    2.76999998
   18.08889008   92.60209656    0.81999999    2.76999998
   18.08944511   87.44270325    0.81999999    2.76999998
   18.09222221   96.35700226    1.07000005    2.78999996
   18.09555626   91.97229767    1.07000005    2.78999996
   18.09861183   94.87349701    0.95999998    2.78999996
   18.10194397   89.71099854    0.95999998    2.78999996
   18.10527802   90.77040100    0.95999998    2.76999998
   18.10833359   90.61060333    0.94000000    2.78999996
   18.11166763   92.88629913    1.05999994    2.78999996
   18.11777878   92.88629913    1.05999994    2.78999996
   18.12194443   92.53679657    0.95999998    2.76999998
   18.12277794   89.61389923    0.95999998    2.76999998
   18.12527847   89.35980225    0.95999998    2.78999996
   18.12861061   85.43720245    0.94000000    2.78999996
   18.13166618   88.76879883    0.94000000    2.78999996
   18.13500023   86.19889832    0.94000000    2.78999996
   18.13833237   90.10639954    0.92000002    2.78999996
   18.14138794   92.35639954    0.94000000    2.78999996
   18.14472198  106.88800049    4.90999985    2.80999994
   18.14777756  126.82199860    4.90999985    2.46000004
   18.15111160  120.53600311    4.90999985    2.17000008
   18.15416718   92.12789917    4.90999985    2.82999992
   18.15611076   91.57270050    4.90999985    2.82999992
   18.16055489   91.57270050    4.90999985    2.82999992
   18.16472244  100.26000214    4.90999985    2.75000000
   18.16777802  131.21400452    4.90999985    1.86000001
   18.17111015  103.06700134    4.90999985    1.39999998
   18.17416573   88.73670197    4.90999985    2.78999996
   18.17749977   91.38909912    4.84999990    2.80999994
   18.18083191   92.75109863    1.11000001    2.78999996
   18.18388748   95.85410309    1.61000001    2.78999996
   18.18722153   92.67610168    1.78999996    2.78999996
   18.18944359   92.29589844    1.89999998    2.78999996
   18.19083214   92.69419861    2.98000002    2.76999998
   18.19416618   91.43759918    2.98000002    2.78999996
   18.19722176   93.69589996    2.98000002    2.78999996
   18.20333481   93.69589996    2.84999990    2.76999998
   18.20750046   91.83409882    1.14999998    2.76999998
   18.21083450   89.18659973    1.09000003    2.78999996
   18.21389008   94.45610046    1.11000001    2.76999998
   18.21722221   93.90529633    1.13000000    2.78999996
   18.22027779   93.07990265    1.13000000    2.78999996
   18.22277832   88.42949677    1.14999998    2.76999998
   18.22389030   89.19619751    1.14999998    2.76999998
   18.22722244   90.34909821    1.48000002    2.78999996
   18.23027802   90.83149719    1.25000000    2.78999996
   18.23361206   89.02079773    1.23000002    2.76999998
   18.23694420   91.61830139    1.14999998    2.78999996
   18.23999977   90.85160065    1.07000005    2.78999996
   18.24611092   90.85160065    1.07000005    2.76999998
   18.25027847   91.79470062    1.11000001    2.76999998
   18.25361061   88.10600281    1.21000004    2.76999998
   18.25611115   93.59259796    3.61999989    2.75000000
   18.25694466   88.36009979    3.26999998    2.78999996
   18.26027870  121.22399902    4.90999985    2.80999994
   18.26333427  114.01999664    4.90999985    2.55999994
   18.26666641   87.43569946    4.90999985    1.91999996
   18.27000046  130.11199951    4.90999985    1.39999998
   18.27305603   -1.00000000    4.90999985    1.26999998
   18.27638817   -1.00000000    4.90999985    0.61000001
   18.27944374   -1.00000000    4.90999985    0.40000001
   18.28277779   -1.00000000    4.90999985    0.23000000
   18.29305458  105.10800171    4.90999985    2.07999992
   18.29638863  102.48200226    4.90999985    2.28999996
   18.29944420   98.02369690    4.90999985    2.80999994
   18.30277634   94.03730011    1.19000006    2.76999998
   18.30611038   97.61260223    1.16999996    2.75000000
   18.30916595   88.94159698    1.13000000    2.75000000
   18.31250000   91.91649628    1.13000000    2.75000000
   18.31555557   86.55829620    1.16999996    2.75000000
   18.31888962   90.23090363    1.14999998    2.75000000
   18.32194519   93.05120087    1.13000000    2.75000000
   18.32389069   89.92099762    1.13000000    2.75000000
   18.32555580   88.65249634    1.14999998    2.76999998
   18.33194542   88.65249634    1.21000004    2.75000000
   18.33611107   94.34149933    1.23000002    2.76999998
   18.33916664   93.76149750    1.23000002    2.75000000
   18.34250069   94.86889648    1.23000002    2.75000000
   18.34555626   91.73490143    1.21000004    2.75000000
   18.34889030   90.42070007    1.26999998    2.75000000
   18.35222244   91.39299774    1.26999998    2.75000000
   18.35527802   94.29519653    1.26999998    2.76999998
   18.35750008   96.52149963    1.26999998    2.76999998
   18.35888863   87.21469879    1.33000004    2.78999996
   18.36222267   87.96440125    1.51999998    2.76999998
   18.36527824   87.51119995    4.21999979    2.78999996
   18.36861038  114.01599884    3.99000001    2.76999998
   18.37472153  114.01599884    3.41000009    2.76999998
   18.37888908   89.13549805    1.44000006    2.75000000
   18.38222313   91.96700287    1.44000006    2.75000000
   18.38527679   86.96130371    1.41999996    2.75000000
   18.38861084   85.50509644    1.41999996    2.76999998
   18.39083290   88.81099701    1.41999996    2.76999998
   18.39222145   88.44950104    1.44000006    2.76999998
   18.39555550   87.24259949    1.39999998    2.76999998
   18.39861107   84.52469635    1.38000000    2.76999998
   18.40194321   86.87629700    1.38000000    2.76999998
   18.40499878   89.64109802    1.39999998    2.75000000
   18.40833282   88.67269897    1.39999998    2.76999998
   18.41138840   92.67320251    1.39999998    2.75000000
   18.41749954   92.67320251    1.41999996    2.76999998
   18.42166519   87.38680267    1.50000000    2.76999998
   18.42416573   89.95559692    1.50000000    2.76999998
   18.42527771   87.15830231    1.50000000    2.76999998
   18.42860985   88.09719849    1.61000001    2.76999998
   18.43166542   93.22850037    1.69000006    2.75000000
   18.43499947   85.22229767    1.69000006    2.75000000
   18.43805504   84.24310303    1.66999996    2.76999998
   18.44138718   93.17340088    1.64999998    2.78999996
   18.44444275   86.09790039    4.90999985    2.78999996
   18.44777679   93.09349823    4.90999985    2.82999992
   18.45111275   87.83219910    4.90999985    2.84999990
   18.45416832   89.42680359    4.90999985    2.86999989
   18.46055603   89.42680359    4.90999985    2.91000009
   18.46444511   94.55039978    4.90999985    2.57999992
   18.46777916   97.52719879    4.90999985    2.78999996
   18.47111130  107.09400177    4.90999985    2.40000010
   18.47416687  102.19000244    4.90999985    2.28999996
   18.47750092   91.41760254    4.90999985    1.86000001
   18.48055649   86.72799683    4.90999985    2.84999990
   18.48388863   95.53070068    4.90999985    0.28000000
   18.48694420   92.43569946    4.90999985    2.67000008
   18.49027824  128.42999268    4.90999985    2.78999996
   18.49138832   93.58129883    4.73999977    2.26999998
   18.49361229   89.86029816    4.90999985    2.80999994
   18.49694443   90.28659821    3.50000000    2.75000000
   18.50333405   90.28659821    3.39000010    2.78999996
   18.50749969   88.37439728    3.51999998    2.78999996
   18.51083374   85.90200043    4.32999992    2.80999994
   18.51388931   90.96540070    4.90999985    2.80999994
   18.51722145   84.88279724    4.90999985    2.71000004
   18.52027702   84.45760345    4.90999985    2.78999996
   18.52361107  133.24600220    4.90999985    2.61999989
   18.52472115  149.15800476    4.90999985    2.57999992
   18.52722168   -1.00000000    4.90999985    2.07999992
   18.53027725   -1.00000000    4.90999985    1.00000000
   18.53361130   -1.00000000    4.90999985    0.25000000
   18.53666687   -1.00000000    4.90999985    0.09000000
   18.53999901   -1.00000000    4.90999985    0.09000000
   18.55027771   -1.00000000    4.90999985    0.01000000
   18.55333328   -1.00000000    4.90999985    0.01000000
   18.55666542   -1.00000000    4.90999985    0.01000000
   18.55999947   -1.00000000    4.90999985    0.01000000
   18.56333351   -1.00000000    4.90999985    0.01000000
   18.56638718   -1.00000000    0.89999998    0.01000000
   18.56972313   -1.00000000    0.89999998    0.01000000
   18.57277870   -1.00000000    0.89999998    0.01000000
   18.57611275   -1.00000000    0.89999998    0.01000000
   18.57916832   -1.00000000    0.89999998    0.01000000
   18.58250046   -1.00000000    0.89999998    0.01000000
   18.60722351   -1.00000000    2.23000002    0.01000000
   18.61055565   -1.00000000    4.90999985    0.01000000
   18.61361122   -1.00000000    4.90999985    0.01000000
   18.61694527   -1.00000000    4.90999985    0.01000000
   18.62027740   -1.00000000    4.90999985    0.01000000
   18.62333298   -1.00000000    3.55999994    0.01000000
   18.62666702   -1.00000000    4.90999985    0.01000000
   18.63611031   -1.00000000    4.90999985    0.07000000
   18.63916588   -1.00000000    4.90999985    0.50000000
   18.64277840   -1.00000000    4.90999985    0.25000000
   18.64583397   -1.00000000    4.90999985    0.09000000
   18.64916611   -1.00000000    4.90999985    0.52999997
   18.65222168   -1.00000000    4.90999985    0.31999999
   18.65555573   -1.00000000    4.90999985    0.15000001
   18.65861130   -1.00000000    4.90999985    0.31999999
   18.66194344   -1.00000000    4.90999985    0.19000000
   18.66527748  134.01100159    4.90999985    1.98000002
   18.66833305   -1.00000000    4.90999985    0.56999999
   18.67472076   -1.00000000    4.90999985    2.34999990
   18.67888832   -1.00000000    4.90999985    0.50000000
   18.68222237   -1.00000000    4.90999985    0.07000000
   18.68527603   -1.00000000    4.90999985    0.05000000
   18.68861008   -1.00000000    4.90999985    0.38000000
   18.69194412   -1.00000000    4.90999985    0.11000000
   18.69499969   -1.00000000    4.90999985    0.11000000
   18.69833183   -1.00000000    4.90999985    0.11000000
   18.70138931   -1.00000000    4.90999985    0.11000000
   18.70472336   -1.00000000    4.90999985    0.05000000
   18.70833397   -1.00000000    0.80000001    0.01000000
   18.71138954   -1.00000000    0.73000002    0.01000000
   18.72166634   -1.00000000    1.00000000    0.01000000
   18.72500038   -1.00000000    1.21000004    0.01000000
   18.72805595   -1.00000000    2.75000000    0.01000000
   18.73139000   -1.00000000    4.09999990    0.01000000
   18.73472214   -1.00000000    4.51000023    0.01000000
   18.73777771   -1.00000000    4.15999985    0.03000000
   18.74138832   -1.00000000    4.90999985    0.05000000
   18.74444389   -1.00000000    4.90999985    0.09000000
   18.74777794   -1.00000000    4.90999985    0.17000000
   18.75083351   -1.00000000    4.90999985    0.38000000
   18.75416756   -1.00000000    4.90999985    0.13000000
   18.76472282   -1.00000000    4.90999985    0.07000000
   18.76777840   -1.00000000    4.90999985    0.07000000
   18.77111053   -1.00000000    4.90999985    0.05000000
   18.77472115   -1.00000000    4.53000021    0.03000000
   18.77777672   -1.00000000    4.00000000    0.01000000
   18.78111076   -1.00000000    3.68000007    0.01000000
   18.78416634   -1.00000000    4.53000021    0.01000000
   18.78750038   -1.00000000    4.90999985    0.01000000
   18.79083252   -1.00000000    4.90999985    0.01000000
   18.79388809   -1.00000000    4.90999985    0.01000000
   18.79722214   -1.00000000    4.90999985    0.01000000
   18.80749893   -1.00000000    4.90999985    0.01000000
   18.81055450   -1.00000000    4.90999985    0.01000000
   18.81388855   -1.00000000    4.90999985    0.01000000
   18.81722260   -1.00000000    4.90999985    0.01000000
   18.82027817   -1.00000000    4.90999985    0.01000000
   18.82361221   -1.00000000    4.90999985    0.01000000
   18.82666779   -1.00000000    4.90999985    0.01000000
   18.83000183   -1.00000000    4.90999985    0.01000000
   18.83305550   -1.00000000    4.90999985    0.01000000
   18.83638954   -1.00000000    4.90999985    0.01000000
   18.83944511   -1.00000000    4.90999985    0.01000000
   18.85027885   -1.00000000    4.90999985    0.01000000
   18.85361099   -1.00000000    4.90999985    0.01000000
   18.85666656   -1.00000000    4.90999985    0.01000000
   18.86000061   -1.00000000    4.90999985    0.01000000
   18.86305618   -1.00000000    4.90999985    0.01000000
   18.86638832   -1.00000000    4.90999985    0.01000000
   18.86944389   -1.00000000    4.90999985    0.01000000
   18.87277794   -1.00000000    4.90999985    0.01000000
   18.87638855   -1.00000000    4.90999985    0.01000000
   18.87944412   -1.00000000    4.90999985    0.01000000
   18.88277817   -1.00000000    4.90999985    0.01000000
   18.89305496   -1.00000000    4.90999985    0.01000000
   18.89638901   -1.00000000    4.90999985    0.01000000
   18.89944458   -1.00000000    4.90999985    0.01000000
   18.90277672   -1.00000000    4.90999985    0.01000000
   18.90611076   -1.00000000    4.90999985    0.01000000
   18.90944481   -1.00000000    4.90999985    0.01000000
   18.91250038   -1.00000000    4.90999985    0.01000000
   18.91583252   -1.00000000    4.90999985    0.01000000
   18.91888809   -1.00000000    4.90999985    0.01000000
   18.92222214   -1.00000000    4.90999985    0.01000000
   18.92555428   -1.00000000    4.90999985    0.01000000
   18.93610954   -1.00000000    4.90999985    0.01000000
   18.93916512   -1.00000000    4.90999985    0.01000000
   18.94277763   -1.00000000    4.90999985    0.01000000
   18.94583321   -1.00000000    4.90999985    0.01000000
   18.94916534   -1.00000000    4.90999985    0.01000000
   18.95222282   -1.00000000    3.23000002    0.01000000
   18.95555687   -1.00000000    4.90999985    0.07000000
   18.95888901   -1.00000000    4.90999985    0.11000000
   18.96194458   -1.00000000    4.90999985    0.67000002
   18.96527863  163.91200256    4.90999985    1.19000006
   18.96833420  250.32299805    4.90999985    1.50000000
   18.97472191  250.32299805    4.90999985    2.73000002
   18.97888947   -1.00000000    4.90999985    1.88000000
   18.98194504   -1.00000000    4.90999985    0.11000000
   18.98527718   -1.00000000    4.90999985    0.13000000
   18.98861122   -1.00000000    4.90999985    0.09000000
   18.99166679   -1.00000000    4.90999985    0.09000000
   18.99500084   -1.00000000    4.90999985    0.07000000
   18.99805641   -1.00000000    4.90999985    0.05000000
   19.00138855   -1.00000000    4.90999985    0.07000000
   19.00444412   -1.00000000    4.90999985    0.09000000
   19.00805473   -1.00000000    4.90999985    0.09000000
   19.01111031   -1.00000000    4.90999985    0.13000000
   19.02166557   -1.00000000    4.01999998    0.03000000
   19.02499962   -1.00000000    4.90999985    0.03000000
   19.02805519   -1.00000000    4.90999985    0.05000000
   19.03138924   -1.00000000    4.90999985    0.07000000
   19.03444481   -1.00000000    4.90999985    0.05000000
   19.03777695   -1.00000000    4.90999985    0.05000000
   19.04138756   -1.00000000    4.90999985    0.05000000
   19.04444313   -1.00000000    3.48000002    0.05000000
   19.04777718   -1.00000000    1.60000002    0.01000000
   19.05083275   -1.00000000    3.16000009    0.01000000
   19.05416679   -1.00000000    4.19999981    0.03000000
   19.06444359   -1.00000000    4.90999985    0.03000000
   19.06777954   -1.00000000    2.78999996    0.01000000
   19.07083511   -1.00000000    1.66999996    0.01000000
   19.07444572   -1.00000000    1.66999996    0.01000000
   19.07750130   -1.00000000    1.66999996    0.01000000
   19.08083344   -1.00000000    1.66999996    0.01000000
   19.08416748   -1.00000000    1.39999998    0.01000000
   19.08722305   -1.00000000    1.07000005    0.01000000
   19.09055710   -1.00000000    1.07000005    0.01000000
   19.09361267   -1.00000000    1.07000005    0.01000000
   19.09694481   -1.00000000    1.07000005    0.01000000
   19.10777855   -1.00000000    1.07000005    0.01000000
   19.11083412   -1.00000000    1.07000005    0.01000000
   19.11416626   -1.00000000    1.11000001    0.01000000
   19.11722183   -1.00000000    1.11000001    0.01000000
   19.12055588   -1.00000000    1.11000001    0.01000000
   19.12361145   -1.00000000    1.11000001    0.01000000
   19.12694550   -1.00000000    1.11000001    0.01000000
   19.13027763   -1.00000000    1.11000001    0.01000000
   19.13333321   -1.00000000    1.11000001    0.01000000
   19.13666725   -1.00000000    1.11000001    0.01000000
   19.13972282   -1.00000000    1.11000001    0.01000000
   19.15027809   -1.00000000    1.11000001    0.01000000
   19.15333366   -1.00000000    1.11000001    0.01000000
   19.15666580   -1.00000000    1.11000001    0.01000000
   19.15972137   -1.00000000    1.11000001    0.01000000
   19.16305542   -1.00000000    1.11000001    0.01000000
   19.16611099   -1.00000000    1.11000001    0.01000000
   19.16944313   -1.00000000    1.11000001    0.01000000
   19.17277718   -1.00000000    1.11000001    0.01000000
   19.17611122   -1.00000000    1.11000001    0.01000000
   19.17916679   -1.00000000    1.11000001    0.01000000
   19.18249893   -1.00000000    1.11000001    0.01000000
   19.19305420   -1.00000000    0.95999998    0.01000000
   19.19638824   -1.00000000    1.61000001    0.01000000
   19.19944382   -1.00000000    1.63000000    0.01000000
   19.20277786   -1.00000000    1.21000004    0.01000000
   19.20583344   -1.00000000    1.71000004    0.01000000
   19.20944595   -1.00000000    1.60000002    0.01000000
   19.21277809   -1.00000000    1.36000001    0.01000000
   19.21583366   -1.00000000    2.15000010    0.01000000
   19.21916771   -1.00000000    4.90999985    0.03000000
   19.22222328   -1.00000000    4.90999985    0.07000000
   19.22555542   -1.00000000    4.90999985    0.11000000
   19.23194504   -1.00000000    4.90999985    0.73000002
   19.23583412   -1.00000000    4.90999985    1.48000002
   19.23916626  120.16500092    4.90999985    1.50000000
   19.24055672  136.06900024    4.90999985    2.01999998
   19.24277878  120.33200073    4.90999985    2.34999990
   19.24611092  111.50199890    4.90999985    2.66000009
   19.24916649  106.45099640    4.90999985    2.25000000
   19.25250053  113.29199982    4.90999985    2.30999994
   19.25555611   -1.00000000    4.90999985    1.48000002
   19.25888824   -1.00000000    4.90999985    0.67000002
   19.26194382   -1.00000000    4.90999985    0.98000002
   19.26527786   -1.00000000    4.90999985    0.25000000
   19.26861000   -1.00000000    4.90999985    0.15000001
   19.27861023   -1.00000000    4.90999985    0.23000000
   19.28194427   -1.00000000    4.90999985    0.28000000
   19.28527641   -1.00000000    4.90999985    0.25000000
   19.28833199   -1.00000000    4.90999985    0.23000000
   19.29166603   -1.00000000    4.90999985    0.25000000
   19.29472160   -1.00000000    4.90999985    0.17000000
   19.29805565   -1.00000000    4.90999985    0.11000000
   19.30111122   -1.00000000    4.90999985    0.09000000
   19.30444336   -1.00000000    4.90999985    0.05000000
   19.30805397   -1.00000000    4.90999985    0.03000000
   19.31138802   -1.00000000    4.90999985    0.03000000
   19.32166672   -1.00000000    4.90999985    0.50000000
   19.32472229   -1.00000000    4.90999985    0.51999998
   19.32805634   80.79689789    4.90999985    0.88000000
   19.33111191   -1.00000000    4.90999985    1.98000002
   19.33444595  169.72999573    4.90999985    0.81999999
   19.33777809   93.04810333    4.90999985    2.53999996
   19.34055710  102.47299957    4.90999985    2.73000002
   19.34111214  116.14800262    4.90999985    2.73000002
   19.34444427   95.60780334    4.90999985    2.46000004
   19.34749985  102.08200073    4.90999985    2.69000006
   19.35083389  104.52200317    4.90999985    2.73000002
   19.35388947   -1.00000000    4.90999985    2.42000008
   19.36444473   -1.00000000    4.90999985    0.05000000
   19.36777878   -1.00000000    4.90999985    0.07000000
   19.37083435   -1.00000000    4.90999985    0.07000000
   19.37444496   -1.00000000    4.90999985    0.05000000
   19.37777710   -1.00000000    4.90999985    0.05000000
   19.38083267   -1.00000000    4.90999985    0.07000000
   19.38416672   -1.00000000    4.90999985    0.05000000
   19.38722229   -1.00000000    4.90999985    0.07000000
   19.39055634   -1.00000000    4.90999985    0.09000000
   19.39361191   -1.00000000    4.90999985    0.07000000
   19.39694405   -1.00000000    4.90999985    0.07000000
   19.40722275  127.19599915    4.90999985    1.00000000
   19.41055489  107.15399933    4.90999985    2.11999989
   19.41361046  102.75399780    4.90999985    2.71000004
   19.41694450  100.24099731    4.90999985    2.78999996
   19.42027664  104.44200134    4.90999985    2.76999998
   19.42333221  102.82199860    3.30999994    2.73000002
   19.42666626   97.04570007    3.82999992    2.73000002
   19.42972183   95.64160156    4.90999985    2.71000004
   19.43305397  168.92100525    4.90999985    2.42000008
   19.43610954  178.32699585    4.90999985    2.28999996
   19.43944359   99.30180359    4.90999985    2.55999994
   19.44055557   96.08540344    4.90999985    2.57999992
   19.44610977   96.08540344    4.90999985    2.59999990
   19.45027924   89.16829681    4.90999985    2.73000002
   19.45333481   97.35119629    1.60000002    2.71000004
   19.45666695   94.05110168    1.55999994    2.69000006
   19.45972252   93.22859955    3.39000010    2.69000006
   19.46305656  102.06400299    4.90999985    2.71000004
   19.46611214   90.88269806    4.90999985    2.50000000
   19.46944427  100.35299683    4.90999985    2.64000010
   19.47277832  108.71700287    4.90999985    2.64000010
   19.47389030   93.94640350    4.90999985    2.57999992
   19.47611237   90.48229980    4.90999985    2.69000006
   19.47944450  106.52500153    4.90999985    2.44000006
   19.48250008  107.84899902    4.90999985    2.46000004
   19.48888969  107.84899902    4.90999985    1.94000006
   19.49305534   -1.00000000    4.90999985    1.71000004
   19.49611092  259.14700317    4.90999985    1.73000002
   19.49944496   77.89949799    4.90999985    1.85000002
   19.50277710   -1.00000000    4.90999985    1.80999994
   19.50583267   -1.00000000    4.90999985    1.48000002
   19.50944519   -1.00000000    4.90999985    1.05999994
   19.51277733   -1.00000000    4.90999985    0.94000000
   19.51583290   -1.00000000    4.90999985    0.89999998
   19.51916695   -1.00000000    4.90999985    0.89999998
   19.52222252   -1.00000000    4.90999985    0.89999998
   19.52583313   -1.00000000    4.90999985    0.81999999
   19.53583336   -1.00000000    4.90999985    0.79000002
   19.53888893   -1.00000000    4.90999985    0.73000002
   19.54249954   -1.00000000    4.90999985    0.69000000
   19.54583359   -1.00000000    4.90999985    0.64999998
   19.54888916   -1.00000000    4.90999985    0.70999998
   19.55222130   -1.00000000    4.90999985    0.79000002
   19.55527687   -1.00000000    4.90999985    0.94000000
   19.55861092   -1.00000000    4.90999985    1.07000005
   19.56166649   -1.00000000    4.90999985    1.13000000
   19.56499863   -1.00000000    4.90999985    1.19000006
   19.56805611  143.00100708    4.90999985    0.67000002
   19.57472229  143.00100708    4.90999985    2.50000000
   19.57861137  104.83599854    4.90999985    2.78999996
   19.58194542  109.98000336    4.90999985    2.78999996
   19.58527756  107.92700195    4.90999985    2.17000008
   19.58833313  102.19999695    4.90999985    2.64000010
   19.59166718  162.77799988    4.90999985    2.64000010
   19.59472275   -1.00000000    4.90999985    2.64000010
   19.59805679  154.81399536    4.90999985    1.01999998
   19.60111237  107.28199768    4.90999985    2.67000008
   19.60444450  104.23300171    4.90999985    2.67000008
   19.60722351   98.67680359    4.90999985    2.69000006
   19.62416649  106.16899872    4.90999985    2.48000002
   19.62805557  106.16899872    4.90999985    2.66000009
   19.63222313  113.02600098    4.90999985    2.71000004
   19.63555527  112.10800171    4.90999985    2.59999990
   19.63861084  113.94599915    4.90999985    2.30999994
   19.64055634  124.11199951    4.90999985    2.36999989
   19.64249992  106.36399841    4.90999985    2.42000008
   19.64583397  102.25499725    4.90999985    2.71000004
   19.64888954  128.43600464    4.90999985    2.46000004
   19.65222168  139.73599243    4.90999985    2.36999989
   19.65527725  249.58200073    4.90999985    2.23000002
   19.65861130   -1.00000000    4.90999985    1.89999998
   19.66194344   -1.00000000    4.90999985    1.48000002
   19.66499901   -1.00000000    4.90999985    1.44000006
   19.67111015   -1.00000000    4.90999985    1.28999996
   19.67499924   -1.00000000    4.90999985    1.07000005
   19.67833328   -1.00000000    4.90999985    1.05999994
   19.68166542   -1.00000000    4.90999985    0.92000002
   19.68472099   -1.00000000    4.90999985    1.07000005
   19.68805504   -1.00000000    4.90999985    1.28999996
   19.69111061   -1.00000000    4.90999985    1.58000004
   19.69444275   -1.00000000    4.90999985    1.25000000
   19.69749832   -1.00000000    4.90999985    0.76999998
   19.70083427   -1.00000000    4.90999985    0.79000002
   19.70388985   -1.00000000    4.90999985    0.75000000
   19.70722389   -1.00000000    4.90999985    0.86000001
   19.71389008   -1.00000000    4.90999985    1.75000000
   19.71805573   -1.00000000    4.90999985    1.11000001
   19.72111130  313.27200317    4.90999985    1.33000004
   19.72444534  144.05999756    4.90999985    1.98000002
   19.72750092  272.58300781    4.90999985    2.25000000
   19.73083305  131.96299744    4.90999985    1.88000000
   19.73416710  144.05400085    4.90999985    2.28999996
   19.73722267  131.39999390    4.90999985    2.11999989
   19.74055672  121.68699646    4.90999985    2.36999989
   19.74111176  111.94000244    4.90999985    2.36999989
   19.74388885  116.27400208    4.90999985    2.15000010
   19.74722290   97.75260162    4.90999985    2.32999992
   19.75027847  112.63600159    4.90999985    2.48000002
   19.75666618  112.63600159    4.90999985    2.46000004
   19.76083374  309.61999512    4.90999985    2.26999998
   19.76388931  112.25000000    4.90999985    2.30999994
   19.76722145  167.65699768    4.90999985    2.05999994
   19.77055550  208.10000610    4.90999985    1.83000004
   19.77361107  136.70500183    4.90999985    2.17000008
   19.77444458  146.41600037    4.90999985    2.25000000
   19.77722168  116.14800262    4.90999985    2.32999992
   19.78055573  144.14799500    4.90999985    2.40000010
   19.78361130  198.59899902    4.90999985    1.80999994
   19.78694344  295.17700195    4.90999985    1.89999998
   19.79027748  210.66000366    4.90999985    1.85000002
   19.79333305  131.94400024    4.90999985    1.91999996
   19.79944420  131.94400024    4.90999985    2.28999996
   19.80360985  143.83399963    4.90999985    2.17000008
   19.80694389  200.30299377    4.90999985    1.96000004
   19.80777740  301.28500366    4.90999985    1.88000000
   19.81027794  269.11599731    4.90999985    2.05999994
   19.81361008  180.97599792    4.90999985    1.98000002
   19.81666756   -1.00000000    4.90999985    1.58000004
   19.82000160   -1.00000000    4.90999985    1.73000002
   19.82333374  251.77999878    4.90999985    1.78999996
   19.82638931  175.81799316    4.90999985    2.32999992
   19.82972336  148.28399658    4.90999985    2.23000002
   19.83277893  122.20899963    4.90999985    2.28999996
   19.83611107  153.14799500    4.90999985    2.46000004
   19.84250069  153.14799500    4.90999985    2.51999998
   19.84638977   -1.00000000    4.90999985    2.11999989
   19.84972191  241.08299255    4.90999985    0.98000002
   19.85305595   -1.00000000    4.90999985    2.23000002
   19.85611153  179.06799316    4.90999985    1.19000006
   19.85944557  140.50999451    4.90999985    2.00000000
   19.86250114  141.60800171    4.90999985    2.21000004
   19.86583328  210.62800598    4.90999985    1.78999996
   19.86888885   -1.00000000    4.90999985    1.78999996
   19.87222290   -1.00000000    4.90999985    1.66999996
   19.87444496  298.76300049    4.90999985    1.83000004
   19.87555504  194.13600159    4.90999985    1.86000001
   19.87888908  131.51100159    4.90999985    1.94000006
   19.88527679  131.51100159    4.90999985    2.53999996
   19.88944435  116.76100159    4.90999985    2.51999998
   19.89249992  118.09100342    4.90999985    2.48000002
   19.89583397  103.48100281    4.90999985    2.25000000
   19.89888954  112.03500366    4.90999985    2.36999989
   19.90222168  109.60600281    4.90999985    2.50000000
   19.90555573   98.28410339    4.90999985    2.46000004
   19.90777779  103.84100342    4.90999985    2.48000002
   19.90888786   96.04450226    4.90999985    2.48000002
   19.91222191  111.59200287    4.90999985    2.48000002
   19.91527748  107.70300293    4.90999985    2.46000004
   19.91860962   99.23539734    4.90999985    2.44000006
   19.92194366  108.67400360    4.90999985    2.53999996
   19.92805481  108.67400360    4.90999985    2.61999989
   19.93222237   95.23210144    4.90999985    2.64000010
   19.93555450  100.26100159    4.90999985    2.66000009
   19.93861008  100.68199921    4.90999985    2.57999992
   19.94111061   99.72619629    4.90999985    2.64000010
   19.94222069  103.58200073    4.90999985    2.64000010
   19.94555473  105.97499847    4.90999985    2.59999990
   19.94888878  111.97799683    4.90999985    2.51999998
   19.95194435  112.19300079    4.90999985    2.57999992
   19.95527840  126.90000153    4.90999985    2.50000000
   19.95833397  100.07299805    4.90999985    2.53999996
   19.96166801  113.84600067    4.90999985    2.51999998
   19.96472359  141.93800354    4.90999985    2.40000010
   19.97083473  141.93800354    4.90999985    2.07999992
   19.97500038  266.88198853    4.90999985    1.94000006
   19.97833443  198.52900696    4.90999985    2.01999998
   19.98139000  215.85699463    4.90999985    2.11999989
   19.98472214  320.61999512    4.90999985    2.09999990
   19.98777771  378.27801514    4.90999985    1.89999998
   19.99111176   88.32009888    4.90999985    1.76999998
   19.99444389   84.93150330    4.90999985    1.89999998
   19.99749947   -1.00000000    4.90999985    1.61000001
   20.00083351   -1.00000000    4.90999985    1.51999998
   20.00388908   -1.00000000    4.90999985    1.28999996
   20.00722313   -1.00000000    4.90999985    1.23000002
   20.01777840   -1.00000000    4.90999985    1.30999994
   20.02111053   -1.00000000    4.90999985    1.26999998
   20.02416611   -1.00000000    4.90999985    1.30999994
   20.02750015   -1.00000000    4.90999985    1.39999998
   20.03055573   -1.00000000    4.90999985    1.34000003
   20.03388786   -1.00000000   -1.00000000   -1.00000000
   20.03722191  129.59800720    4.90999985    2.07999992
   20.04027748  152.04400635    4.90999985    2.26999998
   20.04111099  182.19599915    4.90999985    2.28999996
   20.04388809  107.84100342    4.90999985    2.11999989
   20.04722214   -1.00000000    4.90999985    1.53999996
   20.05055428   -1.00000000    4.90999985    1.33000004
   20.06055450   -1.00000000    4.90999985    0.38000000
   20.06388855   -1.00000000    4.90999985    0.34000000
   20.06722260   -1.00000000    4.90999985    0.38000000
   20.07027817   -1.00000000    4.90999985    0.34000000
   20.07361221   -1.00000000    4.90999985    0.28000000
   20.07694626   -1.00000000    4.90999985    0.30000001
   20.08027840   -1.00000000    4.90999985    0.44000000
   20.08333397   -1.00000000    4.90999985    0.51999998
   20.08666801   -1.00000000    4.90999985    0.47999999
   20.08972359   -1.00000000    4.90999985    0.52999997
   20.09305573   -1.00000000    4.90999985    0.55000001
   20.10361099   -1.00000000    4.90999985    0.36000001
   20.10666656   -1.00000000    4.90999985    0.38000000
   20.11027908   -1.00000000    4.90999985    0.20999999
   20.11361122   -1.00000000    4.90999985    0.17000000
   20.11666679   -1.00000000    4.90999985    0.15000001
   20.12000084   -1.00000000    4.90999985    0.15000001
   20.12305641   -1.00000000    4.90999985    0.17000000
   20.12638855   -1.00000000    4.90999985    0.23000000
   20.12972260   -1.00000000    4.90999985    0.34000000
   20.13277817   -1.00000000    4.90999985    0.44000000
   20.13611031   -1.00000000    4.90999985    0.56999999
   20.14638901   -1.00000000    4.90999985    0.73000002
   20.14972115   -1.00000000    4.90999985    0.83999997
   20.15277672   -1.00000000    4.90999985    0.61000001
   20.15611076   -1.00000000    4.90999985    0.56999999
   20.15916634   -1.00000000    4.90999985    0.56999999
   20.16250038   -1.00000000    4.90999985    0.52999997
   20.16555595   -1.00000000    4.90999985    0.38000000
   20.16888809   -1.00000000    4.90999985    0.34000000
   20.17194366   -1.00000000    4.90999985    0.25999999
   20.17555428   -1.00000000    4.90999985    0.34000000
   20.17888832   -1.00000000    4.90999985    0.38000000
   20.18916512   -1.00000000    4.90999985    0.36000001
   20.19249916   -1.00000000    4.90999985    0.44000000
   20.19555473   -1.00000000    4.90999985    0.40000001
   20.19888878   -1.00000000    4.90999985    0.38000000
   20.20194435   -1.00000000    4.90999985    0.46000001
   20.20527840   -1.00000000    4.90999985    0.31999999
   20.20861244   -1.00000000    4.90999985    0.20999999
   20.21194458   -1.00000000    4.90999985    0.15000001
   20.21500015   -1.00000000    4.90999985    0.17000000
