    HOUR (UT)   FLARE FACTOR    SKY TESTER    SUN TESTER
   11.09555531   -1.00000000   -1.00000000   -1.00000000
   11.11500072  164.38600159    4.51000023    2.48000002
   11.11972237  165.24600220    4.53999996    2.48000002
   11.12305546  163.94900513    4.46999979    2.50000000
   11.12611103  145.48199463    4.48999977    2.48000002
   11.12972260  144.64700317    4.53999996    2.48000002
   11.13305569  146.75799561    4.65999985    2.48000002
   11.13611126  158.81799316    4.67999983    2.50000000
   11.13944435  172.71899414    4.61999989    2.50000000
   11.14249992  151.32699585    4.71999979    2.50000000
   11.14583302  179.01899719    4.80999994    2.50000000
   11.14833355  174.81700134    4.82999992    2.50000000
   11.14944458  172.35899353    4.82999992    2.50000000
   11.15277767  169.86300659    4.86999989    2.50000000
   11.15583324  227.18800354    4.90999985    2.50000000
   11.15916634  204.43699646    4.90999985    2.50000000
   11.16249943  182.20300293    4.90999985    2.50000000
   11.16555500  167.72500610    4.90999985    2.50000000
   11.16888905  175.41700745    4.90999985    2.50000000
   11.17361164  156.48100281    4.88999987    2.50000000
   11.17694473  177.59800720    4.88999987    2.50000000
   11.18027782  178.07600403    4.80999994    2.50000000
   11.18166733  173.48399353    4.84999990    2.51999998
   11.18361092  194.99699402    4.90999985    2.51999998
   11.18694496  181.23399353    4.82999992    2.50000000
   11.19000053  181.58099365    4.76000023    2.50000000
   11.19333363  176.66600037    4.69999981    2.51999998
   11.19666672  179.21099854    4.67999983    2.50000000
   11.19999981  185.47399902    4.63999987    2.51999998
   11.20305538  181.80999756    4.57999992    2.51999998
   11.20638847  179.06599426    4.65999985    2.51999998
   11.20972157  174.57800293    4.67999983    2.51999998
   11.21277714  172.89999390    4.65999985    2.53999996
   11.21500015  179.84700012    4.67999983    2.51999998
   11.21638870  193.19599915    4.61999989    2.51999998
   11.21972179  183.71000671    4.69999981    2.51999998
   11.22305489  173.10200500    4.76000023    2.51999998
   11.22611046  156.20199585    4.76000023    2.51999998
   11.22944355  199.12699890    4.73999977    2.51999998
   11.23249912  188.15400696    4.82999992    2.53999996
   11.23583317  195.43499756    4.90999985    2.53999996
   11.23916721  194.78500366    4.90999985    2.53999996
   11.24222279  190.91000366    4.90999985    2.53999996
   11.24555588  191.27299500    4.90999985    2.53999996
   11.24833393  184.31500244    4.90999985    2.53999996
   11.24916649  183.71499634    4.90999985    2.53999996
   11.25249958  182.84700012    4.90999985    2.53999996
   11.25583363  184.90600586    4.90999985    2.53999996
   11.25888920  186.95799255    4.90999985    2.53999996
   11.26222229  162.29600525    4.90999985    2.53999996
   11.26527786  183.53700256    4.88999987    2.53999996
   11.26861095  173.58799744    4.80999994    2.53999996
   11.27194405  181.39300537    4.76000023    2.53999996
   11.27499962  178.29200745    4.76000023    2.55999994
   11.27833271  189.57800293    4.76000023    2.55999994
   11.28166676  205.71899414    4.73999977    2.55999994
   11.28194427  172.48100281    4.73999977    2.55999994
   11.28527832  155.47099304    4.76000023    2.53999996
   11.28861141  182.19099426    4.73999977    2.53999996
   11.29166698  177.87600708    4.73999977    2.55999994
   11.29500008  184.63999939    4.71999979    2.53999996
   11.29805565  170.57499695    4.80999994    2.53999996
   11.30138874  176.53700256    4.84999990    2.55999994
   11.30472279  188.75199890    4.88999987    2.53999996
   11.30777836  182.69900513    4.90999985    2.55999994
   11.31111145  161.97599792    4.90999985    2.55999994
   11.31444454  180.69700623    4.90999985    2.55999994
   11.31500053  186.40499878    4.90999985    2.53999996
   11.31777763  200.60800171    4.90999985    2.55999994
   11.32111073  178.03799438    4.90999985    2.55999994
   11.32444477  175.58000183    4.90999985    2.55999994
   11.32750034  188.82600403    4.90999985    2.55999994
   11.33083344  174.17999268    4.90999985    2.53999996
   11.33416653  169.62800598    4.90999985    2.55999994
   11.33722210  157.48300171    4.90999985    2.55999994
   11.34055519  162.38999939    4.90999985    2.55999994
   11.34361076  143.75999451    4.90999985    2.55999994
   11.34694386  181.30400085    4.90999985    2.55999994
   11.34833336  177.66900635    4.90999985    2.55999994
   11.35055637  180.61000061    4.90999985    2.55999994
   11.35388947  156.93800354    4.90999985    2.55999994
   11.35722256  156.67999268    4.90999985    2.55999994
   11.36027813  165.97399902    4.90999985    2.55999994
   11.36361122  174.36500549    4.90999985    2.55999994
   11.36694431  159.39700317    4.90999985    2.55999994
   11.36999989  177.74099731    4.90999985    2.55999994
   11.37333393  162.30599976    4.90999985    2.55999994
   11.37638855  169.95599365    4.90999985    2.55999994
   11.37972260  164.64300537    4.90999985    2.55999994
   11.38166714  167.63000488    4.90999985    2.55999994
   11.38333321  180.82899475    4.90999985    2.55999994
   11.38666630  164.91700745    4.90999985    2.55999994
   11.39000034  159.42799377    4.90999985    2.55999994
   11.39305496  165.65899658    4.90999985    2.55999994
   11.39638901  160.73100281    4.90999985    2.57999992
   11.39972210  161.71600342    4.90999985    2.55999994
   11.40277767  150.56500244    4.90999985    2.55999994
   11.40611076  187.70599365    4.90999985    2.55999994
   11.40916634  153.36300659    4.90999985    2.55999994
   11.41249943  166.58799744    4.90999985    2.55999994
   11.41499996  156.58500671    4.90999985    2.57999992
   11.41611099  167.97999573    4.90999985    2.57999992
   11.41944504  161.62100220    4.90999985    2.57999992
   11.42277813  154.33900452    4.90999985    2.57999992
   11.42583370  157.36500549    4.90999985    2.57999992
   11.42916679  151.82800293    4.90999985    2.55999994
   11.43249989  158.21200562    4.90999985    2.57999992
   11.43555546  141.53399658    4.90999985    2.57999992
   11.43888855  144.30799866    4.90999985    2.57999992
   11.44194412  157.48699951    4.90999985    2.57999992
   11.44527817  153.41900635    4.90999985    2.57999992
   11.44833374  144.40400696    4.90999985    2.59999990
   11.44888878  155.95300293    4.90999985    2.57999992
   11.45222187  146.61500549    4.90999985    2.57999992
   11.45555496  154.35099792    4.90999985    2.59999990
   11.45861053  141.71499634    4.90999985    2.57999992
   11.46194458  148.65499878    4.90999985    2.57999992
   11.46500015  156.22999573    4.90999985    2.59999990
   11.46833324  156.68499756    4.90999985    2.59999990
   11.47166634  149.66700745    4.90999985    2.59999990
   11.47472191  148.92100525    4.90999985    2.57999992
   11.47805500  144.65100098    4.90999985    2.59999990
   11.48138809  148.97000122    4.90999985    2.57999992
   11.48166656  144.26499939    4.90999985    2.59999990
   11.48500061  137.70300293    4.90999985    2.59999990
   11.48833370  143.86900330    4.90999985    2.61999989
   11.49138927  151.76899719    4.90999985    2.59999990
   11.49472237  151.30499268    4.90999985    2.59999990
   11.49805546  136.06700134    4.90999985    2.59999990
   11.50111103  139.73199463    4.90999985    2.61999989
   11.50444412  139.88400269    4.90999985    2.59999990
   11.50749969  147.54600525    4.90999985    2.59999990
   11.51083374  137.69999695    4.90999985    2.59999990
   11.51416683  151.51899719    4.90999985    2.61999989
   11.51500034  134.55200195    4.90999985    2.61999989
   11.51777744  138.63699341    4.90999985    2.59999990
   11.52111053  146.82200623    4.90999985    2.61999989
   11.52416611  134.46899414    4.90999985    2.61999989
   11.52750015  134.69599915    4.90999985    2.61999989
   11.53083324  134.86700439    4.90999985    2.59999990
   11.53388977  136.60699463    4.90999985    2.61999989
   11.53722286  133.57200623    4.90999985    2.61999989
   11.54027843  144.84899902    4.90999985    2.61999989
   11.54361153  133.03900146    4.90999985    2.61999989
   11.54694462  142.39999390    4.90999985    2.64000010
   11.54833412  133.85499573    4.90999985    2.61999989
   11.55055618  138.44400024    4.90999985    2.61999989
   11.55388927  131.54600525    4.90999985    2.64000010
   11.55694485  142.26899719    4.90999985    2.61999989
   11.56027794  142.59399414    4.90999985    2.64000010
   11.56361103  139.89999390    4.90999985    2.61999989
   11.56666660  124.02100372    4.90999985    2.61999989
   11.56999969  126.07499695    4.90999985    2.61999989
   11.57305527  140.83900452    4.90999985    2.61999989
   11.57638836  137.53900146    4.90999985    2.61999989
   11.57972240  138.19099426    4.90999985    2.61999989
   11.58166695  145.61099243    4.90999985    2.61999989
   11.58333302  142.14999390    4.90999985    2.64000010
   11.58666611  142.42999268    4.90999985    2.61999989
   11.58972168  137.57899475    4.90999985    2.61999989
   11.59305477  146.62699890    4.90999985    2.64000010
   11.59638882  141.42500305    4.90999985    2.61999989
   11.59944439  141.20199585    4.90999985    2.61999989
   11.60277843  147.29499817    4.90999985    2.64000010
   11.60583401  140.49699402    4.90999985    2.61999989
   11.60916710  143.18299866    4.90999985    2.61999989
   11.61250019  128.86099243    4.90999985    2.61999989
   11.61500072  144.60899353    4.90999985    2.61999989
   11.61611176  147.73399353    4.90999985    2.61999989
   11.61944485  136.61999512    4.90999985    2.61999989
   11.62250042  135.74899292    4.90999985    2.64000010
   11.62583351  135.69599915    4.90999985    2.64000010
   11.62916660  136.90299988    4.90999985    2.64000010
   11.63222218  134.49699402    4.90999985    2.64000010
   11.63555527  138.75799561    4.90999985    2.64000010
   11.63861084  134.35000610    4.90999985    2.64000010
   11.64194393  143.57299805    4.90999985    2.64000010
   11.64527798  125.59400177    4.90999985    2.64000010
   11.64861107  137.14900208    4.90999985    2.64000010
   11.64888859  141.51600647    4.90999985    2.64000010
   11.65222168  133.68200684    4.90999985    2.64000010
   11.65527725  131.32499695    4.90999985    2.64000010
   11.65861034  137.96899414    4.90999985    2.64000010
   11.66194439  141.20700073    4.90999985    2.64000010
   11.66499996  139.15299988    4.90999985    2.64000010
   11.66833401  135.09199524    4.90999985    2.64000010
   11.67138958  134.33700562    4.90999985    2.64000010
   11.67472267  144.21699524    4.90999985    2.64000010
   11.67805576  140.13600159    4.90999985    2.64000010
   11.68111134  133.60499573    4.90999985    2.64000010
   11.68194485  136.57099915    4.90999985    2.64000010
   11.68472195  143.38499451    4.90999985    2.64000010
   11.68805599  138.15899658    4.90999985    2.64000010
   11.69111156  136.18800354    4.90999985    2.64000010
   11.69444466  133.25900269    4.90999985    2.64000010
   11.69777775  139.31599426    4.90999985    2.64000010
   11.70111084  134.14199829    4.90999985    2.64000010
   11.70416641  125.21299744    4.90999985    2.64000010
   11.70749950  131.32699585    4.90999985    2.66000009
   11.71055508  140.05000305    4.90999985    2.66000009
   11.71388912  136.50599670    4.90999985    2.64000010
   11.71527767  143.00100708    4.90999985    2.66000009
   11.71749973  131.06599426    4.90999985    2.66000009
   11.72083282  130.82899475    4.90999985    2.66000009
   11.72388840  134.55000305    4.90999985    2.66000009
   11.72722149  133.88099670    4.90999985    2.66000009
   11.73055553  131.86300659    4.90999985    2.66000009
   11.73361111  141.27900696    4.90999985    2.67000008
   11.73694515  136.88400269    4.90999985    2.66000009
   11.74027824  142.53700256    4.90999985    2.66000009
   11.74333382  142.30200195    4.90999985    2.66000009
   11.74666691  132.80599976    4.90999985    2.66000009
   11.74833393  141.42700195    4.90999985    2.67000008
   11.75027752  131.87500000    4.90999985    2.66000009
   11.75361156  132.80299377    4.90999985    2.66000009
   11.75666714  136.30400085    4.90999985    2.66000009
   11.76000023  134.94900513    4.90999985    2.66000009
   11.76333332  138.18499756    4.90999985    2.66000009
   11.76638889  128.06599426    4.90999985    2.66000009
   11.76972198  128.14500427    4.90999985    2.66000009
   11.77277756  133.67900085    4.90999985    2.67000008
   11.77611065  126.89199829    4.90999985    2.66000009
   11.77944374  122.41200256    4.90999985    2.66000009
   11.78194427  135.93899536    4.90999985    2.66000009
   11.78305531  125.34400177    4.90999985    2.67000008
   11.78638935   92.83889771    4.90999985    2.67000008
   11.78944492  127.38400269    4.90999985    2.66000009
   11.79277802  126.37799835    4.90999985    2.67000008
   11.79611111  131.57099915    4.90999985    2.67000008
   11.79916668  123.24900055    4.90999985    2.66000009
   11.80249977  128.46699524    4.90999985    2.67000008
   11.80555534  126.62899780    4.90999985    2.67000008
   11.80888939  126.80699921    4.90999985    2.66000009
   11.81222248  127.51799774    4.90999985    2.67000008
   11.81527805  123.15000153    4.90999985    2.66000009
   11.81583309  126.86699677    4.90999985    2.66000009
   11.81916618  132.51699829    4.90999985    2.67000008
   11.82222176  126.49800110    4.90999985    2.67000008
   11.82555580  132.88200378    4.90999985    2.66000009
   11.82888889  126.70500183    4.90999985    2.67000008
   11.83194447  133.99000549    4.90999985    2.67000008
   11.83527756  134.38099670    4.90999985    2.67000008
   11.83833313  132.27400208    4.90999985    2.67000008
   11.84166622  133.43600464    4.90999985    2.67000008
   11.84499931  128.36500549    4.90999985    2.67000008
   11.84805489  135.95500183    4.90999985    2.67000008
   11.84861088  132.63000488    4.90999985    2.67000008
   11.85194492  133.76300049    4.90999985    2.69000006
   11.85500050  126.58200073    4.90999985    2.67000008
   11.85833359  133.19799805    4.90999985    2.67000008
   11.86166668  138.99000549    4.90999985    2.67000008
   11.86472225  132.10400391    4.90999985    2.67000008
   11.86805534  133.72099304    4.90999985    2.67000008
   11.87138939  128.72799683    4.90999985    2.67000008
   11.87444496  132.11799622    4.90999985    2.69000006
   11.87777805  125.09600067    4.90999985    2.67000008
   11.88083363  138.38800049    4.90999985    2.69000006
   11.88194466  130.85800171    4.90999985    2.67000008
   11.88472176  129.33999634    4.90999985    2.69000006
   11.88777733  136.32200623    4.90999985    2.69000006
   11.89111137  133.37399292    4.90999985    2.69000006
   11.89444447  125.87699890    4.90999985    2.69000006
   11.89750004  126.68399811    4.90999985    2.69000006
   11.90083313  120.43800354    4.90999985    2.69000006
   11.90388870  126.31700134    4.90999985    2.69000006
   11.90722179  132.03700256    4.90999985    2.69000006
   11.91055489  128.24400330    4.90999985    2.71000004
   11.91361046  127.14600372    4.90999985    2.69000006
   11.91527748  131.17500305    4.90999985    2.69000006
   11.91750050  131.33500671    4.90999985    2.69000006
   11.92055607  133.38099670    4.90999985    2.69000006
   11.92388916  126.55100250    4.90999985    2.69000006
   11.92722225  125.50000000    4.90999985    2.69000006
   11.93027782  126.29299927    4.90999985    2.69000006
   11.93361092  127.61799622    4.90999985    2.69000006
   11.93694496  123.13800049    4.90999985    2.71000004
   11.94000053  126.43099976    4.90999985    2.69000006
   11.94333363  126.48300171    4.90999985    2.69000006
   11.94638920  126.55300140    4.90999985    2.69000006
   11.94861126  128.36199951    4.90999985    2.69000006
   11.95027733  130.51600647    4.90999985    2.71000004
   11.95333290  123.76899719    4.90999985    2.69000006
   11.95666695  126.04199982    4.90999985    2.71000004
   11.96000004  120.71399689    4.90999985    2.69000006
   11.96305561  119.65299988    4.90999985    2.69000006
   11.96638870  122.50599670    4.90999985    2.69000006
   11.96972179  116.47799683    4.90999985    2.69000006
   11.97277737  120.46900177    4.90999985    2.69000006
   11.97611046  119.91300201    4.90999985    2.71000004
   11.97916603  116.97299957    4.90999985    2.69000006
   11.98194408  120.89600372    4.90999985    2.69000006
   11.98305511  122.04699707    4.90999985    2.69000006
   11.98611164  118.73300171    4.90999985    2.69000006
   11.98944473  123.37500000    4.90999985    2.69000006
   11.99277782  114.48699951    4.90999985    2.69000006
   11.99583340  127.34500122    4.90999985    2.71000004
   11.99916649  125.92600250    4.90999985    2.69000006
   12.00249958  124.18199921    4.90999985    2.69000006
   12.00555515  123.79699707    4.90999985    2.71000004
   12.00888920  115.17700195    4.90999985    2.69000006
   12.01194477  120.77700043    4.90999985    2.71000004
   12.01527786  116.60099792    4.90999985    2.69000006
   12.01583290  121.02600098    4.90999985    2.69000006
   12.01888847  116.03500366    4.90999985    2.69000006
   12.02222157  106.43099976    4.90999985    2.69000006
   12.02555561  122.68399811    4.90999985    2.69000006
   12.02861118  124.43699646    4.90999985    2.69000006
   12.03194427  116.77799988    4.90999985    2.69000006
   12.03527832  122.84400177    4.90999985    2.69000006
   12.03833389  123.40100098    4.90999985    2.69000006
   12.04166698  120.60700226    4.90999985    2.69000006
   12.04472256  120.73300171    4.90999985    2.69000006
   12.04805565  124.20200348    4.90999985    2.71000004
   12.04861164  122.81099701    4.90999985    2.71000004
   12.05166721  126.49900055    4.90999985    2.71000004
   12.05472279  131.69799805    4.90999985    2.69000006
   12.05805588  124.88600159    4.90999985    2.69000006
   12.06138897  126.88500214    4.90999985    2.69000006
   12.06444454  120.70700073    4.90999985    2.69000006
   12.06777763  126.29399872    4.90999985    2.69000006
   12.07111073  124.43399811    4.90999985    2.71000004
   12.07416630  116.62899780    4.90999985    2.69000006
   12.07750034  121.93399811    4.90999985    2.69000006
   12.08055592  130.30400085    4.90999985    2.71000004
   12.08194447  127.58499908    4.90999985    2.69000006
   12.08444405  125.02200317    4.90999985    2.71000004
   12.08777714  131.29499817    4.90999985    2.71000004
   12.09083271  128.16200256    4.90999985    2.69000006
   12.09416676  128.41700745    4.90999985    2.71000004
   12.09722233  137.53999329    4.90999985    2.71000004
   12.10055637  128.70100403    4.90999985    2.71000004
   12.10388947  132.44200134    4.90999985    2.71000004
   12.10694504  128.26800537    4.90999985    2.69000006
   12.11027813  144.50300598    4.90999985    2.69000006
   12.11361122  140.83999634    4.90999985    2.71000004
   12.13166714  192.20500183    4.90999985    2.71000004
   12.13361073  175.17100525    4.90999985    2.71000004
   12.13666630  166.82499695    4.90999985    2.69000006
   12.14000034  191.78700256    4.90999985    2.71000004
   12.14333344  207.34700012    4.90999985    2.69000006
   12.14638901  231.39999390    4.90999985    2.71000004
   12.14972210  218.54699707    4.90999985    2.71000004
   12.15277767  209.43699646    4.90999985    2.71000004
   12.15611076  213.21299744    4.90999985    2.69000006
   12.15944386  223.36300659    4.90999985    2.71000004
   12.16249943  235.32499695    4.90999985    2.71000004
   12.16499996  217.01800537    4.90999985    2.71000004
   12.16611099  170.37500000    4.90999985    2.71000004
   12.16944504  208.39300537    4.90999985    2.69000006
   12.17277813  208.96600342    4.90999985    2.71000004
   12.17583370  220.87100220    4.90999985    2.73000002
   12.17916679  234.56300354    4.90999985    2.71000004
   12.18222237  233.09700012    4.90999985    2.73000002
   12.18555546  248.69599915    4.90999985    2.71000004
   12.18888855  223.50900269    4.90999985    2.71000004
   12.19194412  245.17399597    4.90999985    2.71000004
   12.19527817  245.89999390    4.90999985    2.71000004
   12.19833374  195.51300049    4.90999985    2.73000002
   12.19888878  235.71099854    4.90999985    2.71000004
   12.20222187  220.84700012    4.90999985    2.71000004
   12.20555496  237.01800537    4.90999985    2.71000004
   12.20861053  202.09899902    4.90999985    2.71000004
   12.21194458  200.92100525    4.90999985    2.71000004
   12.21527767  233.13900757    4.90999985    2.73000002
   12.21833324  188.48699951    4.90999985    2.73000002
   12.22166634  231.32099915    4.90999985    2.71000004
   12.22499943  168.16900635    4.90999985    2.73000002
   12.22805500  220.55999756    4.90999985    2.75000000
   12.23138809  207.29600525    4.90999985    2.73000002
   12.23194408  199.65199280    4.90999985    2.73000002
   12.23500061  199.38499451    4.90999985    2.73000002
   12.23833370  197.32600403    4.90999985    2.73000002
   12.24166679  215.60899353    4.90999985    2.73000002
   12.24472237  238.65600586    4.90999985    2.75000000
   12.24805546  199.43299866    4.90999985    2.73000002
   12.25111103  198.02499390    4.90999985    2.71000004
   12.25444412  162.81300354    4.90999985    2.73000002
   12.25777817  191.28399658    4.90999985    2.75000000
   12.26083374  191.12600708    4.90999985    2.73000002
   12.26416683  197.43699646    4.90999985    2.73000002
   12.26527786  209.56599426    4.90999985    2.73000002
   12.26777744  194.83000183    4.90999985    2.71000004
   12.27111053  168.18400574    4.90999985    2.73000002
   12.27444458  201.83799744    4.90999985    2.71000004
   12.27750015  178.93899536    4.90999985    2.71000004
   12.28083324  194.56100464    4.90999985    2.73000002
   12.28388977  186.52600098    4.90999985    2.73000002
   12.28722286  159.97599792    4.90999985    2.73000002
   12.29055595  186.55799866    4.90999985    2.75000000
   12.29361153  211.33999634    4.90999985    2.73000002
   12.29694462  186.51499939    4.90999985    2.73000002
   12.29861164  184.53100586    4.90999985    2.73000002
   12.30083370  194.81199646    4.90999985    2.73000002
   12.30388927  152.86500549    4.90999985    2.75000000
   12.30722237  178.97300720    4.90999985    2.75000000
   12.31027794  179.25900269    4.90999985    2.75000000
   12.31361103  187.01100159    4.90999985    2.75000000
   12.31694412  153.83599854    4.90999985    2.75000000
   12.31999969  166.88699341    4.90999985    2.73000002
   12.32333374  166.63600159    4.90999985    2.75000000
   12.32666683  163.21099854    4.90999985    2.75000000
   12.32972240  182.80799866    4.90999985    2.75000000
   12.33194447  160.16499329    4.90999985    2.75000000
   12.33361053  158.81700134    4.90999985    2.75000000
   12.33666611  166.28399658    4.90999985    2.73000002
   12.34000015  162.41799927    4.90999985    2.73000002
   12.34305477  186.93200684    4.90999985    2.73000002
   12.34638882  184.41299438    4.90999985    2.75000000
   12.34972191  172.58799744    4.90999985    2.75000000
   12.35277843  174.11500549    4.90999985    2.75000000
   12.35611153  177.77600098    4.90999985    2.75000000
   12.35944462  165.97000122    4.90999985    2.75000000
   12.36250019  150.93600464    4.90999985    2.75000000
   12.36527824  181.80900574    4.90999985    2.76999998
   12.36638927  187.39799500    4.90999985    2.75000000
   12.36944485  186.66200256    4.90999985    2.75000000
   12.37277794  174.70199585    4.90999985    2.75000000
   12.37583351  143.99600220    4.90999985    2.75000000
   12.37944412  151.76899719    4.90999985    2.75000000
   12.38277817  173.44599915    4.90999985    2.75000000
   12.38611126  172.17599487    4.90999985    2.75000000
   12.38916683  187.13099670    4.90999985    2.75000000
   12.39249992  152.44500732    4.90999985    2.75000000
   12.39583302  167.19000244    4.90999985    2.75000000
   12.39861107  152.76400757    4.90999985    2.75000000
   12.39944458  151.37699890    4.90999985    2.75000000
   12.40249920  135.53500366    4.90999985    2.75000000
   12.40583324  135.02900696    4.90999985    2.75000000
   12.40888882  153.68699646    4.90999985    2.75000000
   12.41222191  145.01800537    4.90999985    2.75000000
   12.41555500  153.38900757    4.90999985    2.75000000
   12.41861153  152.27400208    4.90999985    2.76999998
   12.42194462  134.80499268    4.90999985    2.75000000
   12.42527771  152.59599304    4.90999985    2.75000000
   12.42833328  147.04299927    4.90999985    2.75000000
   12.43166733  144.68299866    4.90999985    2.76999998
   12.43222237  144.76699829    4.90999985    2.76999998
   12.43527794  138.65600586    4.90999985    2.75000000
   12.43861103  143.11900330    4.90999985    2.76999998
   12.44194412  143.53700256    4.90999985    2.76999998
   12.44499969  137.88600159    4.90999985    2.76999998
   12.44833374  139.02799988    4.90999985    2.76999998
   12.45138836  140.37800598    4.90999985    2.76999998
   12.45472240  137.22700500    4.90999985    2.75000000
   12.45805550  136.94799805    4.90999985    2.75000000
   12.46111107  131.69799805    4.90999985    2.76999998
   12.46444416  131.50199890    4.90999985    2.76999998
   12.46555519  132.87899780    4.90999985    2.76999998
   12.46805477  146.52299500    4.90999985    2.76999998
   12.47138882  134.61900330    4.90999985    2.76999998
   12.47472191  132.13699341    4.90999985    2.76999998
   12.47777748  125.45700073    4.90999985    2.76999998
   12.48111057  132.08900452    4.90999985    2.78999996
   12.48416710  137.21400452    4.90999985    2.76999998
   12.48750019  130.83200073    4.90999985    2.76999998
   12.49083328  122.92400360    4.90999985    2.75000000
   12.49388885  133.20799255    4.90999985    2.76999998
   12.49722290  131.22399902    4.90999985    2.75000000
   12.49888897  133.18699646    4.90999985    2.76999998
   12.50083351  131.42100525    4.90999985    2.75000000
   12.50416660  124.81800079    4.90999985    2.76999998
   12.50749969  128.45399475    4.90999985    2.76999998
   12.51055527  133.73899841    4.90999985    2.76999998
   12.51388931  119.73300171    4.90999985    2.76999998
   12.51694393  127.41899872    4.90999985    2.76999998
   12.52027798  132.55599976    4.90999985    2.76999998
   12.52361107  135.07400513    4.90999985    2.76999998
   12.52666664  133.99299622    4.90999985    2.76999998
   12.52999973  124.27200317    4.90999985    2.76999998
   12.53222179  128.07200623    4.90999985    2.75000000
   12.53361130  134.93299866    4.90999985    2.76999998
   12.53694534  136.38400269    4.90999985    2.78999996
   12.54027843  136.71299744    4.90999985    2.78999996
   12.54333401  133.04100037    4.90999985    2.76999998
   12.54666710  126.86699677    4.90999985    2.76999998
   12.54972267  133.56100464    4.90999985    2.76999998
   12.55305576  140.74200439    4.90999985    2.78999996
   12.55638885  115.17900085    4.90999985    2.76999998
   12.55944443  131.31300354    4.90999985    2.76999998
   12.56277752  136.50000000    4.90999985    2.76999998
   12.56555557  136.75799561    4.90999985    2.76999998
   12.56638908  134.46600342    4.90999985    2.76999998
   12.56972218  135.62899780    4.90999985    2.76999998
   12.57305527  133.98100281    4.90999985    2.76999998
   12.57611084  140.94099426    4.90999985    2.78999996
   12.57944393  129.90400696    4.90999985    2.76999998
   12.58249950  129.27299500    4.90999985    2.78999996
   12.58583260  133.27699280    4.90999985    2.76999998
   12.58916664  135.22700500    4.90999985    2.76999998
   12.59222221  129.74499512    4.90999985    2.76999998
   12.59555531  135.09199524    4.90999985    2.78999996
   12.59888840  126.22399902    4.90999985    2.76999998
   12.59944439  140.23100281    4.90999985    2.76999998
   12.60277843  139.01899719    4.90999985    2.76999998
   12.60611153  136.25900269    4.90999985    2.78999996
   12.60916710  138.24200439    4.90999985    2.78999996
   12.61250019  128.80200195    4.90999985    2.76999998
   12.61583328  134.44599915    4.90999985    2.76999998
   12.61888885  125.89099884    4.90999985    2.76999998
   12.62222195  130.31199646    4.90999985    2.76999998
   12.62527752  130.55099487    4.90999985    2.78999996
   12.62861156  130.75500488    4.90999985    2.76999998
   12.63194466  123.15399933    4.90999985    2.78999996
   12.63222218  118.06400299    4.90999985    2.78999996
   12.63555527  124.76399994    4.90999985    2.76999998
   12.63888836  131.59100342    4.90999985    2.76999998
   12.64222240  129.92799377    4.90999985    2.78999996
   12.64527798  136.25199890    4.90999985    2.76999998
   12.64861107  131.30099487    4.90999985    2.76999998
   12.65194416  135.58200073    4.90999985    2.76999998
   12.65499973  142.06700134    4.90999985    2.78999996
   12.65833282  140.46099854    4.90999985    2.78999996
   12.66138840  132.06500244    4.90999985    2.76999998
   12.66472149  138.73399353    4.90999985    2.76999998
   12.66555500  131.77799988    4.90999985    2.76999998
   12.66833401  127.76499939    4.90999985    2.78999996
   12.67166710  130.72599792    4.90999985    2.76999998
   12.67472267  128.19099426    4.90999985    2.78999996
   12.67805576  122.58499908    4.90999985    2.76999998
   12.68138885  128.21600342    4.90999985    2.78999996
   12.68444443  135.95599365    4.90999985    2.76999998
   12.68777752  124.05400085    4.90999985    2.76999998
   12.69111156  133.72200012    4.90999985    2.78999996
   12.69416714  129.62899780    4.90999985    2.78999996
   12.69750023  134.70100403    4.90999985    2.78999996
   12.69916630  135.64700317    4.90999985    2.78999996
   12.70111084  137.84599304    4.90999985    2.78999996
   12.70444393  135.93600464    4.90999985    2.78999996
   12.70749950  135.66000366    4.90999985    2.78999996
   12.71083355  131.61099243    4.90999985    2.78999996
   12.71416664  144.01600647    4.90999985    2.78999996
   12.71722221  139.84199524    4.90999985    2.78999996
   12.72055531  145.35499573    4.90999985    2.78999996
   12.72388840  143.58099365    4.90999985    2.78999996
   12.72694397  132.73300171    4.90999985    2.76999998
   12.73027706  136.53700256    4.90999985    2.78999996
   12.73249912  129.03199768    4.90999985    2.78999996
   12.73388958  132.16799927    4.90999985    2.78999996
   12.73722267  130.35899353    4.90999985    2.78999996
   12.74027824  129.10400391    4.90999985    2.78999996
   12.74361134  140.30299377    4.90999985    2.78999996
   12.74694443  127.36299896    4.90999985    2.78999996
   12.75000000  125.03700256    4.90999985    2.78999996
   12.75333309  143.49099731    4.90999985    2.78999996
   12.75666714  140.54200745    4.90999985    2.78999996
   12.75972176  144.04899597    4.90999985    2.78999996
   12.76305580  140.98100281    4.90999985    2.78999996
   12.76583290  142.09599304    4.90999985    2.78999996
   12.76666641  140.83700562    4.90999985    2.80999994
   12.76999950  142.42599487    4.90999985    2.78999996
   12.77305508  150.76400757    4.90999985    2.78999996
   12.77638817  137.72799683    4.90999985    2.78999996
   12.77972221  134.44799805    4.90999985    2.78999996
   12.78277779  138.31300354    4.90999985    2.78999996
   12.78611183  138.35200500    4.90999985    2.76999998
   12.78944492  124.55500031    4.90999985    2.80999994
   12.79250050  145.75399780    4.90999985    2.78999996
   12.79583359  144.03599548    4.90999985    2.78999996
   12.79916668  152.09599304    4.90999985    2.78999996
   12.79944515  141.20700073    4.90999985    2.78999996
   12.80277824  150.86000061    4.90999985    2.78999996
   12.80583382  128.51100159    4.90999985    2.78999996
   12.80916691  148.44500732    4.90999985    2.78999996
   12.81250000  146.07099915    4.90999985    2.78999996
   12.81555557  147.01600647    4.90999985    2.80999994
   12.81888866  148.44200134    4.90999985    2.78999996
   12.82222176  149.94500732    4.90999985    2.78999996
   12.82527733  138.62500000    4.90999985    2.78999996
   12.82861137  136.74299622    4.90999985    2.80999994
   12.83166695  138.43400574    4.90999985    2.78999996
   12.83249950  137.93499756    4.90999985    2.78999996
   12.83527756  131.48699951    4.90999985    2.80999994
   12.83861065  126.67600250    4.90999985    2.80999994
   12.84194374  140.77900696    4.90999985    2.80999994
   12.84499931  132.14399719    4.90999985    2.80999994
   12.84833336  142.60200500    4.90999985    2.78999996
   12.85138893  125.28600311    4.90999985    2.80999994
   12.85472298  140.94299316    4.90999985    2.78999996
   12.85805607  137.34399414    4.90999985    2.82999992
   12.86111164  135.57699585    4.90999985    2.80999994
   12.86444473  124.86399841    4.90999985    2.78999996
   12.86583328  133.92199707    4.90999985    2.80999994
   12.86805534  128.11599731    4.90999985    2.80999994
   12.87138939  131.28300476    4.90999985    2.80999994
   12.87472248  129.88699341    4.90999985    2.82999992
   12.87777805  140.21200562    4.90999985    2.80999994
   12.88111115  133.28799438    4.90999985    2.80999994
   12.88444424  132.21600342    4.90999985    2.82999992
   12.88749981  131.00399780    4.90999985    2.82999992
   12.89083290  132.89599609    4.90999985    2.80999994
   12.89388847  136.09399414    4.90999985    2.82999992
   12.89722252  136.61999512    4.90999985    2.80999994
   12.89916611  132.62199402    4.90999985    2.82999992
   12.90083313  146.15199280    4.90999985    2.80999994
   12.90416622  133.59300232    4.90999985    2.80999994
   12.90749931  138.16200256    4.90999985    2.80999994
   12.91055489  130.41799927    4.90999985    2.82999992
   12.91388893  136.47900391    4.90999985    2.80999994
   12.91694450  165.57099915    4.90999985    2.80999994
   12.92027855  147.72700500    4.90999985    2.80999994
   12.92361164  142.52200317    4.90999985    2.80999994
   12.92666721  136.18800354    4.90999985    2.80999994
   12.93000031  148.55000305    4.90999985    2.82999992
   12.93249989  151.45899963    4.90999985    2.80999994
   12.93361092  143.57699585    4.90999985    2.78999996
   12.93694496  155.36399841    4.90999985    2.82999992
   12.94027805  143.72999573    4.90999985    2.80999994
   12.94333363  142.62399292    4.90999985    2.80999994
   12.94666672  127.04199982    4.90999985    2.80999994
   12.94972229  129.81599426    4.90999985    2.80999994
   12.95305538  141.33399963    4.90999985    2.82999992
   12.95638847  124.65399933    4.90999985    2.80999994
   12.95944405  135.67300415    4.90999985    2.80999994
   12.96277714  155.86999512    4.90999985    2.80999994
   12.96583271  139.08500671    4.90999985    2.80999994
   12.96638870  144.02900696    4.90999985    2.80999994
   12.96972179  135.23300171    4.90999985    2.80999994
   12.97305489  129.92599487    4.90999985    2.80999994
   12.97611046  134.31900024    4.90999985    2.80999994
   12.97944355  139.96699524    4.90999985    2.80999994
   12.98249912  129.44000244    4.90999985    2.82999992
   12.98583317  125.40399933    4.90999985    2.80999994
   12.98916721  136.37800598    4.90999985    2.82999992
   12.99222279  152.03799438    4.90999985    2.80999994
   12.99555588  141.08399963    4.90999985    2.82999992
   12.99888897  139.71099854    4.90999985    2.80999994
   12.99916649  131.64999390    4.90999985    2.80999994
   13.00249958  138.04899597    4.90999985    2.80999994
   13.00583363  133.20700073    4.90999985    2.80999994
   13.00888920  142.43499756    4.90999985    2.80999994
   13.01222229  122.80200195    4.90999985    2.80999994
   13.01555538  134.27699280    4.90999985    2.80999994
   13.01861095  134.94299316    4.90999985    2.82999992
   13.02194405  126.16899872    4.90999985    2.80999994
   13.02499962  130.35299683    4.90999985    2.80999994
   13.02833271  134.38299561    4.90999985    2.80999994
   13.03166676  133.61799622    4.90999985    2.82999992
   13.03249931  134.07699585    4.90999985    2.80999994
   13.03527832  132.49099731    4.90999985    2.80999994
   13.03861141  136.54499817    4.90999985    2.80999994
   13.04166698  132.12399292    4.90999985    2.80999994
   13.04500008  144.55999756    4.90999985    2.80999994
   13.04833412  145.38400269    4.90999985    2.82999992
   13.05138874  127.95300293    4.90999985    2.80999994
   13.05472279  149.28500366    4.90999985    2.82999992
   13.05777836  132.82499695    4.90999985    2.78999996
   13.06111145  136.31799316    4.90999985    2.82999992
   13.06444454  133.39900208    4.90999985    2.80999994
   13.06583309  135.01400757    4.90999985    2.82999992
   13.06805515  139.13000488    4.90999985    2.78999996
   13.07138920  133.09399414    4.90999985    2.80999994
   13.07444477  135.42199707    4.90999985    2.82999992
   13.07777786  137.44400024    4.90999985    2.80999994
   13.08111095  131.83999634    4.90999985    2.80999994
   13.08416653  130.16999817    4.90999985    2.80999994
   13.08749962  136.11199951    4.90999985    2.82999992
   13.09055519  139.33099365    4.90999985    2.80999994
   13.09388828  138.86700439    4.90999985    2.80999994
   13.09722233  143.18899536    4.90999985    2.82999992
   13.09916592  140.05299377    4.90999985    2.82999992
   13.10083389  139.13699341    4.90999985    2.82999992
   13.10416698  137.87100220    4.90999985    2.82999992
   13.10722256  140.02400208    4.90999985    2.82999992
   13.11055565  141.43400574    4.90999985    2.82999992
   13.11388969  139.75100708    4.90999985    2.82999992
   13.11694431  134.85099792    4.90999985    2.82999992
   13.12027836  138.82699585    4.90999985    2.82999992
   13.12333393  135.83999634    4.90999985    2.80999994
   13.12666702  138.97099304    4.90999985    2.82999992
   13.13000011  131.98500061    4.90999985    2.82999992
   13.14833355  137.33799744    4.90999985    2.82999992
   13.14972210  132.18299866    4.90999985    2.82999992
   13.15305519  131.01699829    4.90999985    2.82999992
   13.15638828  141.67500305    4.90999985    2.82999992
   13.15944386  130.41799927    4.90999985    2.82999992
   13.16277695  140.80599976    4.90999985    2.82999992
   13.16583252  131.40400696    4.90999985    2.82999992
   13.16916656  132.19900513    4.90999985    2.82999992
   13.17250061  135.65199280    4.90999985    2.82999992
   13.17555618  137.04200745    4.90999985    2.80999994
   13.17888927  133.69099426    4.90999985    2.82999992
   13.18138885  132.66600037    4.90999985    2.82999992
   13.18249989  127.10900116    4.90999985    2.82999992
   13.18583298  129.61099243    4.90999985    2.80999994
   13.18888855  137.43699646    4.90999985    2.80999994
   13.19222260  133.39500427    4.90999985    2.80999994
   13.19527817  129.21400452    4.90999985    2.80999994
   13.19861126  130.96299744    4.90999985    2.80999994
   13.20194435  128.55400085    4.90999985    2.82999992
   13.20499992  125.19699860    4.90999985    2.82999992
   13.20833302  122.74400330    4.90999985    2.82999992
   13.21166611  133.16700745    4.90999985    2.82999992
   13.21472168  126.80200195    4.90999985    2.82999992
   13.21527767  136.92900085    4.90999985    2.82999992
   13.21861076  133.36300659    4.90999985    2.82999992
   13.22166634  137.94500732    4.90999985    2.82999992
   13.22499943  141.34500122    4.90999985    2.82999992
   13.22805500  132.91200256    4.90999985    2.82999992
   13.23138809  135.18899536    4.90999985    2.84999990
   13.23472214  133.87500000    4.90999985    2.82999992
   13.23805618  136.17799377    4.90999985    2.84999990
   13.24111176  145.02000427    4.90999985    2.84999990
   13.24444485  143.69900513    4.90999985    2.84999990
   13.24777794  140.30599976    4.90999985    2.84999990
   13.24805546  138.39799500    4.90999985    2.82999992
   13.25111103  136.38099670    4.90999985    2.82999992
   13.25444412  137.18800354    4.90999985    2.82999992
   13.25749969  129.84899902    4.90999985    2.84999990
   13.26083374  145.78300476    4.90999985    2.84999990
   13.26416683  140.17199707    4.90999985    2.84999990
   13.26722240  137.87399292    4.90999985    2.84999990
   13.27055550  125.43900299    4.90999985    2.84999990
   13.27361107  130.60000610    4.90999985    2.86999989
   13.27694416  127.78900146    4.90999985    2.84999990
   13.28027725  130.79600525    4.90999985    2.84999990
   13.28138828  126.79900360    4.90999985    2.84999990
   13.28388977  133.97999573    4.90999985    2.84999990
   13.28722286  131.52000427    4.90999985    2.82999992
   13.29027843  133.25799561    4.90999985    2.84999990
   13.29361153  128.01800537    4.90999985    2.84999990
   13.29694462  136.11199951    4.90999985    2.84999990
   13.30000019  137.48100281    4.90999985    2.82999992
   13.30333328  134.28399658    4.90999985    2.84999990
   13.30638885  146.75500488    4.90999985    2.84999990
   13.30972195  134.61000061    4.90999985    2.84999990
   13.31305599  144.92100525    4.90999985    2.86999989
   13.31472206  135.43099976    4.90999985    2.84999990
   13.31666660  138.16600037    4.90999985    2.84999990
   13.31999969  136.74099731    4.90999985    2.84999990
   13.32305527  130.03799438    4.90999985    2.84999990
   13.32638836  129.28799438    4.90999985    2.84999990
   13.32972240  130.33700562    4.90999985    2.84999990
   13.33277798  141.89999390    4.90999985    2.86999989
   13.33611107  134.52000427    4.90999985    2.86999989
   13.33916664  132.45700073    4.90999985    2.84999990
   13.34249973  133.49000549    4.90999985    2.84999990
   13.34583282  127.99800110    4.90999985    2.86999989
   13.34805489  126.08499908    4.90999985    2.84999990
   13.34944439  136.49000549    4.90999985    2.84999990
   13.35277843  127.97499847    4.90999985    2.84999990
   13.35583401  131.82800293    4.90999985    2.84999990
   13.35916710  129.21499634    4.90999985    2.84999990
   13.36250019  128.27499390    4.90999985    2.84999990
   13.36555576  128.14900208    4.90999985    2.84999990
   13.36888885  131.63299561    4.90999985    2.84999990
   13.37194443  131.59700012    4.90999985    2.84999990
   13.37527752  129.08599854    4.90999985    2.84999990
   13.37861156  141.34700012    4.90999985    2.84999990
   13.38138866  132.33299255    4.90999985    2.86999989
   13.38222218  128.69900513    4.90999985    2.86999989
   13.38555527  139.15299988    4.90999985    2.84999990
   13.38861084  132.41900635    4.90999985    2.84999990
   13.39194393  132.28100586    4.90999985    2.84999990
   13.39527798  142.86599731    4.90999985    2.86999989
   13.39833355  139.32899475    4.90999985    2.82999992
   13.40166664  132.33900452    4.90999985    2.84999990
   13.40499973  139.43800354    4.90999985    2.86999989
   13.40805531  122.32599640    4.90999985    2.86999989
   13.41138840  130.21000671    4.90999985    2.84999990
   13.41472149  136.55799866    4.90999985    2.86999989
   13.41499996  130.35200500    4.90999985    2.86999989
   13.41833401  136.14300537    4.90999985    2.84999990
   13.42166710  140.07400513    4.90999985    2.84999990
   13.42472267  134.33399963    4.90999985    2.84999990
   13.42805576  143.16099548    4.90999985    2.84999990
   13.43138885  143.02499390    4.90999985    2.84999990
   13.43444443  138.35899353    4.90999985    2.86999989
   13.43777752  133.69999695    4.90999985    2.84999990
   13.44111156  134.72300720    4.90999985    2.84999990
   13.44416714  130.02000427    4.90999985    2.84999990
   13.44750023  128.47399902    4.90999985    2.86999989
   13.44861126  132.45799255    4.90999985    2.86999989
   13.45111084  140.92999268    4.90999985    2.86999989
   13.45444393  138.84100342    4.90999985    2.84999990
   13.45749950  140.85699463    4.90999985    2.86999989
   13.46083355  133.42700195    4.90999985    2.86999989
   13.46416664  134.93200684    4.90999985    2.86999989
   13.46722221  127.45300293    4.90999985    2.84999990
   13.47055531  132.58799744    4.90999985    2.86999989
   13.47388840  139.13699341    4.90999985    2.86999989
   13.47694397  135.01800537    4.90999985    2.86999989
   13.48027706  131.53799438    4.90999985    2.86999989
   13.48166656  125.14099884    4.90999985    2.84999990
   13.48388958  137.79100037    4.90999985    2.86999989
   13.48722267  127.85900116    4.90999985    2.86999989
   13.49027824  131.52299500    4.90999985    2.86999989
   13.49361134  131.52600098    4.90999985    2.86999989
   13.49694443  135.29400635    4.90999985    2.86999989
   13.50000000  127.69899750    4.90999985    2.86999989
   13.50333309  139.00300598    4.90999985    2.86999989
   13.50666714  144.08900452    4.90999985    2.86999989
   13.50972176  155.74600220    4.90999985    2.86999989
   13.51305580  133.16400146    4.90999985    2.86999989
   13.51500034  142.58500671    4.90999985    2.84999990
   13.51666641  143.71699524    4.90999985    2.86999989
   13.51999950  147.48899841    4.90999985    2.86999989
   13.52305508  136.28399658    4.90999985    2.84999990
   13.52638817  136.40600586    4.90999985    2.84999990
   13.52972221  138.49299622    4.90999985    2.86999989
   13.53277779  143.08599854    4.90999985    2.84999990
   13.53611183  132.23300171    4.90999985    2.89000010
   13.53944492  144.78500366    4.90999985    2.86999989
   13.54250050  139.22599792    4.90999985    2.84999990
   13.54583359  145.25300598    4.90999985    2.84999990
   13.54861164  137.29499817    4.90999985    2.86999989
   13.54944515  130.31700134    4.90999985    2.84999990
   13.55277824  130.21400452    4.90999985    2.84999990
   13.55583382  135.52200317    4.90999985    2.86999989
   13.55916691  145.24800110    4.90999985    2.84999990
   13.56250000  134.80400085    4.90999985    2.84999990
   13.56555557  128.94599915    4.90999985    2.84999990
   13.56888866  147.99099731    4.90999985    2.86999989
   13.57222176  136.50300598    4.90999985    2.86999989
   13.57527733  136.00000000    4.90999985    2.84999990
   13.57861137  145.65699768    4.90999985    2.84999990
   13.58194447  134.29600525    4.90999985    2.86999989
   13.58222198  146.01199341    4.90999985    2.86999989
   13.58555508  140.30299377    4.90999985    2.84999990
   13.58861065  132.61099243    4.90999985    2.86999989
   13.59194374  137.07099915    4.90999985    2.86999989
   13.59527779  124.33300018    4.90999985    2.86999989
   13.59833336  129.51800537    4.90999985    2.86999989
   13.60166740  126.24099731    4.90999985    2.84999990
   13.60500050  129.19299316    4.90999985    2.86999989
   13.60805607  134.49899292    4.90999985    2.86999989
   13.61138916  125.38200378    4.90999985    2.84999990
   13.61444473  122.03099823    4.90999985    2.86999989
   13.61527824  131.50199890    4.90999985    2.86999989
   13.61805534  133.05200195    4.90999985    2.86999989
   13.62138939  132.05900574    4.90999985    2.86999989
   13.62444496  131.30999756    4.90999985    2.84999990
   13.62777805  127.16899872    4.90999985    2.86999989
   13.63111115  126.62500000    4.90999985    2.84999990
   13.63416672  135.76899719    4.90999985    2.86999989
   13.63749981  138.06599426    4.90999985    2.86999989
   13.64083290  131.77699280    4.90999985    2.89000010
   13.64388847  131.90600586    4.90999985    2.86999989
   13.64722252  143.12899780    4.90999985    2.86999989
   13.64888859  123.34600067    4.90999985    2.84999990
   13.65138817  132.77000427    4.90999985    2.86999989
   13.65444374  136.99600220    4.90999985    2.86999989
   13.65777779  142.96000671    4.90999985    2.86999989
   13.66083336  134.27400208    4.90999985    2.86999989
   13.66416645  126.74500275    4.90999985    2.86999989
   13.66750050  129.47399902    4.90999985    2.89000010
   13.67055607  130.89199829    4.90999985    2.86999989
   13.67388916  133.67500305    4.90999985    2.86999989
   13.67722225  129.26499939    4.90999985    2.86999989
   13.68027782  128.19500732    4.90999985    2.89000010
   13.68194485  127.42400360    4.90999985    2.86999989
   13.68388939  135.32299805    4.90999985    2.86999989
   13.68722248  135.08999634    4.90999985    2.86999989
   13.69055557  122.84799957    4.90999985    2.86999989
   13.69361115  123.56300354    4.90999985    2.86999989
   13.69694424  121.55500031    4.90999985    2.86999989
   13.69999981  123.62899780    4.90999985    2.86999989
   13.70333290  131.30900574    4.90999985    2.86999989
   13.70666695  132.14100647    4.90999985    2.86999989
   13.70972157  136.19200134    4.90999985    2.86999989
   13.71305561  127.93099976    4.90999985    2.86999989
   13.71527767  129.05200195    4.90999985    2.86999989
   13.71666622  136.43899536    4.90999985    2.86999989
   13.71999931  147.81199646    4.90999985    2.86999989
   13.72333336  136.41099548    4.90999985    2.86999989
   13.72638798  129.43200684    4.90999985    2.86999989
   13.72972202  129.36399841    4.90999985    2.86999989
   13.73277760  133.85499573    4.90999985    2.86999989
   13.73611164  128.37300110    4.90999985    2.86999989
   13.73944473  127.52700043    4.90999985    2.86999989
   13.74277782  131.11500549    4.90999985    2.89000010
   13.74583340  127.03299713    4.90999985    2.89000010
   13.74861145  130.97200012    4.90999985    2.89000010
   13.74944496  134.87399292    4.90999985    2.89000010
   13.75277805  132.40400696    4.90999985    2.89000010
   13.75611115  127.52600098    4.90999985    2.86999989
   13.75916672  130.47999573    4.90999985    2.89000010
   13.76249981  133.39300537    4.90999985    2.86999989
   13.76555538  127.42299652    4.90999985    2.89000010
   13.76888847  128.58500671    4.90999985    2.91000009
   13.77222157  129.92500305    4.90999985    2.86999989
   13.77527714  130.80299377    4.90999985    2.86999989
   13.77861118  132.75500488    4.90999985    2.86999989
   13.78194427  131.84599304    4.90999985    2.89000010
   13.78222179  130.65699768    4.90999985    2.89000010
   13.78555584  131.75799561    4.90999985    2.86999989
   13.78888893  130.14399719    4.90999985    2.86999989
   13.79194450  120.26799774    4.90999985    2.86999989
   13.79527855  120.63300323    4.90999985    2.86999989
   13.79833412  128.80599976    4.90999985    2.86999989
   13.80166721  127.07299805    4.90999985    2.86999989
   13.80500031  133.90600586    4.90999985    2.86999989
   13.80805588  128.09800720    4.90999985    2.86999989
   13.81138897  125.08999634    4.90999985    2.86999989
   13.81472206  128.28100586    4.90999985    2.86999989
   13.81527805  125.35800171    4.90999985    2.86999989
   13.81805515  120.91100311    4.90999985    2.86999989
   13.82138920  123.42099762    4.90999985    2.86999989
   13.82472229  121.78700256    4.90999985    2.89000010
   13.82777786  126.44200134    4.90999985    2.89000010
   13.83111095  120.58799744    4.90999985    2.89000010
   13.83416653  125.86900330    4.90999985    2.89000010
   13.83749962  130.11399841    4.90999985    2.89000010
   13.84083271  127.49099731    4.90999985    2.89000010
   13.84388828  125.25800323    4.90999985    2.86999989
   13.84722233  130.76600647    4.90999985    2.89000010
   13.84861088  130.91000366    4.90999985    2.89000010
   13.85083389  122.47100067    4.90999985    2.89000010
   13.85416698  129.49499512    4.90999985    2.89000010
   13.85750008  129.12199402    4.90999985    2.89000010
   13.86055565  125.11100006    4.90999985    2.89000010
   13.86388969  125.86900330    4.90999985    2.86999989
   13.86722279  131.54899597    4.90999985    2.89000010
   13.87027836  129.51400757    4.90999985    2.86999989
   13.87361145  126.27400208    4.90999985    2.89000010
   13.87666702  130.34100342    4.90999985    2.89000010
   13.88000011  131.41700745    4.90999985    2.86999989
   13.88194466  119.43900299    4.90999985    2.89000010
   13.88361073  124.83999634    4.90999985    2.86999989
   13.88694477  128.95500183    4.90999985    2.89000010
   13.89027786  126.89199829    4.90999985    2.86999989
   13.89333344  125.34899902    4.90999985    2.89000010
   13.89666653  125.08499908    4.90999985    2.86999989
   13.89999962  127.79499817    4.90999985    2.89000010
   13.90333271  125.81400299    4.90999985    2.86999989
   13.90638828  121.16699982    4.90999985    2.86999989
   13.90972137  130.27299500    4.90999985    2.86999989
   13.91277695  124.93900299    4.90999985    2.86999989
   13.91527748  121.94300079    4.90999985    2.86999989
   13.91638851  128.85000610    4.90999985    2.86999989
   13.91972256  124.43199921    4.90999985    2.89000010
   13.92305565  128.44999695    4.90999985    2.89000010
   13.92611122  124.65299988    4.90999985    2.86999989
   13.92944431  123.23699951    4.90999985    2.89000010
   13.93277836  120.25800323    4.90999985    2.89000010
   13.93583298  124.29599762    4.90999985    2.89000010
   13.93916702  126.03600311    4.90999985    2.89000010
   13.94222260  124.70200348    4.90999985    2.89000010
   13.94555569  126.17199707    4.90999985    2.89000010
   13.94861126  124.56199646    4.90999985    2.89000010
   13.94916630  129.86999512    4.90999985    2.89000010
   13.95249939  121.22000122    4.90999985    2.89000010
   13.95583344  120.52500153    4.90999985    2.89000010
   13.95888901  124.80799866    4.90999985    2.89000010
   13.96222210  121.93900299    4.90999985    2.89000010
   13.96555519  121.63500214    4.90999985    2.89000010
   13.96861076  120.73000336    4.90999985    2.89000010
   13.97194386  132.80000305    4.90999985    2.89000010
   13.97499943  127.02799988    4.90999985    2.89000010
   13.97833252  125.68099976    4.90999985    2.91000009
   13.98166656  129.39100647    4.90999985    2.91000009
   13.98194408  124.49099731    4.90999985    2.89000010
   13.98527813  126.07399750    4.90999985    2.89000010
   13.98861122  127.30599976    4.90999985    2.89000010
   13.99166679  129.05299377    4.90999985    2.91000009
   13.99499989  130.32699585    4.90999985    2.89000010
   13.99833393  120.94200134    4.90999985    2.89000010
   14.00138855  126.69899750    4.90999985    2.89000010
   14.00472260  122.71700287    4.90999985    2.89000010
   14.00805569  118.19400024    4.90999985    2.89000010
   14.01111126  130.70500183    4.90999985    2.91000009
   14.01444435  119.01499939    4.90999985    2.89000010
   14.01527786  124.72899628    4.90999985    2.89000010
   14.01805496  117.91300201    4.90999985    2.91000009
   14.02138901  121.22100067    4.90999985    2.91000009
   14.02444458  124.90100098    4.90999985    2.89000010
   14.02777767  123.45800018    4.90999985    2.89000010
   14.03111076  122.78600311    4.90999985    2.89000010
   14.03416729  120.64600372    4.90999985    2.89000010
   14.03750038  130.37100220    4.90999985    2.91000009
   14.04083347  125.97899628    4.90999985    2.89000010
   14.04388905  120.45999908    4.90999985    2.91000009
   14.04722309  125.32599640    4.90999985    2.89000010
   14.04861164  126.90200043    4.90999985    2.89000010
   14.05083370  118.40699768    4.90999985    2.91000009
   14.05416679  123.56900024    4.90999985    2.91000009
   14.05722237  127.09300232    4.90999985    2.89000010
   14.06055546  127.82599640    4.90999985    2.89000010
   14.06388950  123.21299744    4.90999985    2.89000010
   14.06694412  128.71099854    4.90999985    2.89000010
   14.07027817  127.08999634    4.90999985    2.89000010
   14.07361126  130.95799255    4.90999985    2.89000010
   14.07666683  119.26000214    4.90999985    2.89000010
   14.07999992  130.94799805    4.90999985    2.91000009
   14.08194447  120.33799744    4.90999985    2.91000009
   14.08361053  123.96299744    4.90999985    2.89000010
   14.08694458  128.68699646    4.90999985    2.89000010
   14.09000015  130.02200317    4.90999985    2.89000010
   14.09333324  128.98699951    4.90999985    2.91000009
   14.09666634  121.75399780    4.90999985    2.89000010
   14.09972191  131.87500000    4.90999985    2.89000010
   14.10305595  129.72399902    4.90999985    2.89000010
   14.10638905  130.36700439    4.90999985    2.89000010
   14.10944462  134.23500061    4.90999985    2.91000009
   14.11277771  124.57299805    4.90999985    2.89000010
   14.11555576  123.18800354    4.90999985    2.91000009
   14.11638927  130.02699280    4.90999985    2.89000010
   14.11972237  129.95100403    4.90999985    2.91000009
   14.12277794  125.75099945    4.90999985    2.89000010
   14.12611103  124.70300293    4.90999985    2.89000010
   14.12944412  124.45099640    4.90999985    2.89000010
   14.13249969  121.70600128    4.90999985    2.89000010
   14.13583279  125.81900024    4.90999985    2.89000010
   14.13916683  133.32699585    4.90999985    2.89000010
   14.14222240  123.19000244    4.90999985    2.89000010
   14.14555550  111.29599762    4.90999985    2.89000010
   14.16472149  124.09700012    4.90999985    2.89000010
   14.16555500  121.31600189    4.90999985    2.89000010
   14.16888905  112.45700073    4.90999985    2.89000010
   14.17194462  122.68099976    4.90999985    2.89000010
   14.17527771  117.37599945    4.90999985    2.89000010
   14.17833328  118.96700287    4.90999985    2.89000010
   14.18166733  115.15499878    4.90999985    2.89000010
   14.18500042  125.54199982    4.90999985    2.89000010
   14.18805599  114.09999847    4.90999985    2.86999989
   14.19138908  118.74299622    4.90999985    2.89000010
   14.19472218  113.22599792    4.90999985    2.89000010
   14.19777775  120.79699707    4.90999985    2.86999989
   14.19833374  118.31500244    4.90999985    2.86999989
   14.20166683  123.92900085    4.90999985    2.89000010
   14.20472240  122.23200226    4.90999985    2.86999989
   14.20805550  129.05000305    4.90999985    2.89000010
   14.21138859  129.84700012    4.90999985    2.89000010
   14.21444416  125.93900299    4.90999985    2.86999989
   14.21777725  122.16100311    4.90999985    2.89000010
   14.22083282  117.25599670    4.90999985    2.89000010
   14.22416592  124.17600250    4.90999985    2.89000010
   14.22749996  125.30799866    4.90999985    2.89000010
   14.23055553  117.04199982    4.90999985    2.91000009
   14.23166656  117.87999725    4.90999985    2.89000010
   14.23444462  119.08999634    4.90999985    2.89000010
   14.23750019  131.68400574    4.90999985    2.89000010
   14.24083328  118.78600311    4.90999985    2.89000010
   14.24416733  122.61699677    4.90999985    2.89000010
   14.24722290  126.73400116    4.90999985    2.89000010
   14.25055599  121.45600128    4.90999985    2.89000010
   14.25388908  117.23200226    4.90999985    2.89000010
   14.25694466  124.95800018    4.90999985    2.89000010
   14.26027775  122.25599670    4.90999985    2.91000009
   14.26361084  124.75399780    4.90999985    2.91000009
   14.26500034  118.14900208    4.90999985    2.89000010
   14.26722240  119.62999725    4.90999985    2.86999989
   14.27027798  123.13300323    4.90999985    2.89000010
   14.27361107  119.78199768    4.90999985    2.89000010
   14.27694416  117.33899689    4.90999985    2.86999989
   14.27999973  114.23000336    4.90999985    2.91000009
   14.28333378  119.67700195    4.90999985    2.98000002
   14.28638935  124.93599701    0.13000000    0.69000000
   14.28972244  125.29699707    0.07000000    0.40000001
   14.29305553  117.23799896    0.05000000    0.07000000
   14.29611111  125.11000061    0.05000000    0.01000000
   14.29833412  121.26599884    0.05000000    0.01000000
   14.30000019  125.94200134    0.05000000    0.01000000
   14.30305576  121.36699677    0.05000000    0.01000000
   14.30638885  119.72799683    0.05000000    0.01000000
   14.30972195  129.43400574    0.05000000    0.01000000
   14.31277752  130.10099792    0.05000000    0.01000000
   14.31611156  125.58599854    0.05000000    0.01000000
   14.31916618  126.01100159    0.05000000    0.01000000
   14.32250023  117.27999878    0.05000000    0.01000000
   14.32583332  126.46099854    0.05000000    0.01000000
   14.32888889  124.31600189    0.05000000    0.01000000
   14.33166695  130.30299377    0.05000000    0.01000000
   14.33277798  132.73599243    0.05000000    0.01000000
   14.33611107  117.08699799    0.05000000    0.01000000
   14.33916664  122.62000275    0.05000000    0.01000000
   14.34249973  121.76899719    0.05000000    0.01000000
   14.34583282  122.74099731    0.05000000    0.01000000
   14.34888840  117.61000061    0.05000000    0.01000000
   14.35222244  124.16500092    0.05000000    0.01000000
   14.35527802  122.65100098    0.05000000    0.01000000
   14.35861111  122.20300293    0.05000000    0.01000000
   14.36194515  123.06300354    0.05000000    0.01000000
   14.36500072  120.71900177    0.05000000    0.01000000
   14.36555576  122.19999695    0.05000000    0.01000000
   14.36861134  120.66699982    0.05000000    0.01000000
   14.37194443  127.68099976    0.05000000    0.01000000
   14.37527752  128.13600159    0.05000000    0.01000000
   14.37833309  127.42400360    0.05000000    0.01000000
   14.38166714  117.71499634    0.05000000    0.01000000
   14.38472176  124.84300232    0.05000000    0.01000000
   14.38805580  118.15399933    0.05000000    0.01000000
   14.39138889  122.23899841    0.05000000    0.01000000
   14.39444447  128.65899658    0.05000000    0.01000000
   14.39777756  124.95300293    0.05000000    0.01000000
   14.39833355  115.11799622    0.05000000    0.01000000
   14.40138817  119.07199860    0.05000000    0.01000000
   14.40444374  112.69000244    0.05000000    0.01000000
   14.40777779  115.19999695    0.05000000    0.01000000
   14.41111088  120.97899628    0.05000000    0.01000000
   14.41416645  122.84100342    0.05000000    0.01000000
   14.41750050  123.15299988    0.05000000    0.01000000
   14.42055607  115.39600372    0.05000000    0.01000000
   14.42388916  127.56900024    0.05000000    0.01000000
   14.42722225  118.72399902    0.05000000    0.01000000
   14.43027782  122.38099670    0.05000000    0.01000000
   14.43166733  126.61299896    0.05000000    0.01000000
   14.43416691  120.81500244    0.05000000    0.01000000
   14.43722248  121.03199768    0.05000000    0.01000000
   14.44055557  111.44899750    0.05000000    0.01000000
   14.44388866  114.52899933    0.05000000    0.01000000
   14.44694424  120.39399719    0.05000000    0.01000000
   14.45027733  117.32099915    0.05000000    0.01000000
   14.45361137  117.26100159    0.05000000    0.01000000
   14.45666695  115.26000214    0.05000000    0.01000000
   14.46000004  115.40299988    0.05000000    0.01000000
   14.46305561  121.57900238    0.05000000    0.01000000
   14.46500015  117.18800354    0.05000000    0.01000000
   14.46694374  123.58000183    0.05000000    0.01000000
   14.46999931  113.48999786    0.05000000    0.01000000
   14.47333336  118.27899933    0.05000000    0.01000000
   14.47666645  118.94499969    0.05000000    0.01000000
   14.47972202  126.06800079    0.05000000    0.01000000
   14.48305511  120.56300354    0.05000000    0.01000000
   14.48638916  119.05400085    0.05000000    0.01000000
   14.48944473  121.17400360    0.05000000    0.01000000
   14.49277782  121.30500031    0.05000000    0.01000000
   14.49583340  117.71399689    0.05000000    0.01000000
   14.49833393  125.81400299    0.05000000    0.01000000
   14.49972248  118.16999817    0.05000000    0.01000000
   14.50305557  122.27400208    0.05000000    0.01000000
   14.50611115  123.91100311    0.05000000    0.01000000
   14.50944424  124.08000183    0.05000000    0.01000000
   14.51249981  125.58699799    0.05000000    0.01000000
   14.51583290  122.01599884    0.05000000    0.01000000
   14.51916599  119.40399933    0.05000000    0.01000000
   14.52222157  126.22000122    0.05000000    0.01000000
   14.52555561  131.69000244    0.05000000    0.01000000
   14.52888870  129.26199341    0.05000000    0.01000000
   14.53166676  120.10900116    0.05000000    0.01000000
   14.53249931  119.55699921    0.05000000    0.01000000
   14.53555584  124.02300262    0.05000000    0.01000000
   14.53888893  124.31600189    0.05000000    0.01000000
   14.54222298  115.20099640    0.05000000    0.01000000
   14.54527855  120.74400330    0.05000000    0.01000000
   14.54861164  120.46499634    0.05000000    0.01000000
   14.55166721  123.96199799    0.05000000    0.01000000
   14.55500031  178.15400696    0.05000000    0.01000000
   14.55833340  120.11100006    0.05000000    0.01000000
   14.56138897  119.16799927    0.05000000    0.01000000
   14.56472206  120.26999664    0.05000000    0.01000000
   14.56527805  131.86099243    0.05000000    0.01000000
   14.56833363  122.15899658    0.05000000    0.01000000
   14.57166672  116.05599976    0.05000000    0.01000000
   14.57499981  118.23300171    0.05000000    0.01000000
   14.57805538  133.38699341    0.05000000    0.01000000
   14.58138847  122.44599915    0.05000000    0.01000000
   14.58472157  124.00299835    0.05000000    0.01000000
   14.58777714  121.92800140    0.05000000    0.01000000
   14.59111118  125.24400330    0.05000000    0.01000000
   14.59416676  127.81900024    0.05000000    0.01000000
   14.59749985  121.67800140    0.05000000    0.01000000
   14.59861088  126.94400024    0.05000000    0.01000000
   14.60111141  125.26899719    0.05000000    0.01000000
   14.60444450  119.59600067    0.05000000    0.01000000
   14.60777855  126.57900238    0.05000000    0.01000000
   14.61083412  120.42600250    0.05000000    0.01000000
   14.61416721  118.90599823    0.05000000    0.01000000
   14.61750031  114.71099854    0.05000000    0.01000000
   14.62055588  125.14399719    0.05000000    0.01000000
   14.62388897  122.51499939    0.05000000    0.01000000
   14.62694454  124.33599854    0.05000000    0.01000000
   14.63027763  119.41200256    0.05000000    0.01000000
   14.63194466  122.08999634    0.05000000    0.01000000
   14.63388920  112.50099945    0.05000000    0.01000000
   14.63722229  126.84500122    0.05000000    0.01000000
   14.64055538  116.45400238    0.05000000    0.01000000
   14.64361095  117.16799927    0.05000000    0.01000000
   14.64694405  123.67600250    0.05000000    0.01000000
   14.65027714  168.79200745    0.05000000    0.01000000
   14.65333271  120.08399963    0.05000000    0.01000000
   14.65666676  120.55500031    0.05000000    0.01000000
   14.65972137  120.89499664    0.05000000    0.01000000
   14.66305542  116.43199921    0.05000000    0.01000000
   14.66527748  125.62899780    0.05000000    0.01000000
   14.66666698  118.50499725    0.05000000    0.01000000
   14.67000008  123.68099976    0.05000000    0.01000000
   14.67333412  121.10299683    0.05000000    0.01000000
   14.67638874  119.41300201    0.05000000    0.01000000
   14.67972279  122.87599945    0.05000000    0.01000000
   14.68305588  114.92600250    0.05000000    0.01000000
   14.68611145  118.31700134    0.05000000    0.01000000
   14.68944454  122.17600250    0.05000000    0.01000000
   14.69277763  119.66400146    0.05000000    0.01000000
   14.69583321  118.48100281    0.05000000    0.01000000
   14.69861126  114.09899902    0.05000000    0.01000000
   14.69972229  116.76599884    0.05000000    0.01000000
   14.70277786  117.00399780    0.05000000    0.01000000
   14.70611095  114.31099701    0.05000000    0.01000000
   14.70916653  118.12300110    0.05000000    0.01000000
   14.71249962  116.85600281    0.05000000    0.01000000
   14.71583271  116.71399689    0.05000000    0.01000000
   14.71888828  111.18800354    0.05000000    0.01000000
   14.72222137  117.12999725    0.05000000    0.01000000
   14.72555542  117.82599640    0.05000000    0.01000000
   14.72861099  116.75800323    0.05000000    0.01000000
   14.73194408  117.57599640    0.05000000    0.01000000
   14.73222160  118.58799744    0.05000000    0.01000000
   14.73555565  113.36299896    0.05000000    0.01000000
   14.73888874  116.38600159    0.05000000    0.01000000
   14.74194431  122.11399841    0.05000000    0.01000000
   14.74527836  119.05500031    0.05000000    0.01000000
   14.74861145  116.78800201    0.05000000    0.01000000
   14.75194454  117.06500244    0.05000000    0.01000000
   14.75500011  123.63700104    0.05000000    0.01000000
   14.75833321  112.70600128    0.05000000    0.01000000
   14.76138878  121.16500092    0.05000000    0.01000000
   14.76472187  119.99400330    0.05000000    0.01000000
   14.76527786  118.26699829    0.05000000    0.01000000
   14.76833344  118.69400024    0.05000000    0.01000000
   14.77138901  119.28700256    0.05000000    0.01000000
   14.77472210  115.81099701    0.05000000    0.01000000
   14.77777767  114.46600342    0.05000000    0.01000000
   14.78111076  119.79399872    0.05000000    0.01000000
   14.78444481  120.45099640    0.05000000    0.01000000
   14.78750038  117.39399719    0.05000000    0.01000000
   14.79083347  117.51999664    0.05000000    0.01000000
   14.79416752  116.05699921    0.05000000    0.01000000
   14.79722309  124.26699829    0.05000000    0.01000000
   14.79861164  120.68000031    0.05000000    0.01000000
   14.80111122  119.11000061    0.05000000    0.01000000
   14.80416679  121.15299988    0.05000000    0.01000000
   14.80749989  125.10399628    0.05000000    0.01000000
   14.81083393  125.42099762    0.05000000    0.01000000
   14.81388950  131.39300537    0.05000000    0.01000000
   14.81722260  119.08899689    0.05000000    0.01000000
   14.82027817  128.10600281    0.05000000    0.01000000
   14.82361126  123.15100098    0.05000000    0.01000000
   14.82694435  120.33100128    0.05000000    0.01000000
   14.82999992  114.55500031    0.05000000    0.01000000
   14.83194447  107.74299622    0.05000000    0.01000000
   14.83388901  117.22899628    0.05000000    0.01000000
   14.83722210  121.01000214    0.05000000    0.01000000
   14.84027767  109.69100189    0.05000000    0.01000000
   14.84361076  113.60500336    0.05000000    0.01000000
   14.84666634  112.13500214    0.05000000    0.01000000
   14.85000038  114.26100159    0.05000000    0.01000000
   14.85333347  116.61499786    0.05000000    0.01000000
   14.85638905  115.10199738    0.05000000    0.01000000
   14.85972214  117.44999695    0.05000000    0.01000000
   14.86305618  119.79100037    0.05000000    0.01000000
   14.86527824  123.23300171    0.05000000    0.01000000
   14.86666679  116.38400269    0.05000000    0.01000000
   14.86972237  116.56999969    0.05000000    0.01000000
   14.87305546  121.85600281    0.05000000    0.01000000
   14.87638855  118.62999725    0.05000000    0.01000000
   14.87944412  110.26200104    0.05000000    0.01000000
   14.88277817  113.31900024    0.05000000    0.01000000
   14.88611126  114.29199982    0.05000000    0.01000000
   14.88916683  114.70099640    0.05000000    0.01000000
   14.89249992  126.30899811    0.05000000    0.01000000
   14.89555550  113.58499908    0.05000000    0.01000000
   14.89861107  119.04299927    0.05000000    0.01000000
   14.89944458  113.22899628    0.05000000    0.01000000
   14.90249920  112.31300354    0.05000000    0.01000000
   14.90583324  116.08100128    0.05000000    0.01000000
   14.90888882  116.96600342    0.05000000    0.01000000
   14.91222191  114.72399902    0.05000000    0.01000000
   14.91555500  113.36699677    0.05000000    0.01000000
   14.91861153  114.48100281    0.05000000    0.01000000
   14.92194462  116.37699890    0.05000000    0.01000000
   14.92527771  121.90100098    0.05000000    0.01000000
   14.92833328  120.08699799    0.05000000    0.01000000
   14.93166733  118.74199677    0.05000000    0.01000000
   14.93222237  118.14900208    0.05000000    0.01000000
   14.93527794  114.81099701    0.05000000    0.01000000
   14.93861103  114.57700348    0.05000000    0.01000000
   14.94194412  118.77500153    0.05000000    0.01000000
   14.94499969  118.04599762    0.05000000    0.01000000
   14.94833374  118.16300201    0.05000000    0.01000000
   14.95138836  120.93000031    0.05000000    0.01000000
   14.95472240  121.79900360    0.05000000    0.01000000
   14.95805550  111.35500336    0.05000000    0.01000000
   14.96111107  119.65399933    0.05000000    0.01000000
   14.96444416  121.72200012    0.05000000    0.01000000
   14.96555519  126.15299988    0.05000000    0.01000000
   14.96805477  111.90000153    0.05000000    0.01000000
   14.97138882  118.99700165    0.05000000    0.01000000
   14.97472191  115.73100281    0.05000000    0.01000000
   14.97777748  118.03399658    0.05000000    0.01000000
   14.98111057  116.60500336    0.05000000    0.01000000
   14.98416710  119.69000244    0.05000000    0.01000000
   14.98750019  116.75800323    0.05000000    0.01000000
   14.99083328  112.84500122    0.05000000    0.01000000
   14.99388885  122.40399933    0.05000000    0.01000000
   14.99722290  119.31600189    0.05000000    0.01000000
   14.99888897  125.61399841    0.05000000    0.01000000
   15.00083351  117.55799866    0.05000000    0.01000000
   15.00416660  121.87699890    0.05000000    0.01000000
   15.00749969  110.78299713    0.05000000    0.01000000
   15.01055527  119.16699982    0.05000000    0.01000000
   15.01388931  114.84500122    0.05000000    0.01000000
   15.01694393  121.63600159    0.05000000    0.01000000
   15.02027798  116.86299896    0.05000000    0.01000000
   15.02361107  121.42199707    0.05000000    0.01000000
   15.02666664  125.98500061    0.05000000    0.01000000
   15.02999973  122.09600067    0.05000000    0.01000000
   15.03222179  127.82700348    0.05000000    0.01000000
   15.03361130  124.26699829    0.05000000    0.01000000
   15.03694534  113.19200134    0.05000000    0.01000000
   15.04027843  117.53900146    0.05000000    0.01000000
   15.04333401  121.70899963    0.05000000    0.01000000
   15.04666710  112.60099792    0.05000000    0.01000000
   15.04972267  117.75499725    0.05000000    0.01000000
   15.05305576  110.87899780    0.05000000    0.01000000
   15.05638885  113.75599670    0.05000000    0.01000000
   15.05944443  115.45500183    0.05000000    0.01000000
   15.06277752  117.05300140    0.05000000    0.01000000
   15.06555557  120.03299713    0.05000000    0.01000000
   15.06638908  107.45999908    0.05000000    0.01000000
   15.06972218  125.77600098    0.05000000    0.01000000
   15.07305527  112.81199646    0.05000000    0.01000000
   15.07611084  118.11900330    0.05000000    0.01000000
   15.07944393  121.53600311    0.05000000    0.01000000
   15.08277798  109.27600098    0.05000000    0.01000000
   15.08611107  116.80999756    0.05000000    0.01000000
   15.08916664  120.84600067    0.05000000    0.01000000
   15.09249973  121.90100098    0.05000000    0.01000000
   15.09555531  119.22000122    0.05000000    0.01000000
   15.09888840  116.93699646    0.05000000    0.01000000
   15.09916592  125.96800232    0.05000000    0.01000000
   15.10249996  121.22100067    0.05000000    0.01000000
   15.10583401  118.20899963    0.05000000    0.01000000
   15.10888958  116.41500092    0.05000000    0.01000000
   15.11222267  122.73200226    0.05000000    0.01000000
   15.11555576  115.45099640    0.05000000    0.01000000
   15.11861134  114.80100250    0.05000000    0.01000000
   15.12194443  116.32800293    0.05000000    0.01000000
   15.12500000  114.48300171    0.05000000    0.01000000
   15.12833309  127.95400238    0.05000000    0.01000000
   15.13166714  120.13999939    0.05000000    0.01000000
   15.13222218  123.19100189    0.05000000    0.01000000
   15.13500023  119.89900208    0.05000000    0.01000000
   15.13833332  116.69400024    0.05000000    0.01000000
   15.14166641  117.11799622    0.05000000    0.01000000
   15.14472198  112.59300232    0.05000000    0.01000000
   15.14805508  121.80300140    0.05000000    0.01000000
   15.15111065  117.12000275    0.05000000    0.01000000
   15.15444374  159.74800110    0.05000000    0.01000000
   15.15777779  114.77400208    0.05000000    0.01000000
   15.16083336  115.66999817    0.05000000    0.01000000
   15.16416645  115.33999634    0.05000000    0.01000000
   15.18138885  116.99700165    0.05000000    0.01000000
   15.18416691  117.84300232    0.05000000    0.01000000
   15.18722248  110.48000336    0.05000000    0.01000000
   15.19055557  121.12100220    0.05000000    0.01000000
   15.19361115  120.05500031    0.05000000    0.01000000
   15.19694424  108.34500122    0.05000000    0.01000000
   15.20027733  116.45200348    0.05000000    0.01000000
   15.20333290  119.94599915    0.05000000    0.01000000
   15.20666695  119.89199829    0.05000000    0.01000000
   15.21000004  111.78600311    0.05000000    0.01000000
   15.21305561  121.79699707    0.05000000    0.01000000
   15.21472168  115.45300293    0.05000000    0.01000000
   15.21666622  120.48500061    0.05000000    0.01000000
   15.21999931  118.34600067    0.05000000    0.01000000
   15.22333336  117.35900116    0.05000000    0.01000000
   15.22638798  122.05799866    0.05000000    0.01000000
   15.22972202  118.25199890    0.05000000    0.01000000
   15.23277760  115.93699646    0.05000000    0.01000000
   15.23611164  116.91799927    0.05000000    0.01000000
   15.23944473  115.26100159    0.05000000    0.01000000
   15.24250031  106.80699921    0.05000000    0.01000000
   15.24583340  118.46499634    0.05000000    0.01000000
   15.24805546  117.47200012    0.05000000    0.01000000
   15.24944496  121.09799957    0.05000000    0.01000000
   15.25277805  116.63800049    0.05000000    0.01000000
   15.25611115  120.75800323    0.05000000    0.01000000
   15.25916672  116.00399780    0.05000000    0.01000000
   15.26249981  119.40100098    0.05000000    0.01000000
   15.26583290  118.15200043    0.05000000    0.01000000
   15.26888847  122.21499634    0.05000000    0.01000000
   15.27222157  116.83999634    0.05000000    0.01000000
   15.27555561  121.10299683    0.05000000    0.01000000
   15.27861118  124.83300018    0.05000000    0.01000000
   15.28138828  124.49600220    0.05000000    0.01000000
   15.28222179  123.52100372    0.05000000    0.01000000
   15.28555584  130.53300476    0.05000000    0.01000000
   15.28888893  119.61699677    0.05000000    0.01000000
   15.29194450  120.17600250    0.05000000    0.01000000
   15.29527855  119.57900238    0.05000000    0.01000000
   15.29833412  119.18399811    0.05000000    0.01000000
   15.30166721  118.28700256    0.05000000    0.01000000
   15.30500031  118.75000000    0.05000000    0.01000000
   15.30805588  119.68000031    0.05000000    0.01000000
   15.31138897  122.17500305    0.05000000    0.01000000
   15.31472206  125.28900146    0.05000000    0.01000000
   15.31500053  119.69000244    0.05000000    0.01000000
   15.31833363  116.86299896    0.05000000    0.01000000
   15.32138920  119.10299683    0.05000000    0.01000000
   15.32472229  120.82700348    0.05000000    0.01000000
   15.32805538  119.69999695    0.05000000    0.01000000
   15.33111095  117.23200226    0.05000000    0.01000000
   15.33444405  121.45899963    0.05000000    0.01000000
   15.33777714  122.62999725    0.05000000    0.01000000
   15.34083271  122.01499939    0.05000000    0.01000000
   15.34416676  122.37200165    0.05000000    0.01000000
   15.34722233  120.48799896    0.05000000    0.01000000
   15.34805489  122.74600220    0.05000000    0.01000000
   15.35083389  122.96499634    0.05000000    0.01000000
   15.35416698  124.41300201    0.05000000    0.01000000
   15.35750008  123.35800171    0.05000000    0.01000000
   15.36055565  127.87000275    0.05000000    0.01000000
   15.36388969  122.24700165    0.05000000    0.01000000
   15.36694431  119.76499939    0.05000000    0.01000000
   15.37027836  128.80000305    0.05000000    0.01000000
   15.37361145  115.40100098    0.05000000    0.01000000
   15.37666702  116.05500031    0.05000000    0.01000000
   15.38000011  103.81600189    0.05000000    0.01000000
   15.38138866  115.38400269    0.05000000    0.01000000
   15.38361073  118.13500214    0.05000000    0.01000000
   15.38694477  113.57499695    0.05000000    0.01000000
   15.39027786  120.77100372    0.05000000    0.01000000
   15.39333344  116.96399689    0.05000000    0.01000000
   15.39666653  118.61799622    0.05000000    0.01000000
   15.39972210  116.87200165    0.05000000    0.01000000
   15.40305519  122.08000183    0.05000000    0.01000000
   15.40638828  122.76399994    0.05000000    0.01000000
   15.40944386  115.87899780    0.05000000    0.01000000
   15.41277695  118.57199860    0.05000000    0.01000000
   15.41472149  117.34200287    0.05000000    0.01000000
   15.41638851  115.85299683    0.05000000    0.01000000
   15.41972256  120.47599792    0.05000000    0.01000000
   15.42305565  120.65100098    0.05000000    0.01000000
   15.42611122  116.77400208    0.05000000    0.01000000
   15.42944431  118.32299805    0.05000000    0.01000000
   15.43277836  118.76899719    0.05000000    0.01000000
   15.43583298  115.93099976    0.05000000    0.01000000
   15.43916702  123.80400085    0.05000000    0.01000000
   15.44222260  118.26100159    0.05000000    0.01000000
   15.44555569  120.89600372    0.05000000    0.01000000
   15.44805527  115.85199738    0.05000000    0.01000000
   15.44916630  124.53700256    0.05000000    0.01000000
   15.45249939  123.36199951    0.05000000    0.01000000
   15.45583344  116.95400238    0.05000000    0.01000000
   15.45888901  113.28399658    0.05000000    0.01000000
   15.46222210  114.74900055    0.05000000    0.01000000
   15.46527767  115.92700195    0.05000000    0.01000000
   15.46861076  114.76999664    0.05000000    0.01000000
   15.47194386  109.53099823    0.05000000    0.01000000
   15.47499943  121.06400299    0.05000000    0.01000000
   15.47833252  119.91100311    0.05000000    0.01000000
   15.48138809  122.07499695    0.05000000    0.01000000
   15.48194408  120.48000336    0.05000000    0.01000000
   15.48527813  113.52600098    0.05000000    0.01000000
   15.48861122  117.44499969    0.05000000    0.01000000
   15.49166679  116.05200195    0.05000000    0.01000000
   15.49499989  125.05300140    0.05000000    0.01000000
   15.49805546  111.49099731    0.05000000    0.01000000
   15.50138855  121.55100250    0.05000000    0.01000000
   15.50472260  120.64800262    0.05000000    0.01000000
   15.50777817  119.23200226    0.05000000    0.01000000
   15.51111126  114.69499969    0.05000000    0.01000000
   15.51444435  119.36599731    0.05000000    0.01000000
   15.51472187  112.13899994    0.05000000    0.01000000
   15.51805496  126.25900269    0.05000000    0.01000000
   15.52138901  114.51999664    0.05000000    0.01000000
   15.52444458  117.39399719    0.05000000    0.01000000
   15.52777767  114.37200165    0.05000000    0.01000000
   15.53111076  116.81800079    0.05000000    0.01000000
   15.53416729  180.37500000    0.05000000    0.01000000
   15.53750038  114.99700165    0.05000000    0.01000000
   15.54055595  116.37699890    0.05000000    0.01000000
   15.54388905  116.06199646    0.05000000    0.01000000
   15.54722309  116.70600128    0.05000000    0.01000000
   15.54805565  113.01100159    0.05000000    0.01000000
   15.55083370  119.98999786    0.05000000    0.01000000
   15.55416679  114.81900024    0.05000000    0.01000000
   15.55722237  120.51599884    0.05000000    0.01000000
   15.56055546  115.58899689    0.05000000    0.01000000
   15.56388950  118.09300232    0.05000000    0.01000000
   15.56694412  113.39499664    0.05000000    0.01000000
   15.57027817  113.92299652    0.05000000    0.01000000
   15.57333374  113.75900269    0.05000000    0.01000000
   15.57666683  111.07399750    0.05000000    0.01000000
   15.57999992  119.77999878    0.05000000    0.01000000
   15.58138847  117.47200012    0.05000000    0.01000000
   15.58361053  113.44300079    0.05000000    0.01000000
   15.58694458  119.44200134    0.05000000    0.01000000
   15.59000015  114.55400085    0.05000000    0.01000000
   15.59333324  121.91000366    0.05000000    0.01000000
   15.59666634  105.83899689    0.05000000    0.01000000
   15.59972191  117.47599792    0.05000000    0.01000000
   15.60305595  113.55500031    0.05000000    0.01000000
   15.60611153  121.02600098    0.05000000    0.01000000
   15.60944462  118.47699738    0.05000000    0.01000000
   15.61277771  120.62400055    0.05000000    0.01000000
   15.61472225  118.66999817    0.05000000    0.01000000
   15.61638927  119.61599731    0.05000000    0.01000000
   15.61972237  114.82399750    0.05000000    0.01000000
   15.62277794  119.10900116    0.05000000    0.01000000
   15.62611103  111.68699646    0.05000000    0.01000000
   15.62944412  115.30500031    0.05000000    0.01000000
   15.63249969  119.32399750    0.05000000    0.01000000
   15.63583279  117.25099945    0.05000000    0.01000000
   15.63888836  116.34899902    0.05000000    0.01000000
   15.64222240  116.64900208    0.05000000    0.01000000
   15.64555550  114.28600311    0.05000000    0.01000000
   15.64805508  115.10800171    0.05000000    0.01000000
   15.64916611  110.54599762    0.05000000    0.01000000
   15.65249920  112.86299896    0.05000000    0.01000000
   15.65555477  116.19200134    0.05000000    0.01000000
   15.65888882  111.73100281    0.05000000    0.01000000
   15.66222191  117.54499817    0.05000000    0.01000000
   15.66527748  115.37400055    0.05000000    0.01000000
   15.66861153  109.61000061    0.05000000    0.01000000
   15.67166710  110.44999695    0.05000000    0.01000000
   15.67500019  113.78800201    0.05000000    0.01000000
   15.67833328  114.13899994    0.05000000    0.01000000
   15.68138885  119.72699738    0.05000000    0.01000000
   15.68194485  122.50000000    0.05000000    0.01000000
   15.68527794  115.57900238    0.05000000    0.01000000
   15.68833351  112.63500214    0.05000000    0.01000000
   15.69166660  113.22000122    0.05000000    0.01000000
   15.69499969  116.19100189    0.05000000    0.01000000
   15.69805527  107.06900024    0.05000000    0.01000000
   15.70138836  112.40100098    0.05000000    0.01000000
   15.70444393  113.49800110    0.05000000    0.01000000
   15.70777798  114.45800018    0.05000000    0.01000000
   15.71111107  117.87200165    0.05000000    0.01000000
   15.71416664  115.19499969    0.05000000    0.01000000
   15.71500015  110.81199646    0.05000000    0.01000000
   15.71777725  113.05699921    0.05000000    0.01000000
   15.72111034  117.08300018    0.05000000    0.01000000
   15.72416592  118.89099884    0.05000000    0.01000000
   15.72749996  119.20700073    0.05000000    0.01000000
   15.73083305  114.26799774    0.05000000    0.01000000
   15.73388958  110.70899963    0.05000000    0.01000000
   15.73722267  114.83300018    0.05000000    0.01000000
   15.74055576  111.07199860    0.05000000    0.01000000
   15.74361134  112.54100037    0.05000000    0.01000000
   15.74694443  113.56199646    0.05000000    0.01000000
   15.74833393  114.80200195    0.05000000    0.01000000
   15.75055599  113.38899994    0.05000000    0.01000000
   15.75388908  109.82399750    0.05000000    0.01000000
   15.75694466  113.26499939    0.05000000    0.01000000
   15.76027775  113.07900238    0.05000000    0.01000000
   15.76361084  109.36199951    0.05000000    0.01000000
   15.76694393  110.38300323    0.05000000    0.01000000
   15.76999950  120.95800018    0.05000000    0.01000000
   15.77333355  115.12599945    0.05000000    0.01000000
   15.77638817  113.21199799    0.05000000    0.01000000
   15.77972221  115.51100159    0.05000000    0.01000000
   15.78166676  116.85299683    0.05000000    0.01000000
   15.78333378  113.04399872    0.05000000    0.01000000
   15.78666687  114.97299957    0.05000000    0.01000000
   15.78972244  119.54299927    0.05000000    0.01000000
   15.79305553  114.07399750    0.05000000    0.01000000
   15.79638958  111.12200165    0.05000000    0.01000000
   15.79944515  114.69100189    0.05000000    0.01000000
   15.80277824  111.22399902    0.05000000    0.01000000
   15.80611134  112.06400299    0.05000000    0.01000000
   15.80916691  121.88099670    0.05000000    0.01000000
   15.81250000  116.10199738    0.05000000    0.01000000
   15.81500053  114.84999847    0.05000000    0.01000000
   15.81611156  117.67099762    0.05000000    0.01000000
   15.81944466  110.38300323    0.05000000    0.01000000
   15.82250023  108.92199707    0.05000000    0.01000000
   15.82583332  113.33699799    0.05000000    0.01000000
   15.82916641  116.86299896    0.05000000    0.01000000
   15.83222198  111.00499725    0.05000000    0.01000000
   15.83555508  112.74099731    0.05000000    0.01000000
   15.83888817  111.59100342    0.05000000    0.01000000
   15.84194374  110.16699982    0.05000000    0.01000000
   15.84527779  111.85299683    0.05000000    0.01000000
   15.84833336  112.44000244    0.05000000    0.01000000
   15.84888840  110.17800140    0.05000000    0.01000000
   15.85222244  118.17700195    0.05000000    0.01000000
   15.85527802  118.92800140    0.05000000    0.01000000
   15.85861111  108.08200073    0.05000000    0.01000000
   15.86194515  109.20400238    0.05000000    0.01000000
   15.86500072  116.18699646    0.05000000    0.01000000
   15.86833382  113.27300262    0.05000000    0.01000000
   15.87166691  115.75399780    0.05000000    0.01000000
   15.87472248  125.98100281    0.05000000    0.01000000
   15.87805557  122.26399994    0.05000000    0.01000000
   15.88111115  122.64199829    0.05000000    0.01000000
   15.88166714  110.54499817    0.05000000    0.01000000
   15.88500023  112.32499695    0.05000000    0.01000000
   15.88833332  125.20500183    0.05000000    0.01000000
   15.89138889  115.95200348    0.05000000    0.01000000
   15.89472198  114.73100281    0.05000000    0.01000000
   15.89777756  111.13899994    0.05000000    0.01000000
   15.90111065  110.81099701    0.05000000    0.01000000
   15.90444374  111.75800323    0.05000000    0.01000000
   15.90749931  111.63200378    0.05000000    0.01000000
   15.91083336  119.65000153    0.05000000    0.01000000
   15.91416645  109.13200378    0.05000000    0.01000000
   15.91499996  115.94400024    0.05000000    0.01000000
   15.91777802  112.87599945    0.05000000    0.01000000
   15.92111111  118.21800232    0.05000000    0.01000000
   15.92416668  122.42400360    0.05000000    0.01000000
   15.92750072  120.31800079    0.05000000    0.01000000
   15.93055630  118.26399994    0.05000000    0.01000000
   15.93388939  124.87500000    0.05000000    0.01000000
   15.93722248  120.93499756    0.05000000    0.01000000
   15.94027805  119.30999756    0.05000000    0.01000000
   15.94361115  118.68800354    0.05000000    0.01000000
   15.94694424  115.45400238    0.05000000    0.01000000
   15.94833374  127.06999969    0.05000000    0.01000000
   15.95055580  113.31099701    0.05000000    0.01000000
   15.95388889  109.20700073    0.05000000    0.01000000
   15.95694447  119.28800201    0.05000000    0.01000000
   15.96027756  116.83599854    0.05000000    0.01000000
   15.96333313  115.82199860    0.05000000    0.01000000
   15.96666622  115.03500366    0.05000000    0.01000000
   15.96999931  116.46499634    0.05000000    0.01000000
   15.97305489  112.05599976    0.05000000    0.01000000
   15.97638798  114.59100342    0.05000000    0.01000000
   15.97972202  114.33899689    0.05000000    0.01000000
   15.98166656  115.87200165    0.05000000    0.01000000
   15.98333359  118.32800293    0.05000000    0.01000000
   15.98666668  122.76399994    0.05000000    0.01000000
   15.98972225  117.12899780    0.05000000    0.01000000
   15.99305534  114.00800323    0.05000000    0.01000000
   15.99611092  114.63099670    0.05000000    0.01000000
   15.99944496  114.18699646    0.05000000    0.01000000
   16.00277710  118.42800140    0.05000000    0.01000000
   16.00583267  111.88400269    0.05000000    0.01000000
   16.00916672  117.27799988    0.05000000    0.01000000
   16.01250076  118.13300323    0.05000000    0.01000000
   16.01499939  113.18399811    0.05000000    0.01000000
   16.01611137  120.80400085    0.05000000    0.01000000
   16.01944351  111.87300110    0.05000000    0.01000000
   16.02249908  115.52700043    0.05000000    0.01000000
   16.02583313  114.03700256    0.05000000    0.01000000
   16.02888870  121.83399963    0.05000000    0.01000000
   16.03222275  118.13899994    0.05000000    0.01000000
   16.03555489  115.68099976    0.05000000    0.01000000
   16.03861046  114.97899628    0.05000000    0.01000000
   16.04194450  124.57299805    0.05000000    0.01000000
   16.04527664  119.47299957    0.05000000    0.01000000
   16.04833221  117.11499786    0.05000000    0.01000000
   16.04888916  111.98500061    0.05000000    0.01000000
   16.05222130  120.91899872    0.05000000    0.01000000
   16.05527687  118.50000000    0.05000000    0.01000000
   16.05861092  117.25299835    0.05000000    0.01000000
   16.06166649  112.33599854    0.05000000    0.01000000
   16.06499863  114.08599854    0.05000000    0.01000000
   16.06833458  118.18900299    0.05000000    0.01000000
   16.07139015  115.65499878    0.05000000    0.01000000
   16.07472229  118.64399719    0.05000000    0.01000000
   16.07805634  113.21399689    0.05000000    0.01000000
   16.08111191  121.53900146    0.05000000    0.01000000
   16.08166695  119.61799622    0.05000000    0.01000000
   16.08472252  124.17099762    0.05000000    0.01000000
   16.08805656  116.56400299    0.05000000    0.01000000
   16.09111214  123.16699982    0.05000000    0.01000000
   16.09444427  119.48799896    0.05000000    0.01000000
   16.09777832  117.63500214    0.05000000    0.01000000
   16.10083389  122.62300110    0.05000000    0.01000000
   16.10416794  117.34400177    0.05000000    0.01000000
   16.10750008  112.92700195    0.05000000    0.01000000
   16.11055565  125.94499969    0.05000000    0.01000000
   16.11388969  109.41600037    0.05000000    0.01000000
   16.11499977  120.34100342    0.05000000    0.01000000
   16.11750031  112.59100342    0.05000000    0.01000000
   16.12083435  117.92099762    0.05000000    0.01000000
   16.12388992  104.25900269    0.05000000    0.01000000
   16.12722206  121.01599884    0.05000000    0.01000000
   16.13055611  110.09700012    0.05000000    0.01000000
   16.13361168  124.31999969    0.05000000    0.01000000
   16.13694382  118.88800049    0.05000000    0.01000000
   16.13999939  111.98100281    0.05000000    0.01000000
   16.14333344  116.12999725    0.05000000    0.01000000
   16.14666748  114.98200226    0.05000000    0.01000000
   16.14833260  112.84300232    0.05000000    0.01000000
   16.15027809  116.50700378    0.05000000    0.01000000
   16.15361023  119.13300323    0.05000000    0.01000000
   16.15666580  113.68800354    0.05000000    0.01000000
   16.15999985  117.15000153    0.05000000    0.01000000
   16.16333389  114.16200256    0.05000000    0.01000000
   16.16638756  117.57399750    0.05000000    0.01000000
   16.16972160  117.97299957    0.05000000    0.01000000
   16.17277718  116.40699768    0.05000000    0.01000000
   16.17611122  116.14299774    0.05000000    0.01000000
   16.17944336  116.79499817    0.05000000    0.01000000
   16.19805527  111.38700104    0.05000000    0.01000000
   16.19916534  109.27500153    0.05000000    0.01000000
   16.20250130  112.33799744    0.05000000    0.01000000
   16.20583344  117.84500122    0.05000000    0.01000000
   16.20888901  121.41300201    0.05000000    0.01000000
   16.21222305  117.32900238    0.05000000    0.01000000
   16.21527863  113.46399689    0.05000000    0.01000000
   16.21861076  107.50499725    0.05000000    0.01000000
   16.22194481  110.77799988    0.05000000    0.01000000
   16.22500038  118.06600189    0.05000000    0.01000000
   16.22833443  112.96499634    0.05000000    0.01000000
   16.23111153  116.59999847    0.05000000    0.01000000
   16.23194504  113.92099762    0.05000000    0.01000000
   16.23527718  115.36599731    0.05000000    0.01000000
   16.23833275  114.76100159    0.05000000    0.01000000
   16.24166679  114.30300140    0.05000000    0.01000000
   16.24472237  107.49600220    0.05000000    0.01000000
   16.24805641  121.93399811    0.05000000    0.01000000
   16.25138855  122.40100098    0.05000000    0.01000000
   16.25444412  115.99600220    0.05000000    0.01000000
   16.25777817  111.95500183    0.05000000    0.01000000
   16.26111031  122.91999817    0.05000000    0.01000000
   16.26416588  110.74900055    0.05000000    0.01000000
   16.26472282  112.83300018    0.05000000    0.01000000
   16.26805496  111.19799805    0.05000000    0.01000000
   16.27111053  113.51899719    0.05000000    0.01000000
   16.27444458  111.45600128    0.05000000    0.01000000
   16.27777672  110.64600372    0.05000000    0.01000000
   16.28083229  105.20899963    0.05000000    0.01000000
   16.28416634  123.93299866    0.05000000    0.01000000
   16.28722191  120.32900238    0.05000000    0.01000000
   16.29055595  123.89399719    0.05000000    0.01000000
   16.29388809  122.87799835    0.05000000    0.01000000
   16.29694366  118.70200348    0.05000000    0.01000000
   16.29805565  114.65899658    0.05000000    0.01000000
   16.30083275  112.23799896    0.05000000    0.01000000
   16.30388832  114.90699768    0.05000000    0.01000000
   16.30722237  126.49800110    0.05000000    0.01000000
   16.31055450  117.22699738    0.05000000    0.01000000
   16.31361008  121.21600342    0.05000000    0.01000000
   16.31694603  121.92600250    0.05000000    0.01000000
   16.32000160  122.91500092    0.05000000    0.01000000
   16.32333374  118.12300110    0.05000000    0.01000000
   16.32666779  114.64399719    0.05000000    0.01000000
   16.32972336  116.68800354    0.05000000    0.01000000
   16.33139038  119.95600128    0.05000000    0.01000000
   16.33361244  119.17500305    0.05000000    0.01000000
   16.33666801  120.73500061    0.05000000    0.01000000
   16.34000015  120.22100067    0.05000000    0.01000000
   16.34333420  119.44400024    0.05000000    0.01000000
   16.34638977  121.17199707    0.05000000    0.01000000
   16.34972191  118.92700195    0.05000000    0.01000000
   16.35277748  119.02300262    0.05000000    0.01000000
   16.35611153  125.50700378    0.05000000    0.01000000
   16.35944557  120.27100372    0.05000000    0.01000000
   16.36250114  116.55999756    0.05000000    0.01000000
   16.36472321  111.16200256    0.05000000    0.01000000
   16.36638832  121.38700104    0.05000000    0.01000000
   16.36944389  113.81600189    0.05000000    0.01000000
   16.37277794  116.60099792    0.05000000    0.01000000
   16.37611198  115.01599884    0.05000000    0.01000000
   16.37916756  116.86000061    0.05000000    0.01000000
   16.38249969  115.76999664    0.05000000    0.01000000
   16.38555527  116.68000031    0.05000000    0.01000000
   16.38888931  114.00000000    0.05000000    0.01000000
   16.39222145  116.76699829    0.05000000    0.01000000
   16.39527702  111.82099915    0.05000000    0.01000000
   16.39805603  118.58899689    0.05000000    0.01000000
   16.39916611  121.20899963    0.05000000    0.01000000
   16.40222168  112.49900055    0.05000000    0.01000000
   16.40555573  117.72000122    0.05000000    0.01000000
   16.40888786  114.24199677    0.05000000    0.01000000
   16.41194344  125.22200012    0.05000000    0.01000000
   16.41527748  120.89900208    0.05000000    0.01000000
   16.41833305  123.59899902    0.05000000    0.01000000
   16.42166519  117.85900116    0.05000000    0.01000000
   16.42499924  123.25299835    0.05000000    0.01000000
   16.42805481  124.26699829    0.05000000    0.01000000
   16.43138885  128.75500488    0.05000000    0.01000000
   16.43194389  120.69999695    0.05000000    0.01000000
   16.43499947  122.61199951    0.05000000    0.01000000
   16.43833160  121.21199799    0.05000000    0.01000000
   16.44166565  120.87400055    0.05000000    0.01000000
   16.44472122  124.23000336    0.05000000    0.01000000
   16.44805527  118.19799805    0.05000000    0.01000000
   16.45138931  120.59300232    0.05000000    0.01000000
   16.45444489  115.07299805    0.05000000    0.01000000
   16.45777893  115.88999939    0.05000000    0.01000000
   16.46111107  117.30899811    0.05000000    0.01000000
   16.46416664  122.66600037    0.05000000    0.01000000
   16.46472359  109.80999756    0.05000000    0.01000000
   16.46777916  120.69200134    0.05000000    0.01000000
   16.47083473  117.02300262    0.05000000    0.01000000
   16.47416687  119.85900116    0.05000000    0.01000000
   16.47750092  117.35399628    0.05000000    0.01000000
   16.48055649  113.72000122    0.05000000    0.01000000
   16.48388863  111.46399689    0.05000000    0.01000000
   16.48722267  115.22699738    0.05000000    0.01000000
   16.49027824  117.19999695    0.05000000    0.01000000
   16.49361229  125.93399811    0.05000000    0.01000000
   16.49666786  109.93800354    0.05000000    0.01000000
   16.49805641  112.66799927    0.05000000    0.01000000
   16.50055504  129.10200500    0.05000000    0.01000000
   16.50361061  116.66999817    0.05000000    0.01000000
   16.50694466  109.84799957    0.05000000    0.01000000
   16.51027870  119.15200043    0.05000000    0.01000000
   16.51333427  120.79499817    0.05000000    0.01000000
   16.51666641  110.36000061    0.05000000    0.01000000
   16.52000046  116.05899811    0.05000000    0.01000000
   16.52305603  111.47299957    0.05000000    0.01000000
   16.52638817  122.89199829    0.05000000    0.01000000
   16.52944374  100.63300323    0.05000000    0.01000000
   16.53138924  113.44599915    0.05000000    0.01000000
   16.53333282  114.73500061    0.05000000    0.01000000
   16.53666687  109.68399811    0.05000000    0.01000000
   16.53972244  113.19799805    0.05000000    0.01000000
   16.54305458  117.56700134    0.05000000    0.01000000
   16.54638863  117.72899628    0.05000000    0.01000000
   16.54944420  111.88999939    0.05000000    0.01000000
   16.55277634  112.81300354    0.05000000    0.01000000
   16.55611038  113.41200256    0.05000000    0.01000000
   16.55916595  117.80400085    0.05000000    0.01000000
   16.56250000  112.94699860    0.05000000    0.01000000
   16.56472206  112.85600281    0.05000000    0.01000000
   16.56611061  109.56199646    0.05000000    0.01000000
   16.56916809  121.46800232    0.05000000    0.01000000
   16.57250023  116.86299896    0.05000000    0.01000000
   16.57583427  118.77899933    0.05000000    0.01000000
   16.57888985  117.44699860    0.05000000    0.01000000
   16.58222389  116.11199951    0.05000000    0.01000000
   16.58555603  113.52100372    0.05000000    0.01000000
   16.58861160  113.91699982    0.05000000    0.01000000
   16.59194565  124.18000031    0.05000000    0.01000000
   16.59500122  105.15000153    0.05000000    0.01000000
   16.59805679  111.45500183    0.05000000    0.01000000
   16.59889030  122.13400269    0.05000000    0.01000000
   16.60194397  129.10099792    0.05000000    0.01000000
   16.60527802  114.73799896    0.05000000    0.01000000
   16.60861206  121.89600372    0.05000000    0.01000000
   16.61166763  116.99199677    0.05000000    0.01000000
   16.61499977  113.62000275    0.05000000    0.01000000
   16.61833382  115.92099762    0.05000000    0.01000000
   16.62166595  111.14600372    0.05000000    0.01000000
   16.62472153  117.35500336    0.05000000    0.01000000
   16.62805557  117.77899933    0.05000000    0.01000000
   16.63111115  113.02300262    0.05000000    0.01000000
   16.63166618  105.94999695    0.05000000    0.01000000
   16.63500023  110.73000336    0.05000000    0.01000000
   16.63833237  113.78800201    0.05000000    0.01000000
   16.64138794  111.97299957    0.05000000    0.01000000
   16.64472198  119.04299927    0.05000000    0.01000000
   16.64777756  117.83200073    0.05000000    0.01000000
   16.65111160  118.57900238    0.05000000    0.01000000
   16.65444374  119.40000153    0.05000000    0.01000000
   16.65749931  123.45899963    0.05000000    0.01000000
   16.66083336  115.31400299    0.05000000    0.01000000
   16.66416550  113.84500122    0.05000000    0.01000000
   16.66499901  112.65100098    0.05000000    0.01000000
   16.66777802  106.63700104    0.05000000    0.01000000
   16.67111015  120.23999786    0.05000000    0.01000000
   16.67416573  107.68499756    0.05000000    0.01000000
   16.67749977  110.96099854    0.05000000    0.01000000
   16.68055534  106.39099884    0.05000000    0.01000000
   16.68388748  131.61399841    0.05000000    0.01000000
   16.68722153  127.55100250    0.05000000    0.01000000
   16.69027710  120.21399689    0.05000000    0.01000000
   16.69361115  126.41899872    0.05000000    0.01000000
   16.69694328  115.74099731    0.05000000    0.01000000
   16.69833183  135.35800171    0.05000000    0.01000000
   16.70055580  117.51200104    0.05000000    0.01000000
   16.70388985  132.50999451    0.05000000    0.01000000
   16.70694542  121.72599792    0.05000000    0.01000000
   16.71027946  117.51899719    0.05000000    0.01000000
   16.71361160  123.65499878    0.05000000    0.01000000
   16.71666718  109.62899780    0.05000000    0.01000000
   16.72000122  115.47100067    0.05000000    0.01000000
   16.72333336  118.89700317    0.05000000    0.01000000
   16.72638893  121.79699707    0.05000000    0.01000000
   16.72972298  124.90599823    0.05000000    0.01000000
   16.73166656  121.05500031    0.05000000    0.01000000
   16.73333359  120.43099976    0.05000000    0.01000000
   16.73666763  116.59899902    0.05000000    0.01000000
   16.73972321  124.72299957    0.05000000    0.01000000
   16.74305534  118.09400177    0.05000000    0.01000000
   16.74611092  122.37200165    0.05000000    0.01000000
   16.74944496  115.38300323    0.05000000    0.01000000
   16.75277710  114.20500183    0.05000000    0.01000000
   16.75583267  113.73100281    0.05000000    0.01000000
   16.75916672  119.36900330    0.05000000    0.01000000
   16.76250076  108.55200195    0.05000000    0.01000000
   16.76499939  115.46499634    0.05000000    0.01000000
   16.76611137  113.40299988    0.05000000    0.01000000
   16.76944351  117.48799896    0.05000000    0.01000000
   16.77249908  115.35199738    0.05000000    0.01000000
   16.77583313  113.48100281    0.05000000    0.01000000
   16.77888870  122.26000214    0.05000000    0.01000000
   16.78222275  114.67700195    0.05000000    0.01000000
   16.78555489  117.23000336    0.05000000    0.01000000
   16.78888893  116.40399933    0.05000000    0.01000000
   16.79194450  119.91000366    0.05000000    0.01000000
   16.79527664  110.31099701    0.05000000    0.01000000
   16.79833221  114.87400055    0.05000000    0.01000000
   16.79888916  124.34899902    0.05000000    0.01000000
   16.80222130  129.66600037    0.05000000    0.01000000
   16.80527687  120.08300018    0.05000000    0.01000000
   16.80861092  107.59200287    0.05000000    0.01000000
   16.81222153  112.82399750    0.05000000    0.01000000
   16.81527710  115.14499664    0.05000000    0.01000000
   16.81861115  116.71499634    0.05000000    0.01000000
   16.82166672  122.50000000    0.05000000    0.01000000
   16.82500076  122.13800049    0.05000000    0.01000000
   16.82833481  112.07599640    0.05000000    0.01000000
   16.83139038  117.28500366    0.05000000    0.01000000
   16.83194542  120.70300293    0.05000000    0.01000000
   16.83527756  116.92400360    0.05000000    0.01000000
   16.83833313  123.11599731    0.05000000    0.01000000
   16.84166718  116.76000214    0.05000000    0.01000000
   16.84500122  131.13299561    0.05000000    0.01000000
   16.84805679  131.79400635    0.05000000    0.01000000
   16.85138893  121.39900208    0.05000000    0.01000000
   16.85472298  112.88800049    0.05000000    0.01000000
   16.85777855  115.22399902    0.05000000    0.01000000
   16.86111069  125.26499939    0.05000000    0.01000000
   16.86416626  108.80100250    0.05000000    0.01000000
   16.86527824  114.56199646    0.05000000    0.01000000
   16.86805534  114.65399933    0.05000000    0.01000000
   16.87111092  114.84999847    0.05000000    0.01000000
   16.87444496  114.33100128    0.05000000    0.01000000
   16.87777710  118.35399628    0.05000000    0.01000000
   16.88083267  124.29299927    0.05000000    0.01000000
   16.88416672  117.34200287    0.05000000    0.01000000
   16.88750076  113.91699982    0.05000000    0.01000000
   16.89055634  115.68900299    0.05000000    0.01000000
   16.89388847  113.89900208    0.05000000    0.01000000
   16.89694405  107.85500336    0.05000000    0.01000000
   16.89861107  121.81500244    0.05000000    0.01000000
   16.90083313  112.75399780    0.05000000    0.01000000
   16.90388870  112.62699890    0.05000000    0.01000000
   16.90722275  111.44999695    0.05000000    0.01000000
   16.91055489  118.08200073    0.05000000    0.01000000
   16.91361046  116.78800201    0.05000000    0.01000000
   16.91694450  113.62100220    0.05000000    0.01000000
   16.92027664  125.97100067    0.05000000    0.01000000
   16.92333221  112.08499908    0.05000000    0.01000000
   16.92666626  110.57499695    0.05000000    0.01000000
   16.92972183  116.55500031    0.05000000    0.01000000
   16.93194389  111.23600006    0.05000000    0.01000000
   16.93361092  117.77500153    0.05000000    0.01000000
   16.93666649  129.84199524    0.05000000    0.01000000
   16.93999863  116.00700378    0.05000000    0.01000000
   16.94333267  118.68399811    0.05000000    0.01000000
   16.94638824  124.07599640    0.05000000    0.01000000
   16.94972038  108.74900055    0.05000000    0.01000000
   16.95305634  117.00000000    0.05000000    0.01000000
   16.95611191  117.19999695    0.05000000    0.01000000
   16.95944595  112.50299835    0.05000000    0.01000000
   16.96277809  121.19799805    0.05000000    0.01000000
   16.96527863  118.29499817    0.05000000    0.01000000
   16.96638870  116.03500366    0.05000000    0.01000000
   16.96944427  118.76999664    0.05000000    0.01000000
   16.97277832  114.49099731    0.05000000    0.01000000
   16.97611237  114.32599640    0.05000000    0.01000000
   16.97916794  113.01699829    0.05000000    0.01000000
   16.98250008  104.89600372    0.05000000    0.01000000
   16.98583412  113.38300323    0.05000000    0.01000000
   16.98888969  116.33499908    0.05000000    0.01000000
   16.99222183  117.90899658    0.05000000    0.01000000
   16.99527740  114.98500061    0.05000000    0.01000000
   16.99861145  114.52799988    0.05000000    0.01000000
   16.99916649  115.79399872    0.05000000    0.01000000
   17.00222206  125.06199646    0.05000000    0.01000000
   17.00555611  128.69700623    0.05000000    0.01000000
   17.00888824  120.48799896    0.05000000    0.01000000
   17.01194382  116.96600342    0.05000000    0.01000000
   17.01527786  119.55999756    0.05000000    0.01000000
   17.01861000  120.75900269    0.05000000    0.01000000
   17.02166557  111.19599915    0.05000000    0.01000000
   17.02499962  113.39099884    0.05000000    0.01000000
   17.02805519  116.16899872    0.05000000    0.01000000
   17.03138924  112.36199951    0.05000000    0.01000000
   17.03194427  113.63099670    0.05000000    0.01000000
   17.03499985  110.62000275    0.05000000    0.01000000
   17.03833199  112.16899872    0.05000000    0.01000000
   17.04138756  110.12699890    0.05000000    0.01000000
   17.04472160  109.51000214    0.05000000    0.01000000
   17.04805565  111.77799988    0.05000000    0.01000000
   17.05111122  106.47899628    0.05000000    0.01000000
   17.05444336  116.11599731    0.05000000    0.01000000
   17.05777740  117.69699860    0.05000000    0.01000000
   17.06083298  114.49299622    0.05000000    0.01000000
   17.06416512  102.93900299    0.05000000    0.01000000
   17.06527710  115.39800262    0.05000000    0.01000000
   17.06777954  118.06999969    0.05000000    0.01000000
   17.07111168  115.92400360    0.05000000    0.01000000
   17.07416725  119.34200287    0.05000000    0.01000000
   17.07750130  110.32499695    0.05000000    0.01000000
   17.08055687  105.18399811    0.05000000    0.01000000
   17.08388901  112.47399902    0.05000000    0.01000000
   17.08722305  111.22699738    0.05000000    0.01000000
   17.09027863  103.68900299    0.05000000    0.01000000
   17.09361267  112.29199982    0.05000000    0.01000000
   17.09694481  119.12699890    0.05000000    0.01000000
   17.09861183  113.28600311    0.05000000    0.01000000
   17.10055542  119.78900146    0.05000000    0.01000000
   17.10388947  115.04299927    0.05000000    0.01000000
   17.10694504  117.73500061    0.05000000    0.01000000
   17.11027908  116.08699799    0.05000000    0.01000000
   17.11333466  115.92500305    0.05000000    0.01000000
   17.11666679  120.23400116    0.05000000    0.01000000
   17.12000084  125.63099670    0.05000000    0.01000000
   17.12333298  121.80899811    0.05000000    0.01000000
   17.12638855  114.88800049    0.05000000    0.01000000
   17.12972260  121.33999634    0.05000000    0.01000000
   17.13194466  113.18099976    0.05000000    0.01000000
   17.13333321  111.93000031    0.05000000    0.01000000
   17.13666725  113.15399933    0.05000000    0.01000000
   17.13972282  116.76399994    0.05000000    0.01000000
   17.14305496  124.98799896    0.05000000    0.01000000
   17.14611053  117.55300140    0.05000000    0.01000000
   17.14944458  119.03700256    0.05000000    0.01000000
   17.15277672  115.94000244    0.05000000    0.01000000
   17.15583229  118.19300079    0.05000000    0.01000000
   17.15916634  107.06999969    0.05000000    0.01000000
   17.16250038  112.08000183    0.05000000    0.01000000
   17.16527748  115.35199738    0.05000000    0.01000000
   17.16611099  112.23400116    0.05000000    0.01000000
   17.16944313  116.69499969    0.05000000    0.01000000
   17.17249870  115.20300293    0.05000000    0.01000000
   17.17583275  115.01999664    0.05000000    0.01000000
   17.17888832  114.91500092    0.05000000    0.01000000
   17.18222237  114.95200348    0.05000000    0.01000000
   17.18555450  106.60099792    0.05000000    0.01000000
   17.18861008  107.57599640    0.05000000    0.01000000
   17.19194412  109.12300110    0.05000000    0.01000000
   17.19527626  118.13600159    0.05000000    0.01000000
   17.21444511  107.37799835    0.05000000    0.01000000
   17.21500015  114.96199799    0.05000000    0.01000000
   17.21833420  116.24099731    0.05000000    0.01000000
   17.22138977  118.81700134    0.05000000    0.01000000
   17.22472191  116.66500092    0.05000000    0.01000000
   17.22777748  126.88999939    0.05000000    0.01000000
   17.23111153  113.73000336    0.05000000    0.01000000
   17.23444557  114.55400085    0.05000000    0.01000000
   17.23750114  105.59600067    0.05000000    0.01000000
   17.24083328  114.34700012    0.05000000    0.01000000
   17.24416733  115.36399841    0.05000000    0.01000000
   17.24722290  125.33499908    0.05000000    0.01000000
   17.24777794  116.73699951    0.05000000    0.01000000
   17.25083351  112.21700287    0.05000000    0.01000000
   17.25388908  130.02699280    0.05000000    0.01000000
   17.25722313  116.98100281    0.05000000    0.01000000
   17.26055527  121.16899872    0.05000000    0.01000000
   17.26361084  118.81199646    0.05000000    0.01000000
   17.26694489  115.43000031    0.05000000    0.01000000
   17.27000046  122.65000153    0.05000000    0.01000000
   17.27333260  115.82900238    0.05000000    0.01000000
   17.27666664  121.33100128    0.05000000    0.01000000
   17.27972221  110.99600220    0.05000000    0.01000000
   17.28111076  111.56400299    0.05000000    0.01000000
   17.28361130  119.12000275    0.05000000    0.01000000
   17.28666687  117.53299713    0.05000000    0.01000000
   17.28999901  118.06999969    0.05000000    0.01000000
   17.29333305  118.53700256    0.05000000    0.01000000
   17.29638863  122.10299683    0.05000000    0.01000000
   17.29972076  115.58399963    0.05000000    0.01000000
   17.30305481  109.89900208    0.05000000    0.01000000
   17.30611038  119.32099915    0.05000000    0.01000000
   17.30944443  111.55799866    0.05000000    0.01000000
   17.31277657  115.07399750    0.05000000    0.01000000
   17.31444359  112.95300293    0.05000000    0.01000000
   17.31638718  118.36399841    0.05000000    0.01000000
   17.31944466  114.20300293    0.05000000    0.01000000
   17.32277870  109.27400208    0.05000000    0.01000000
   17.32611275  114.42900085    0.05000000    0.01000000
   17.32916832  108.28500366    0.05000000    0.01000000
   17.33250046  108.42900085    0.05000000    0.01000000
   17.33555603  117.36799622    0.05000000    0.01000000
   17.33889008  109.23699951    0.05000000    0.01000000
   17.34222221  110.46800232    0.05000000    0.01000000
   17.34527779  108.01599884    0.05000000    0.01000000
   17.34777832  120.50199890    0.05000000    0.01000000
   17.34916687  111.82599640    0.05000000    0.01000000
   17.35222244  113.77799988    0.05000000    0.01000000
   17.35555649  111.54599762    0.05000000    0.01000000
   17.35888863  122.65100098    0.05000000    0.01000000
   17.36194420  122.28500366    0.05000000    0.01000000
   17.36527824  123.73100281    0.05000000    0.01000000
   17.36833382  116.37300110    0.05000000    0.01000000
   17.37166595  118.90299988    0.05000000    0.01000000
   17.37500000  127.76699829    0.05000000    0.01000000
   17.37805557  117.41500092    0.05000000    0.01000000
   17.38111115  123.97599792    0.05000000    0.01000000
   17.38194466  118.12500000    0.05000000    0.01000000
   17.38500023  123.45099640    0.05000000    0.01000000
   17.38833237  125.89499664    0.05000000    0.01000000
   17.39166641  119.68499756    0.05000000    0.01000000
   17.39472198  119.15599823    0.05000000    0.01000000
   17.39805603  123.17099762    0.05000000    0.01000000
   17.40111160  121.28800201    0.05000000    0.01000000
   17.40444374  116.61900330    0.05000000    0.01000000
   17.40777779  121.30000305    0.05000000    0.01000000
   17.41083336  113.29799652    0.05000000    0.01000000
   17.41416550  117.11699677    0.05000000    0.01000000
   17.41472244  115.99099731    0.05000000    0.01000000
   17.41777802  120.38600159    0.05000000    0.01000000
   17.42111015  124.53700256    0.05000000    0.01000000
   17.42444420  119.44899750    0.05000000    0.01000000
   17.42749977  131.10600281    0.05000000    0.01000000
   17.43083191  130.91799927    0.05000000    0.01000000
   17.43416595  134.51100159    0.05000000    0.01000000
   17.43722153  130.66700745    0.05000000    0.01000000
   17.44055557  137.32800293    0.05000000    0.01000000
   17.44361115  144.49400330    0.05000000    0.01000000
   17.44694328  147.22599792    0.05000000    0.01000000
   17.44805527  132.55099487    0.05000000    0.01000000
   17.45055580  143.47900391    0.05000000    0.01000000
   17.45388985  160.75700378    0.05000000    0.01000000
   17.45722389  160.89100647    0.05000000    0.01000000
   17.46027946  161.47599792    0.05000000    0.01000000
   17.46361160  173.32499695    0.05000000    0.01000000
   17.46694565  169.15899658    0.05000000    0.01000000
   17.47000122  201.81100464    0.05000000    0.01000000
   17.47333336  212.91200256    0.05000000    0.01000000
   17.47666740  232.99000549    0.05000000    0.01000000
   17.47972298  263.37500000    0.05000000    0.01000000
   17.48139000  280.38299561    0.05000000    0.01000000
   17.48333359  286.63101196    0.05000000    0.01000000
   17.48666763  305.31900024    0.05000000    0.01000000
   17.48999977  289.33300781    0.05000000    0.01000000
   17.49305534  229.38999939    0.05000000    0.01000000
   17.49638939  136.10499573    0.05000000    0.01000000
   17.49972153  114.88700104    0.05000000    0.01000000
   17.50277710   66.01450348    0.05000000    0.01000000
   17.50611115   -1.00000000    0.05000000    0.01000000
   17.50916672   -1.00000000    0.05000000    0.01000000
   17.51250076   -1.00000000    0.05000000    0.01000000
   17.51611137   -1.00000000    0.05000000    0.01000000
   17.51944351   -1.00000000    0.05000000    0.01000000
   17.52277756   -1.00000000    0.05000000    0.01000000
   17.52583313   -1.00000000    0.05000000    0.01000000
   17.52916718   -1.00000000    0.05000000    0.01000000
   17.53222275   -1.00000000    0.05000000    0.01000000
   17.53555489   -1.00000000    0.05000000    0.01000000
   17.53888893   -1.00000000    0.05000000    0.01000000
   17.54194450   -1.00000000    0.05000000    0.01000000
   17.54527664   -1.00000000    0.05000000    0.01000000
   17.54861069   -1.00000000    0.05000000    0.01000000
   17.55194283   -1.00000000    0.05000000    0.01000000
   17.55499840   -1.00000000    0.05000000    0.01000000
   17.55833244   -1.00000000    0.05000000    0.01000000
   17.56166649   -1.00000000    0.05000000    0.01000000
   17.56472206   -1.00000000    0.05000000    0.01000000
   17.56805611   -1.00000000    0.05000000    0.01000000
   17.57111168   -1.00000000    0.05000000    0.01000000
   17.57444572   -1.00000000    0.05000000    0.01000000
   17.57777786   -1.00000000    0.05000000    0.01000000
   17.58083344  372.09201050    0.05000000    0.01000000
   17.58444595   -1.00000000    0.05000000    0.01000000
   17.58750153  120.75700378    0.05000000    0.01000000
   17.59083366  123.43900299    0.05000000    0.01000000
   17.59416771  121.05500031    0.05000000    0.01000000
   17.59722328  120.06300354    0.05000000    0.01000000
   17.60055542  109.46299744    0.05000000    0.01000000
   17.60361099  110.38200378    0.05000000    0.01000000
   17.60694504  106.90100098    0.05000000    0.01000000
   17.61027908  127.30400085    0.05000000    0.01000000
   17.61333466  115.02600098    0.05000000    0.01000000
   17.61472321  121.24600220    0.05000000    0.01000000
   17.61694527  115.22100067    0.05000000    0.01000000
   17.62027740  117.80400085    0.05000000    0.01000000
   17.62333298  124.92500305    0.05000000    0.01000000
   17.62666702  113.03500366    0.05000000    0.01000000
   17.62972260  110.62999725    0.05000000    0.01000000
   17.63305473  119.72599792    0.05000000    0.01000000
   17.63638878  123.93399811    0.05000000    0.01000000
   17.63944435  111.62699890    0.05000000    0.01000000
   17.64277840  119.04100037    0.05000000    0.01000000
   17.64611053  114.87799835    0.05000000    0.01000000
   17.64805603  106.03099823    0.05000000    0.01000000
   17.64972115  118.51899719    0.05000000    0.01000000
   17.65305519  117.39800262    0.05000000    0.01000000
   17.65611076  111.86599731    0.05000000    0.01000000
   17.65944481  107.57700348    0.05000000    0.01000000
   17.66250038  120.08300018    0.05000000    0.01000000
   17.66583252  120.77500153    0.05000000    0.01000000
   17.66916656  104.76000214    0.05000000    0.01000000
   17.67222214  124.77100372    0.05000000    0.01000000
   17.67555428  118.95999908    0.05000000    0.01000000
   17.67888832  125.27300262    0.05000000    0.01000000
   17.68138885  115.04799652    0.05000000    0.01000000
   17.68249893   93.97889709    0.05000000    0.01000000
   17.68583298  125.03800201    0.05000000    0.01000000
   17.68888855  121.17800140    0.05000000    0.01000000
   17.69222069  127.17800140    0.05000000    0.01000000
   17.69527626  108.14499664    0.05000000    0.01000000
   17.69861031  118.48500061    0.05000000    0.01000000
   17.70194435  116.85399628    0.05000000    0.01000000
   17.70499992   96.41619873    0.05000000    0.01000000
   17.70833397  120.62400055    0.05000000    0.01000000
   17.71166801  115.31999969    0.05000000    0.01000000
   17.71472359  110.95800018    0.05000000    0.01000000
   17.71527863  121.50499725    0.05000000    0.01000000
   17.71861076  115.09899902    0.05000000    0.01000000
   17.72166634  100.01899719    0.05000000    0.01000000
   17.72500038   84.20469666    0.05000000    0.01000000
   17.72805595  119.62300110    0.05000000    0.01000000
   17.73139000  116.05100250    0.05000000    0.01000000
   17.73472214  117.48699951    0.05000000    0.01000000
   17.73805618   94.02189636    0.05000000    0.01000000
   17.74111176  114.19999695    0.05000000    0.01000000
   17.74444389  118.88099670    0.05000000    0.01000000
   17.74777794  118.40599823    0.05000000    0.01000000
   17.74805641  105.37500000    0.05000000    0.01000000
   17.75111198  113.18699646    0.05000000    0.01000000
   17.75444412  120.26799774    0.05000000    0.01000000
   17.75749969  119.87200165    0.05000000    0.01000000
   17.76083374  127.69999695    0.05000000    0.01000000
   17.76416588  127.71199799    0.05000000    0.01000000
   17.76722145  112.94300079    0.05000000    0.01000000
   17.77055550  124.72299957    0.05000000    0.01000000
   17.77361107  105.65499878    0.05000000    0.01000000
   17.77694511  115.74900055    0.05000000    0.01000000
   17.78027725  127.63500214    0.05000000    0.01000000
   17.78138924  121.02700043    0.05000000    0.01000000
   17.78388786  101.12400055    0.05000000    0.01000000
   17.78722191  121.21399689    0.05000000    0.01000000
   17.79027748  123.27999878    0.05000000    0.01000000
   17.79361153  116.77700043    0.05000000    0.01000000
   17.79694366  118.19699860    0.05000000    0.01000000
   17.79999924  120.69200134    0.05000000    0.01000000
   17.80333328  123.83599854    0.05000000    0.01000000
   17.80638885  122.54499817    0.05000000    0.01000000
   17.80972099  122.62500000    0.05000000    0.01000000
   17.81305504  122.31999969    0.05000000    0.01000000
   17.81472206  116.95800018    0.05000000    0.01000000
   17.81666756  120.19100189    0.05000000    0.01000000
   17.82000160  121.52500153    0.05000000    0.01000000
   17.82333374  115.48699951    0.05000000    0.01000000
   17.82638931  111.65899658    0.05000000    0.01000000
   17.82972336  125.23000336    0.05000000    0.01000000
   17.83277893  115.40200043    0.05000000    0.01000000
   17.83611107  121.79399872    0.05000000    0.01000000
   17.83944511  120.95999908    0.05000000    0.01000000
   17.84250069  124.05000305    0.05000000    0.01000000
   17.84583473  116.50299835    0.05000000    0.01000000
   17.84805679  112.64900208    0.05000000    0.01000000
   17.84944534  116.93699646    0.05000000    0.01000000
   17.85277748  114.60500336    0.05000000    0.01000000
   17.85583305  112.02200317    0.05000000    0.01000000
   17.85916710  114.81199646    0.05000000    0.01000000
   17.86250114  119.66000366    0.05000000    0.01000000
   17.86555672  115.24199677    0.05000000    0.01000000
   17.86888885  116.72899628    0.05000000    0.01000000
   17.87194443  110.09500122    0.05000000    0.01000000
   17.87527847  117.34999847    0.05000000    0.01000000
   17.87861061  103.02400208    0.05000000    0.01000000
   17.88138962  113.83699799    0.05000000    0.01000000
   17.88222313  112.27899933    0.05000000    0.01000000
   17.88555527  115.72699738    0.05000000    0.01000000
   17.88861084  114.49600220    0.05000000    0.01000000
   17.89194489  115.06400299    0.05000000    0.01000000
   17.89527702  110.88200378    0.05000000    0.01000000
   17.89833260  117.69300079    0.05000000    0.01000000
   17.90166664  120.81199646    0.05000000    0.01000000
   17.90499878  116.23699951    0.05000000    0.01000000
   17.90805435  117.85800171    0.05000000    0.01000000
   17.91138840  113.05500031    0.05000000    0.01000000
   17.91472244  116.76300049    0.05000000    0.01000000
   17.91499901  117.50900269    0.05000000    0.01000000
   17.91833305  115.50299835    0.05000000    0.01000000
   17.92166519  119.78900146    0.05000000    0.01000000
   17.92472076  111.81099701    0.05000000    0.01000000
   17.92805481  106.41899872    0.05000000    0.01000000
   17.93138885  114.79299927    0.05000000    0.01000000
   17.93444443  114.91999817    0.05000000    0.01000000
   17.93777657  115.01399994    0.05000000    0.01000000
   17.94111061  114.83200073    0.05000000    0.01000000
   17.94416618  110.44999695    0.05000000    0.01000000
   17.94749832  114.28299713    0.05000000    0.01000000
   17.94833183  111.63800049    0.05000000    0.01000000
   17.95111275  110.41400146    0.05000000    0.01000000
   17.95444489  112.38300323    0.05000000    0.01000000
   17.95750046  119.58000183    0.05000000    0.01000000
   17.96083450  112.91200256    0.05000000    0.01000000
   17.96416664  114.84700012    0.05000000    0.01000000
   17.96722221  112.67600250    0.05000000    0.01000000
   17.97055626  116.59500122    0.05000000    0.01000000
   17.97389030  115.54100037    0.05000000    0.01000000
   17.97694588  108.01499939    0.05000000    0.01000000
   17.98027802  113.37100220    0.05000000    0.01000000
   17.98194504  115.01200104    0.05000000    0.01000000
   17.98388863  116.68199921    0.05000000    0.01000000
   17.98722267  116.93399811    0.05000000    0.01000000
   17.99055672  121.46399689    0.05000000    0.01000000
   17.99361229  114.29399872    0.05000000    0.01000000
   17.99694443  121.75499725    0.05000000    0.01000000
   18.00027847  110.04399872    0.05000000    0.01000000
   18.00333405  117.75399780    0.05000000    0.01000000
   18.00666618  108.35700226    0.05000000    0.01000000
   18.01000023  102.13099670    0.05000000    0.01000000
   18.01305580  108.76399994    0.05000000    0.01000000
   18.01499939  105.66200256    0.05000000    0.01000000
   18.01666641  107.82099915    0.05000000    0.01000000
   18.02000046   93.62979889    0.05000000    0.01000000
   18.02305603  104.46499634    0.05000000    0.01000000
   18.02638817  105.81999969    0.05000000    0.01000000
   18.02972221  110.76000214    0.05000000    0.01000000
   18.03277779  114.66300201    0.05000000    0.01000000
   18.03610992  108.18900299    0.05000000    0.01000000
   18.03944397  100.41100311    0.05000000    0.01000000
   18.04249954  115.14299774    0.05000000    0.01000000
   18.04583359  108.51300049    0.05000000    0.01000000
   18.04861069  118.89199829    0.05000000    0.01000000
   18.04944420   98.63490295    0.05000000    0.01000000
   18.05277634  120.55300140    0.05000000    0.01000000
   18.05583191  115.32800293    0.05000000    0.01000000
   18.05916595  111.69999695    0.05000000    0.01000000
   18.06250000  117.80200195    0.05000000    0.01000000
   18.06555557  109.43099976    0.05000000    0.01000000
   18.06888962  110.60600281    0.05000000    0.01000000
   18.07222366  109.90200043    0.05000000    0.01000000
   18.07555580  116.27899933    0.05000000    0.01000000
   18.07861137  116.22000122    0.05000000    0.01000000
   18.08194542  101.86699677    0.05000000    0.01000000
   18.08222389  115.02500153    0.05000000    0.01000000
   18.08555603  113.03700256    0.05000000    0.01000000
   18.08861160  119.28099823    0.05000000    0.01000000
   18.09194565  111.16699982    0.05000000    0.01000000
   18.09527779  109.70500183    0.05000000    0.01000000
   18.09833336  112.16899872    0.05000000    0.01000000
   18.10166740  110.79599762    0.05000000    0.01000000
   18.10499954  109.23100281    0.05000000    0.01000000
   18.10805511  119.94000244    0.05000000    0.01000000
   18.11138916  119.60099792    0.05000000    0.01000000
   18.11444473  110.71399689    0.05000000    0.01000000
   18.11527824  111.21199799    0.05000000    0.01000000
   18.11805534  124.74800110    0.05000000    0.01000000
   18.12138939  116.56900024    0.05000000    0.01000000
   18.12472153  113.41600037    0.05000000    0.01000000
   18.12777710  116.82099915    0.05000000    0.01000000
   18.13111115   98.59760284    0.05000000    0.01000000
   18.13416672  114.64900208    0.05000000    0.01000000
   18.13750076  113.77400208    0.05000000    0.01000000
   18.14083290  108.06500244    0.05000000    0.01000000
   18.14388847  109.81400299    0.05000000    0.01000000
   18.14722252  113.10399628    0.05000000    0.01000000
   18.14861107  110.37300110    0.05000000    0.01000000
   18.15111160  106.96399689    0.05000000    0.01000000
   18.15416718   96.17420197    0.05000000    0.01000000
   18.15749931  115.74500275    0.05000000    0.01000000
   18.16083336  106.95999908    0.05000000    0.01000000
   18.16388893   83.19039917    0.05000000    0.01000000
   18.16722107   99.76139832    0.05000000    0.01000000
   18.17027664  118.57499695    0.05000000    0.01000000
   18.17361069  126.53700256    0.05000000    0.01000000
   18.17694473  108.54900360    0.05000000    0.01000000
   18.18000031  115.56500244    0.05000000    0.01000000
   18.18194389  119.58399963    0.05000000    0.01000000
   18.18361092  129.72999573    0.05000000    0.01000000
   18.18694305  111.19799805    0.05000000    0.01000000
   18.19027710  118.45300293    0.05000000    0.01000000
   18.19333267  119.82299805    0.05000000    0.01000000
   18.19666672  122.77600098    0.05000000    0.01000000
   18.19972038  122.20099640    0.05000000    0.01000000
   18.20305634  123.90799713    0.05000000    0.01000000
   18.20639038  107.93299866    0.05000000    0.01000000
   18.20944595  108.97799683    0.05000000    0.01000000
   18.21277809  111.10299683    0.05000000    0.01000000
   18.23111153  124.72200012    0.05000000    0.01000000
   18.23250008  123.55599976    0.05000000    0.01000000
   18.23583412  120.27999878    0.05000000    0.01000000
   18.23916626  119.51100159    0.05000000    0.01000000
   18.24222183  120.23300171    0.05000000    0.01000000
   18.24555588  112.73799896    0.05000000    0.01000000
   18.24888992  112.45999908    0.05000000    0.01000000
   18.25194359  119.22699738    0.05000000    0.01000000
   18.25527763  112.63899994    0.05000000    0.01000000
   18.25861168  108.62899780    0.05000000    0.01000000
   18.26166725  122.90000153    0.05000000    0.01000000
   18.26416588  121.99199677    0.05000000    0.01000000
   18.26527786  114.76000214    0.05000000    0.01000000
   18.26861000  119.39099884    0.05000000    0.01000000
   18.27166557  123.12100220    0.05000000    0.01000000
   18.27499962  108.80000305    0.05000000    0.01000000
   18.27833366  119.30100250    0.05000000    0.01000000
   18.28138924  109.13600159    0.05000000    0.01000000
   18.28472137  116.23400116    0.05000000    0.01000000
   18.28805542  120.05799866    0.05000000    0.01000000
   18.29111099  116.17500305    0.05000000    0.01000000
   18.29444313  118.80699921    0.05000000    0.01000000
   18.29749870  120.69599915    0.05000000    0.01000000
   18.29805565  116.28900146    0.05000000    0.01000000
   18.30138779  114.49500275    0.05000000    0.01000000
   18.30444336  102.41100311    0.05000000    0.01000000
   18.30777740  117.55899811    0.05000000    0.01000000
   18.31110954  115.68099976    0.05000000    0.01000000
   18.31416512  117.40499878    0.05000000    0.01000000
   18.31750107  113.05899811    0.05000000    0.01000000
   18.32083511  114.35700226    0.05000000    0.01000000
   18.32389069  108.48999786    0.05000000    0.01000000
   18.32722282  113.86799622    0.05000000    0.01000000
   18.33027840  113.82299805    0.05000000    0.01000000
   18.33111191  108.46399689    0.05000000    0.01000000
   18.33388901  101.87899780    0.05000000    0.01000000
   18.33722305  104.17299652    0.05000000    0.01000000
   18.34027863  107.31900024    0.05000000    0.01000000
   18.34361267  116.37999725    0.05000000    0.01000000
   18.34694481  118.87400055    0.05000000    0.01000000
   18.35000038  122.50700378    0.05000000    0.01000000
   18.35333443  123.03299713    0.05000000    0.01000000
   18.35666656  108.02999878    0.05000000    0.01000000
   18.35972214  120.82700348    0.05000000    0.01000000
   18.36305618  116.67800140    0.05000000    0.01000000
   18.36444473  107.95500183    0.05000000    0.01000000
   18.36666679   85.56670380    0.05000000    0.01000000
   18.37000084   88.55860138    0.05000000    0.01000000
   18.37333298   85.53089905    0.05000000    0.01000000
   18.37638855  113.07599640    0.05000000    0.01000000
   18.37972260  102.86199951    0.05000000    0.01000000
   18.38277817  119.26599884    0.05000000    0.01000000
   18.38611031   90.51439667    0.05000000    0.01000000
   18.38944435  116.33000183    0.05000000    0.01000000
   18.39249992   91.93589783    0.05000000    0.01000000
   18.39583397  114.51599884    0.05000000    0.01000000
   18.39777756   92.67299652    0.05000000    0.01000000
   18.39944458  116.69599915    0.05000000    0.01000000
   18.40277672  101.05599976    0.05000000    0.01000000
   18.40611076  104.40100098    0.05000000    0.01000000
   18.40916634  111.81600189    0.05000000    0.01000000
   18.41250038  116.92299652    0.05000000    0.01000000
   18.41555595  111.62300110    0.05000000    0.01000000
   18.41888809  118.28099823    0.05000000    0.01000000
   18.42222214  109.23000336    0.05000000    0.01000000
   18.42527771  112.80799866    0.05000000    0.01000000
   18.42860985  107.23200226    0.05000000    0.01000000
   18.43111038  101.38300323    0.05000000    0.01000000
   18.43222237  114.37999725    0.05000000    0.01000000
   18.43555450  111.87799835    0.05000000    0.01000000
   18.43861008  115.05500031    0.05000000    0.01000000
   18.44194412  115.00900269    0.05000000    0.01000000
   18.44527626  110.31400299    0.05000000    0.01000000
   18.44833183  118.35900116    0.05000000    0.01000000
   18.45166779  114.73300171    0.05000000    0.01000000
   18.45499992  116.02999878    0.05000000    0.01000000
   18.45805550  117.66500092    0.05000000    0.01000000
   18.46138954   99.71299744    0.05000000    0.01000000
   18.46444511  119.33999634    0.05000000    0.01000000
   18.46500015  121.00199890    0.05000000    0.01000000
   18.46833420  109.80599976    0.05000000    0.01000000
   18.47166634  111.73600006    0.05000000    0.01000000
   18.47472191  106.79799652    0.05000000    0.01000000
   18.47805595  117.65699768    0.05000000    0.01000000
   18.48111153  114.82399750    0.05000000    0.01000000
   18.48444557  108.09100342    0.05000000    0.01000000
   18.48777771  104.47399902    0.05000000    0.01000000
   18.49083328  116.14600372    0.05000000    0.01000000
   18.49416733  103.20400238    0.05000000    0.01000000
   18.49722290  118.84300232    0.05000000    0.01000000
   18.49777794  110.22200012    0.05000000    0.01000000
   18.50111198  109.96700287    0.05000000    0.01000000
   18.50444412  113.76399994    0.05000000    0.01000000
   18.50749969  112.37999725    0.05000000    0.01000000
   18.51083374  109.30200195    0.05000000    0.01000000
   18.51388931  110.42299652    0.05000000    0.01000000
   18.51722145  119.26499939    0.05000000    0.01000000
   18.52055550  113.82599640    0.05000000    0.01000000
   18.52361107  113.14900208    0.05000000    0.01000000
   18.52694511  110.16699982    0.05000000    0.01000000
   18.53027725  119.27799988    0.05000000    0.01000000
   18.53111076  120.19499969    0.05000000    0.01000000
   18.53388786   94.97740173    0.05000000    0.01000000
   18.53722191   92.44120026    0.05000000    0.01000000
   18.54027748  122.73500061    0.05000000    0.01000000
   18.54361153  119.63500214    0.05000000    0.01000000
   18.54666710  122.05100250    0.05000000    0.01000000
   18.54999924  121.44400024    0.05000000    0.01000000
   18.55333328  120.12200165    0.05000000    0.01000000
   18.55638885  116.35199738    0.05000000    0.01000000
   18.55972099  109.60500336    0.05000000    0.01000000
   18.56305504  114.85399628    0.05000000    0.01000000
   18.56444359  113.47000122    0.05000000    0.01000000
   18.56666756  119.87999725    0.05000000    0.01000000
   18.57000160  113.79900360    0.05000000    0.01000000
   18.57305717  116.21099854    0.05000000    0.01000000
   18.57638931  112.86499786    0.05000000    0.01000000
   18.57944489  108.47399902    0.05000000    0.01000000
   18.58277893  116.01699829    0.05000000    0.01000000
   18.58611107  123.68499756    0.05000000    0.01000000
   18.58916664  123.75199890    0.05000000    0.01000000
   18.59250069  117.30000305    0.05000000    0.01000000
   18.59583473  125.20600128    0.05000000    0.01000000
   18.59777832  116.90599823    0.05000000    0.01000000
   18.59944534  121.24600220    0.05000000    0.01000000
   18.60277748  113.78199768    0.05000000    0.01000000
   18.60583305  110.49299622    0.05000000    0.01000000
   18.60916710  130.28599548    0.05000000    0.01000000
   18.61222267  125.77700043    0.05000000    0.01000000
   18.61555672  122.39399719    0.05000000    0.01000000
   18.61888885   98.15419769    0.05000000    0.01000000
   18.62194443  117.70200348    0.05000000    0.01000000
   18.62527847  117.85500336    0.05000000    0.01000000
   18.62861061  118.74500275    0.05000000    0.01000000
   18.63111115  110.67099762    0.05000000    0.01000000
   18.63222313  118.29000092    0.05000000    0.01000000
   18.63555527  112.92199707    0.05000000    0.01000000
   18.63861084  111.43199921    0.05000000    0.01000000
   18.64194489  111.91300201    0.05000000    0.01000000
   18.64500046  114.15599823    0.05000000    0.01000000
   18.64833260  106.84799957    0.05000000    0.01000000
   18.65166664  123.21600342    0.05000000    0.01000000
   18.65472221  126.50599670    0.05000000    0.01000000
   18.65805435   99.48310089    0.05000000    0.01000000
   18.66138840  127.29900360    0.05000000    0.01000000
   18.66444397  123.82599640    0.05000000    0.01000000
   18.66499901  124.74299622    0.05000000    0.01000000
   18.66833305  119.25599670    0.05000000    0.01000000
   18.67138863  129.78900146    0.05000000    0.01000000
   18.67472076  135.44500732    0.05000000    0.01000000
   18.67777634  128.81599426    0.05000000    0.01000000
   18.68111038  127.82700348    0.05000000    0.01000000
   18.68444443  139.60699463    0.05000000    0.01000000
   18.68750000  146.63699341    0.05000000    0.01000000
   18.69083214  118.08799744    0.05000000    0.01000000
   18.69416618  126.27700043    0.05000000    0.01000000
   18.69722176  119.23500061    0.05000000    0.01000000
   18.69777679  121.93599701    0.05000000    0.01000000
   18.70083427  136.42300415    0.05000000    0.01000000
   18.70416832  122.52700043    0.05000000    0.01000000
   18.70722389  120.65499878    0.05000000    0.01000000
   18.71055603   93.80799866    0.05000000    0.01000000
   18.71389008  119.11000061    0.05000000    0.01000000
   18.71694565  127.05200195    0.05000000    0.01000000
   18.72027779  123.09600067    0.05000000    0.01000000
   18.72333336  121.44200134    0.05000000    0.01000000
   18.72666740  112.01499939    0.05000000    0.01000000
   18.73000145  120.01100159    0.05000000    0.01000000
   18.73111153  113.87899780    0.05000000    0.01000000
   18.73361206  113.07299805    0.05000000    0.01000000
   18.73694420  111.75599670    0.05000000    0.01000000
   18.73999977  103.33499908    0.05000000    0.01000000
   18.74333382  102.37000275    0.05000000    0.01000000
   18.74666786  109.72200012    0.05000000    0.01000000
   18.74972153  106.47599792    0.05000000    0.01000000
   18.75305557  105.08999634    0.05000000    0.01000000
   18.75638962  108.83200073    0.05000000    0.01000000
   18.75944519  113.58999634    0.05000000    0.01000000
   18.76277733  118.84400177    0.05000000    0.01000000
   18.76444435  115.66300201    0.05000000    0.01000000
   18.76638794  118.09999847    0.05000000    0.01000000
   18.76972198  124.05999756    0.05000000    0.01000000
   18.77277756  115.40000153    0.05000000    0.01000000
   18.77611160  103.83000183    0.05000000    0.01000000
   18.77944374  116.86499786    0.05000000    0.01000000
   18.78249931  115.12400055    0.05000000    0.01000000
   18.78583336  116.63999939    0.05000000    0.01000000
   18.78888893  115.31900024    0.05000000    0.01000000
   18.79222107  108.62200165    0.05000000    0.01000000
   18.79555511  111.54000092    0.05000000    0.01000000
   18.79777718  125.29199982    0.05000000    0.01000000
   18.79916573  120.50399780    0.05000000    0.01000000
   18.80249977  119.32399750    0.05000000    0.01000000
   18.80555534  118.59999847    0.05000000    0.01000000
   18.80888748  116.58799744    0.05000000    0.01000000
   18.81222153  111.34799957    0.05000000    0.01000000
   18.81527710  114.34200287    0.05000000    0.01000000
   18.81861115  103.80899811    0.05000000    0.01000000
   18.82166672  106.30300140    0.05000000    0.01000000
   18.82500076  108.00599670    0.05000000    0.01000000
   18.82833481  111.87200165    0.05000000    0.01000000
   18.83111191  121.78500366    0.05000000    0.01000000
   18.83194542  117.17700195    0.05000000    0.01000000
   18.83527756  113.86299896    0.05000000    0.01000000
   18.83833313   98.87879944    0.05000000    0.01000000
   18.84166718  112.40000153    0.05000000    0.01000000
   18.84500122  111.57900238    0.05000000    0.01000000
   18.84805679  116.02999878    0.05000000    0.01000000
   18.85138893  118.64199829    0.05000000    0.01000000
   18.85444450  122.94000244    0.05000000    0.01000000
   18.85777855  117.73899841    0.05000000    0.01000000
   18.86111069  117.73999786    0.05000000    0.01000000
   18.86416626  117.22000122    0.05000000    0.01000000
   18.86472321  114.93299866    0.05000000    0.01000000
   18.86805534   96.29470062    0.05000000    0.01000000
   18.87111092  113.55599976    0.05000000    0.01000000
   18.87444496  116.55000305    0.05000000    0.01000000
   18.87777710  105.22499847    0.05000000    0.01000000
   18.88083267  107.77200317    0.05000000    0.01000000
   18.88416672  121.69400024    0.05000000    0.01000000
   18.88750076  117.56800079    0.05000000    0.01000000
   18.89055634  116.28900146    0.05000000    0.01000000
   18.89388847  111.25499725    0.05000000    0.01000000
   18.89694405   96.26390076    0.05000000    0.01000000
   18.89805603  105.01699829    0.05000000    0.01000000
   18.90083313  119.96900177    0.05000000    0.01000000
   18.90416718  116.74900055    0.05000000    0.01000000
   18.90749931  114.84700012    0.05000000    0.01000000
