    HOUR (UT)   FLARE FACTOR    SKY TESTER    SUN TESTER
   12.05111122   -1.00000000   -1.00000000   -1.00000000
   12.07833290  134.63900757    4.90999985    1.39999998
   12.08166695  120.31500244    4.90999985    1.41999996
   12.08500004  115.30699921    4.90999985    1.44000006
   12.08805561  152.50100708    4.90999985    1.41999996
   12.09138870  149.72000122    4.90999985    1.41999996
   12.09444427  164.78100586    4.90999985    1.39999998
   12.09861088  164.78100586    4.90999985    1.44000006
   12.10277843  221.25799561    4.90999985    1.50000000
   12.10611153  212.56399536    4.90999985    1.51999998
   12.10916710  194.41000366    4.90999985    1.61000001
   12.11166668  209.58599854    4.90999985    1.66999996
   12.11305618  173.69000244    4.90999985    1.69000006
   12.11611176  211.21000671    4.90999985    1.76999998
   12.11944485  195.05900574    4.90999985    1.78999996
   12.12277794  262.08700562    4.90999985    1.73000002
   12.12583351  261.34799194    4.90999985    1.71000004
   12.12916660  296.11199951    4.90999985    1.71000004
   12.13222218  251.77900696    4.90999985    1.71000004
   12.13555527  188.51699829    4.90999985    1.75000000
   12.14166641  188.51699829    4.90999985    1.73000002
   12.14555550  194.50199890    4.90999985    1.75000000
   12.14888859  201.11999512    4.90999985    1.78999996
   12.15222168  200.47799683    4.90999985    1.80999994
   12.15527725  178.38699341    4.90999985    1.85000002
   12.15861034  190.12600708    4.90999985    1.86000001
   12.16194439  180.63200378    4.90999985    1.88000000
   12.16499996  183.99899292    4.90999985    1.88000000
   12.16833401  196.11099243    4.90999985    1.88000000
   12.17166710  180.15600586    4.90999985    1.88000000
   12.17472267  179.92999268    4.90999985    1.89999998
   12.17805576  190.16900635    4.90999985    1.88000000
   12.17861176  177.37100220    4.90999985    1.88000000
   12.18444443  177.37100220    4.90999985    1.86000001
   12.18861103  196.06300354    4.90999985    1.86000001
   12.19166660  194.45199585    4.90999985    1.85000002
   12.19499969  205.30200195    4.90999985    1.83000004
   12.19833374  222.16099548    4.90999985    1.80999994
   12.20138836  214.69200134    4.90999985    1.85000002
   12.20472240  216.81500244    4.90999985    1.85000002
   12.20777798  244.83000183    4.90999985    1.80999994
   12.21111107  196.43800354    4.90999985    1.80999994
   12.21194458  207.84500122    4.90999985    1.80999994
   12.21472168  247.61700439    4.90999985    1.78999996
   12.21805477  235.35000610    4.90999985    1.78999996
   12.22138882  176.28900146    4.90999985    1.83000004
   12.22722149  176.28900146    4.90999985    1.86000001
   12.23138809  171.06599426    4.90999985    1.85000002
   12.23472214  164.12399292    4.90999985    1.89999998
   12.23777771  166.06199646    4.90999985    1.89999998
   12.24111176  172.41099548    4.90999985    1.94000006
   12.24416733  175.50399780    4.90999985    1.96000004
   12.24527836  171.85299683    4.90999985    1.94000006
   12.24777794  177.63099670    4.90999985    1.91999996
   12.25111103  178.09100342    4.90999985    1.94000006
   12.25444412  195.94599915    4.90999985    1.94000006
   12.25749969  167.58299255    4.90999985    1.96000004
   12.26083374  178.44000244    4.90999985    1.96000004
   12.26416683  169.64100647    4.90999985    1.94000006
   12.26999950  169.64100647    4.90999985    1.96000004
   12.27416611  157.73399353    4.90999985    1.96000004
   12.27750015  162.20100403    4.90999985    1.96000004
   12.27861118  156.60899353    4.90999985    1.96000004
   12.28083324  162.85299683    4.90999985    1.98000002
   12.28416729  159.07899475    4.90999985    2.01999998
   12.28750038  163.91799927    4.90999985    2.03999996
   12.29055595  156.32400513    4.90999985    2.03999996
   12.29388905  154.34100342    4.90999985    2.05999994
   12.29722309  152.76600647    4.90999985    2.05999994
   12.30027771  165.91200256    4.90999985    2.05999994
   12.30361176  162.97900391    4.90999985    2.05999994
   12.30666733  161.58999634    4.90999985    2.05999994
   12.31305599  161.58999634    4.90999985    2.05999994
   12.31722260  175.96800232    4.90999985    2.05999994
   12.32027817  171.77900696    4.90999985    2.05999994
   12.32361126  166.15899658    4.90999985    2.05999994
   12.32666683  155.82299805    4.90999985    2.05999994
   12.32999992  169.19099426    4.90999985    2.03999996
   12.33333302  158.44500732    4.90999985    2.05999994
   12.33638859  165.83299255    4.90999985    2.03999996
   12.33972168  160.42700195    4.90999985    2.05999994
   12.34305477  181.33099365    4.90999985    2.05999994
   12.34527779  165.50300598    4.90999985    2.05999994
   12.34638882  167.34599304    4.90999985    2.05999994
   12.34972191  171.41299438    4.90999985    2.05999994
   12.35583401  171.41299438    4.90999985    2.05999994
   12.36000061  165.21800232    4.90999985    2.05999994
   12.36305618  158.94900513    4.90999985    2.07999992
   12.36638927  163.18400574    4.90999985    2.07999992
   12.36972237  165.97000122    4.90999985    2.07999992
   12.37277794  161.33000183    4.90999985    2.07999992
   12.37611103  161.72200012    4.90999985    2.09999990
   12.37861156  163.59800720    4.90999985    2.09999990
   12.37972260  171.14100647    4.90999985    2.09999990
   12.38305569  170.72099304    4.90999985    2.09999990
   12.38638878  159.35099792    4.90999985    2.09999990
   12.38944435  158.49099731    4.90999985    2.07999992
   12.39277744  163.16799927    4.90999985    2.05999994
   12.39861107  163.16799927    4.90999985    2.09999990
   12.40277767  180.27699280    4.90999985    2.11999989
   12.40611076  156.27799988    4.90999985    2.11999989
   12.40916634  152.92900085    4.90999985    2.13000011
   12.41194439  158.19000244    4.90999985    2.13000011
   12.41277695  158.22500610    4.90999985    2.13000011
   12.41611099  159.43400574    4.90999985    2.13000011
   12.41944504  161.24699402    4.90999985    2.13000011
   12.42250061  159.77400208    4.90999985    2.13000011
   12.42583370  155.10499573    4.90999985    2.13000011
   12.42916679  150.85099792    4.90999985    2.13000011
   12.43222237  164.42599487    4.90999985    2.13000011
   12.43555546  155.25100708    4.90999985    2.13000011
   12.44138908  155.25100708    4.90999985    2.13000011
   12.44555569  159.60000610    4.90999985    2.13000011
   12.44888878  157.03199768    4.90999985    2.15000010
   12.45222187  162.35699463    4.90999985    2.13000011
   12.45527744  157.47099304    4.90999985    2.13000011
   12.45861053  158.14799500    4.90999985    2.15000010
   12.46166611  154.68899536    4.90999985    2.15000010
   12.46500015  160.70799255    4.90999985    2.15000010
   12.46833324  157.19599915    4.84999990    2.15000010
   12.47138882  163.33599854    4.73999977    2.15000010
   12.47472191  152.99800110    4.57999992    2.15000010
   12.47805500  152.57499695    4.26000023    2.15000010
   12.47861099  156.58399963    4.26000023    2.15000010
   12.48444462  156.58399963    3.86999989    2.17000008
   12.48833370  168.33599854    3.78999996    2.15000010
   12.49166679  169.25500488    3.76999998    2.15000010
   12.49499989  155.78999329    3.75000000    2.15000010
   12.49805546  165.11300659    3.76999998    2.17000008
   12.50138855  163.41400146    3.70000005    2.17000008
   12.50472260  158.25999451    3.59999990    2.17000008
   12.50777817  163.36999512    3.50000000    2.17000008
   12.51111126  155.44500732    3.45000005    2.17000008
   12.51194477  160.56500244    3.43000007    2.17000008
   12.51472187  159.08900452    3.32999992    2.17000008
   12.51777744  151.44999695    3.14000010    2.17000008
   12.52111053  156.21099854    2.98000002    2.17000008
   12.52722168  156.21099854    2.73000002    2.17000008
   12.53138828  147.57899475    2.59999990    2.17000008
   12.53444481  156.24600220    2.46000004    2.17000008
   12.53777790  155.87699890    2.40000010    2.17000008
   12.54111195  154.41400146    2.42000008    2.19000006
   12.54416752  149.73199463    2.51999998    2.17000008
   12.54527855  149.66499329    2.59999990    2.19000006
   12.54805565  149.49000549    2.80999994    2.19000006
   12.55111122  151.55999756    3.16000009    2.19000006
   12.55444431  152.76300049    3.68000007    2.19000006
   12.55749989  151.61199951    4.34999990    2.19000006
   12.56083393  154.32099915    4.90999985    2.21000004
   12.56416702  154.14100647    4.90999985    2.21000004
   12.56999969  154.14100647    4.90999985    2.21000004
   12.57416630  149.58200073    4.90999985    2.21000004
   12.57750034  145.66999817    4.90999985    2.21000004
   12.57861137  149.82400513    4.90999985    2.21000004
   12.58111095  149.87500000    4.90999985    2.21000004
   12.58416653  160.63200378    4.90999985    2.23000002
   12.58749962  148.75700378    4.90999985    2.21000004
   12.59055519  150.85099792    4.90999985    2.21000004
   12.59388828  146.91099548    4.90999985    2.23000002
   12.59722233  156.76199341    4.90999985    2.23000002
   12.60027790  151.13299561    4.90999985    2.23000002
   12.60361195  156.20599365    4.90999985    2.23000002
   12.60694504  148.26100159    4.90999985    2.23000002
   12.61277771  148.26100159    4.90999985    2.25000000
   12.61694431  151.72099304    4.90999985    2.26999998
   12.62027836  150.85600281    4.90999985    2.26999998
   12.62333393  159.88999939    4.90999985    2.28999996
   12.62666702  153.10499573    4.90999985    2.28999996
   12.63000011  150.36300659    4.90999985    2.26999998
   12.63305569  147.41299438    4.90999985    2.26999998
   12.63638878  152.92100525    4.90999985    2.26999998
   12.63972187  151.71200562    4.90999985    2.26999998
   12.64277744  144.94799805    4.90999985    2.28999996
   12.64527798  151.13499451    4.90999985    2.26999998
   12.64666653  144.74800110    4.90999985    2.28999996
   12.64972210  163.04499817    4.90999985    2.28999996
   12.65583324  163.04499817    4.90999985    2.28999996
   12.65972137  163.36700439    4.90999985    2.28999996
   12.66305542  151.61700439    4.90999985    2.28999996
   12.66638851  159.74200439    4.90999985    2.26999998
   12.66944504  157.40800476    4.90999985    2.26999998
   12.67277813  161.75100708    4.90999985    2.23000002
   12.67611122  162.43400574    4.90999985    2.23000002
   12.67861176  163.81799316    4.90999985    2.19000006
   12.67972279  150.46299744    4.90999985    2.21000004
   12.68277836  158.86700439    4.90999985    2.17000008
   12.68611145  158.13000488    4.90999985    2.17000008
   12.68916702  164.39500427    4.90999985    2.17000008
   12.69250011  158.71099854    4.90999985    2.21000004
   12.69861126  158.71099854    4.90999985    2.23000002
   12.70277786  157.09800720    4.90999985    2.26999998
   12.70583344  145.68099976    4.90999985    2.26999998
   12.70916653  147.40499878    4.90999985    2.26999998
   12.71194458  143.11700439    4.90999985    2.26999998
   12.71277714  147.98800659    4.90999985    2.28999996
   12.71583271  142.88400269    4.90999985    2.26999998
   12.71916580  144.82699585    4.90999985    2.26999998
   12.72222137  154.76699829    4.90999985    2.28999996
   12.72555542  148.25000000    4.90999985    2.23000002
   12.72888851  162.96899414    4.90999985    2.17000008
   12.73194408  176.37800598    4.90999985    2.13000011
   12.73527813  181.70300293    4.90999985    2.11999989
   12.74138927  181.70300293    4.90999985    2.07999992
   12.74555588  172.14999390    4.90999985    2.05999994
   12.74888897  162.83200073    4.90999985    2.13000011
   12.75194454  181.54699707    4.90999985    2.17000008
   12.75527763  153.77499390    4.90999985    2.19000006
   12.75861073  208.91700745    4.90999985    2.15000010
   12.76166630  201.65699768    4.90999985    2.07999992
   12.76500034  204.54400635    4.90999985    2.11999989
   12.76833344  177.78900146    4.90999985    2.01999998
   12.77138901  198.19900513    4.90999985    2.09999990
   12.77472210  201.75900269    4.90999985    2.13000011
   12.77777767  190.28500366    4.90999985    1.94000006
   12.77861118  232.87699890    4.90999985    1.94000006
   12.78416729  232.87699890    4.90999985    1.96000004
   12.78833389  275.80599976    4.90999985    1.89999998
   12.79166698  174.39100647    4.90999985    2.11999989
   12.79472256  239.39300537    4.90999985    1.98000002
   12.79805565  211.28900146    4.90999985    1.91999996
   12.80138874  194.88600159    4.90999985    1.96000004
   12.80444431  213.49099731    4.90999985    1.96000004
   12.80777836  172.71800232    4.90999985    1.96000004
   12.81111145  165.36799622    4.90999985    1.98000002
   12.81194496  189.83200073    4.90999985    2.00000000
   12.81472206  153.35499573    4.90999985    2.07999992
   12.81777763  160.28999329    4.90999985    2.17000008
   12.82111073  161.01499939    4.90999985    2.13000011
   12.82722187  161.01499939    4.90999985    2.09999990
   12.83111095  156.37500000    4.90999985    2.15000010
   12.83444405  151.56399536    4.90999985    2.23000002
   12.83777714  157.27400208    4.90999985    2.25000000
   12.84083271  170.11399841    4.90999985    2.23000002
   12.84416676  162.50399780    4.90999985    2.23000002
   12.84527779  153.36300659    4.90999985    2.23000002
   12.84777737  163.67500305    4.90999985    2.23000002
   12.85083389  171.48399353    4.90999985    2.17000008
   12.85416698  165.61099243    4.90999985    2.13000011
   12.85750008  173.97399902    4.90999985    2.11999989
   12.86055565  161.17999268    4.90999985    2.15000010
   12.86388969  157.73899841    4.90999985    2.21000004
   12.86999989  157.73899841    4.90999985    2.25000000
   12.87416649  151.78700256    4.90999985    2.25000000
   12.87722206  150.00000000    4.90999985    2.26999998
   12.87861156  155.58000183    4.90999985    2.28999996
   12.88111115  155.25399780    4.90999985    2.28999996
   12.88416672  156.23500061    4.90999985    2.30999994
   12.88749981  146.44099426    4.90999985    2.28999996
   12.89083290  163.61799622    4.90999985    2.30999994
   12.89388847  153.41099548    4.90999985    2.30999994
   12.89722252  151.50700378    4.90999985    2.28999996
   12.90027714  154.61399841    4.90999985    2.30999994
   12.90361118  154.59500122    4.90999985    2.30999994
   12.90694427  158.04299927    4.90999985    2.28999996
   12.91277695  158.04299927    4.90999985    2.30999994
   12.91694450  167.08999634    4.90999985    2.28999996
   12.92027855  162.81900024    4.90999985    2.28999996
   12.92333412  160.42100525    4.90999985    2.28999996
   12.92666721  160.31500244    4.90999985    2.26999998
   12.92972279  145.49200439    4.90999985    2.28999996
   12.93305588  159.16799927    4.90999985    2.28999996
   12.93638897  151.85899353    4.90999985    2.28999996
   12.93944454  150.13699341    4.57999992    2.28999996
   12.94277763  153.67799377    4.07999992    2.28999996
   12.94527817  154.16900635    3.86999989    2.30999994
   12.94638920  143.71899414    3.76999998    2.30999994
   12.94944477  143.26800537    3.05999994    2.32999992
   12.95555496  143.26800537    2.07999992    2.32999992
   12.95972157  150.59399414    1.60000002    2.32999992
   12.96305561  153.94500732    1.33000004    2.32999992
   12.96611118  143.19999695    1.25000000    2.30999994
   12.96944427  151.64900208    1.28999996    2.28999996
   12.97277737  143.98899841    1.34000003    2.30999994
   12.97583294  146.97399902    1.34000003    2.30999994
   12.97861099  148.50100708    1.34000003    2.30999994
   12.97972202  145.40899658    1.34000003    2.32999992
   12.98277760  152.25500488    1.16999996    2.32999992
   12.98611164  141.39300537    1.07000005    2.32999992
   12.98944473  139.42500305    1.05999994    2.34999990
   12.99250031  144.92199707    0.89999998    2.34999990
   12.99861145  144.92199707    0.80000001    2.34999990
   13.00249958  142.41799927    0.69000000    2.36999989
   13.00583363  159.60299683    0.69000000    2.34999990
   13.00916672  152.90800476    0.67000002    2.34999990
   13.01194477  152.85099792    0.67000002    2.36999989
   13.01277733  148.25000000    0.67000002    2.36999989
   13.01583290  150.12100220    0.67000002    2.34999990
   13.01916599  152.79499817    0.69000000    2.34999990
   13.02250004  146.88900757    0.67000002    2.34999990
   13.02555561  142.90400696    0.67000002    2.36999989
   13.02888870  145.23199463    0.67000002    2.36999989
   13.03222179  139.68299866    0.67000002    2.36999989
   13.03527832  133.01699829    0.67000002    2.36999989
   13.04138947  133.01699829    0.67000002    2.34999990
   13.04555607  145.54699707    0.64999998    2.36999989
   13.04861164  139.07099915    0.64999998    2.36999989
   13.05194473  156.43400574    0.64999998    2.36999989
   13.05527782  146.85600281    0.67000002    2.36999989
   13.05833340  145.86599731    0.64999998    2.36999989
   13.06166649  137.40899658    0.64999998    2.36999989
   13.06472206  144.97000122    0.67000002    2.36999989
   13.06805515  145.47099304    0.67000002    2.36999989
   13.07138920  135.45799255    0.64999998    2.36999989
   13.07444477  138.87399292    0.67000002    2.36999989
   13.07777786  133.68699646    0.67000002    2.36999989
   13.07861137  141.18899536    0.64999998    2.36999989
   13.09944439  141.18899536    0.67000002    2.36999989
   13.10361195  150.32699585    0.67000002    2.39000010
   13.10694504  158.64199829    0.67000002    2.39000010
   13.11000061  162.54100037    0.67000002    2.39000010
   13.11194515  159.09500122    0.67000002    2.39000010
   13.11388969  141.24299622    0.67000002    2.36999989
   13.11722279  141.68299866    0.67000002    2.36999989
   13.12027836  141.34300232    0.67000002    2.36999989
   13.12361145  140.09300232    0.67000002    2.39000010
   13.12666702  135.31700134    0.67000002    2.39000010
   13.13000011  155.45399475    0.69000000    2.39000010
   13.13333321  146.15400696    0.67000002    2.39000010
   13.13638878  139.16900635    0.67000002    2.39000010
   13.14222240  139.16900635    0.67000002    2.39000010
   13.14638901  136.47599792    0.67000002    2.39000010
   13.14944458  136.83700562    0.67000002    2.40000010
   13.15277767  143.24200439    0.64999998    2.39000010
   13.15583324  141.71299744    0.64999998    2.39000010
   13.15916634  140.08999634    0.64999998    2.39000010
   13.16249943  156.28700256    0.64999998    2.39000010
   13.16555500  139.12399292    0.64999998    2.39000010
   13.16888905  145.65499878    0.64999998    2.39000010
   13.17222214  138.21099854    0.64999998    2.39000010
   13.17527771  137.47700500    0.64999998    2.39000010
   13.17861176  138.81300354    0.64999998    2.39000010
   13.17916679  140.08000183    0.64999998    2.39000010
   13.18500042  140.08000183    0.63000000    2.39000010
   13.18916702  147.54200745    0.63000000    2.39000010
   13.19222260  142.64900208    0.63000000    2.40000010
   13.19555569  147.72200012    0.63000000    2.40000010
   13.19888878  144.36700439    0.63000000    2.40000010
   13.20194435  139.96699524    0.64999998    2.39000010
   13.20527744  135.51699829    0.64999998    2.40000010
   13.20861053  145.07499695    0.64999998    2.40000010
   13.21166611  143.18200684    0.64999998    2.40000010
   13.21249962  147.10099792    0.64999998    2.40000010
   13.21527767  146.91499329    0.64999998    2.40000010
   13.21861076  139.16000366    0.64999998    2.40000010
   13.22194386  143.92700195    0.64999998    2.40000010
   13.22777748  143.92700195    0.63000000    2.40000010
   13.23194408  149.04699707    0.63000000    2.40000010
   13.23527813  140.16600037    0.63000000    2.40000010
   13.23833370  148.35000610    0.63000000    2.40000010
   13.24166679  152.62699890    0.63000000    2.40000010
   13.24499989  154.42500305    0.63000000    2.42000008
   13.24583340  150.98699951    0.63000000    2.42000008
   13.24833393  149.19400024    0.63000000    2.40000010
   13.25166702  162.92799377    0.63000000    2.40000010
   13.25500011  154.32499695    0.61000001    2.40000010
   13.25805569  145.37399292    0.63000000    2.44000006
   13.26138878  150.70599365    0.61000001    2.40000010
   13.26472187  155.60800171    0.61000001    2.40000010
   13.27055550  155.60800171    0.61000001    2.42000008
   13.27472210  168.80400085    0.61000001    2.42000008
   13.27805519  176.57899475    0.61000001    2.42000008
   13.27916622  160.92799377    0.61000001    2.42000008
   13.28194427  178.34300232    0.61000001    2.42000008
   13.28500080  184.73300171    0.61000001    2.42000008
   13.28833389  181.26499939    0.58999997    2.42000008
   13.29138947  178.99699402    0.58999997    2.44000006
   13.29472256  167.46299744    0.58999997    2.42000008
   13.29805565  186.30400085    0.58999997    2.42000008
   13.30111122  175.63299561    0.58999997    2.42000008
   13.30444431  180.65100098    0.58999997    2.42000008
   13.30777836  173.21600342    0.58999997    2.42000008
   13.31361103  173.21600342    0.58999997    2.42000008
   13.31777763  200.76499939    0.58999997    2.42000008
   13.32083321  201.60800171    0.58999997    2.42000008
   13.32416630  223.83200073    0.58999997    2.42000008
   13.32722187  225.09300232    0.58999997    2.42000008
   13.33055592  230.00399780    0.61000001    2.42000008
   13.33388901  215.35499573    0.61000001    2.42000008
   13.33694458  232.31500244    0.61000001    2.42000008
   13.34027767  214.58500671    0.61000001    2.42000008
   13.34361076  215.13200378    0.61000001    2.42000008
   13.34583282  216.58999634    0.61000001    2.44000006
   13.34694386  219.98899841    0.61000001    2.44000006
   13.35027790  210.11700439    0.58999997    2.44000006
   13.35638905  210.11700439    0.58999997    2.44000006
   13.36055565  209.48500061    0.58999997    2.44000006
   13.36361122  214.20899963    0.61000001    2.44000006
   13.36694431  208.26600647    0.61000001    2.44000006
   13.37027836  199.82200623    0.61000001    2.44000006
   13.37333393  206.60800171    0.61000001    2.44000006
   13.37666702  214.48899841    0.61000001    2.44000006
   13.37916660  210.72099304    0.58999997    2.44000006
   13.38027763  219.64100647    0.58999997    2.44000006
   13.38361073  219.86300659    0.58999997    2.44000006
   13.38694477  208.55599976    0.58999997    2.44000006
   13.39000034  199.29699707    0.58999997    2.44000006
   13.39333344  203.25000000    0.61000001    2.44000006
   13.39916611  203.25000000    0.61000001    2.44000006
   13.40333271  212.10499573    0.58999997    2.46000004
   13.40666676  203.36599731    0.61000001    2.46000004
   13.40972137  208.97700500    0.58999997    2.44000006
   13.41249943  210.70799255    0.58999997    2.44000006
   13.41361046  218.76899719    0.58999997    2.44000006
   13.41694450  228.29200745    0.58999997    2.46000004
   13.42000008  229.05599976    0.56999999    2.46000004
   13.42333412  213.19700623    0.56999999    2.46000004
   13.42666721  232.41499329    0.56999999    2.46000004
   13.42972279  220.26100159    0.56999999    2.46000004
   13.43305588  240.06799316    0.56999999    2.46000004
   13.43638897  206.80499268    0.56999999    2.46000004
   13.44194412  206.80499268    0.55000001    2.46000004
   13.44611073  215.43899536    0.56999999    2.46000004
   13.44944477  220.40100098    0.55000001    2.46000004
   13.45249939  226.49400330    0.55000001    2.46000004
   13.45583344  229.88999939    0.55000001    2.46000004
   13.45916653  225.43899536    0.55000001    2.46000004
   13.46222210  226.94200134    0.55000001    2.46000004
   13.46555519  228.03799438    0.55000001    2.46000004
   13.46888828  241.21600342    0.55000001    2.46000004
   13.47194386  234.33999634    0.55000001    2.46000004
   13.47527695  227.06100464    0.55000001    2.46000004
   13.47833252  211.52299500    0.56999999    2.46000004
   13.47916603  221.17300415    0.56999999    2.46000004
   13.48500061  221.17300415    0.55000001    2.46000004
   13.48916721  232.78300476    0.55000001    2.46000004
   13.49222279  220.51499939    0.55000001    2.46000004
   13.49555588  220.50000000    0.55000001    2.46000004
   13.49861145  239.71099854    0.55000001    2.46000004
   13.50194454  227.26400757    0.55000001    2.46000004
   13.50527763  237.04400635    0.55000001    2.46000004
   13.50833321  220.68800354    0.55000001    2.46000004
   13.51166630  214.83299255    0.55000001    2.46000004
   13.51249981  215.55400085    0.55000001    2.46000004
   13.51555538  227.11900330    0.55000001    2.46000004
   13.51861095  219.29800415    0.55000001    2.46000004
   13.52194405  204.02699280    0.55000001    2.46000004
   13.52777767  204.02699280    0.55000001    2.48000002
   13.53194427  217.27499390    0.55000001    2.48000002
   13.53500080  204.24099731    0.55000001    2.48000002
   13.53833389  217.19200134    0.55000001    2.46000004
   13.54166698  194.75100708    0.55000001    2.48000002
   13.54472256  209.69299316    0.55000001    2.48000002
   13.54583359  205.99499512    0.55000001    2.48000002
   13.54861164  216.08200073    0.55000001    2.48000002
   13.55166721  212.67999268    0.55000001    2.48000002
   13.55500031  210.61199951    0.55000001    2.48000002
   13.55833340  211.27699280    0.55000001    2.48000002
   13.56138897  203.16999817    0.55000001    2.48000002
   13.56472206  210.82800293    0.55000001    2.48000002
   13.57055569  210.82800293    0.55000001    2.48000002
   13.57472229  196.66600037    0.55000001    2.48000002
   13.57805538  199.61900330    0.55000001    2.48000002
   13.57916641  200.19999695    0.55000001    2.48000002
   13.58166695  197.64599609    0.55000001    2.48000002
   13.58472157  204.93099976    0.55000001    2.48000002
   13.58805561  199.68200684    0.55000001    2.48000002
   13.59111118  197.20399475    0.55000001    2.48000002
   13.59444427  193.72599792    0.55000001    2.48000002
   13.59777737  181.02600098    0.52999997    2.48000002
   13.60083389  194.73899841    0.52999997    2.48000002
   13.60416698  193.87800598    0.52999997    2.48000002
   13.60750008  192.21099854    0.52999997    2.48000002
   13.61333370  192.21099854    0.52999997    2.48000002
   13.61750031  199.44599915    0.52999997    2.48000002
   13.62083340  185.58500671    0.52999997    2.48000002
   13.62388897  188.02499390    0.52999997    2.48000002
   13.62722206  178.13900757    0.52999997    2.48000002
   13.63055611  192.86199951    0.52999997    2.48000002
   13.63361073  188.68499756    0.52999997    2.48000002
   13.63694477  189.01600647    0.52999997    2.48000002
   13.64027786  189.01100159    0.52999997    2.48000002
   13.64333344  188.55499268    0.52999997    2.48000002
   13.64583302  184.72000122    0.52999997    2.48000002
   13.64722252  186.66900635    0.51999998    2.48000002
   13.65027714  183.28999329    0.51999998    2.48000002
   13.65638828  183.28999329    0.51999998    2.50000000
   13.66027737  186.88299561    0.51999998    2.50000000
   13.66361046  174.12699890    0.51999998    2.48000002
   13.66694450  179.06599426    0.52999997    2.50000000
   13.67000008  169.15499878    0.52999997    2.50000000
   13.67333412  185.87600708    0.52999997    2.50000000
   13.67666721  175.40199280    0.52999997    2.48000002
   13.67916679  177.94700623    0.52999997    2.50000000
   13.68027782  184.21200562    0.52999997    2.50000000
   13.68333340  171.65899658    0.52999997    2.50000000
   13.68666649  181.47000122    0.52999997    2.50000000
   13.69000053  171.60099792    0.52999997    2.50000000
   13.69305515  174.97500610    0.51999998    2.50000000
   13.69916630  174.97500610    0.51999998    2.50000000
   13.70333290  182.25799561    0.52999997    2.50000000
   13.70638847  179.36399841    0.52999997    2.50000000
   13.70972157  177.80900574    0.52999997    2.50000000
   13.71249962  175.06500244    0.51999998    2.50000000
   13.71333313  177.86500549    0.51999998    2.50000000
   13.71638870  173.19700623    0.51999998    2.50000000
   13.71972179  180.43800354    0.51999998    2.50000000
   13.72305489  181.02400208    0.51999998    2.50000000
   13.72638798  179.76400757    0.51999998    2.50000000
   13.72944355  180.76800537    0.51999998    2.50000000
   13.73277760  184.59899902    0.52999997    2.51999998
   13.73583317  175.95100403    0.52999997    2.51999998
   13.74194431  175.95100403    0.55000001    2.50000000
   13.74611092  173.60200500    0.55000001    2.50000000
   13.74944496  169.66900635    0.55000001    2.50000000
   13.75249958  171.63499451    0.55000001    2.50000000
   13.75583363  164.20700073    0.55000001    2.50000000
   13.75888920  168.06399536    0.55000001    2.50000000
   13.76222229  168.43200684    0.55000001    2.50000000
   13.76555538  167.43299866    0.52999997    2.50000000
   13.76861095  167.34100342    0.52999997    2.51999998
   13.77194405  174.36799622    0.52999997    2.51999998
   13.77527714  171.47300720    0.52999997    2.51999998
   13.77833271  174.02699280    0.55000001    2.50000000
   13.77916622  172.54699707    0.52999997    2.51999998
   13.78472233  172.54699707    0.52999997    2.50000000
   13.78888893  162.78399658    0.52999997    2.51999998
   13.79222298  166.84399414    0.52999997    2.51999998
   13.79527855  170.12199402    0.52999997    2.50000000
   13.79861164  174.64199829    0.52999997    2.50000000
   13.80194473  169.44700623    0.52999997    2.50000000
   13.80500031  172.61500549    0.52999997    2.50000000
   13.80833340  173.44799805    0.52999997    2.51999998
   13.81138897  167.14799500    0.52999997    2.51999998
   13.81250000  172.77699280    0.52999997    2.51999998
   13.81527805  160.32000732    0.52999997    2.51999998
   13.81833363  171.30400085    0.52999997    2.51999998
   13.82166672  166.13400269    0.52999997    2.51999998
   13.82750034  166.13400269    0.52999997    2.51999998
   13.83166695  168.76800537    0.52999997    2.51999998
   13.83500004  168.71299744    0.52999997    2.51999998
   13.83833313  159.75500488    0.52999997    2.51999998
   13.84138870  154.31599426    0.52999997    2.51999998
   13.84472179  160.41299438    0.52999997    2.51999998
   13.84583282  172.60000610    0.52999997    2.51999998
   13.84833336  172.56799316    0.52999997    2.51999998
   13.85138893  163.26499939    0.52999997    2.51999998
   13.85472298  173.57000732    0.52999997    2.51999998
   13.85805607  168.82299805    0.52999997    2.51999998
   13.86111164  165.56199646    0.52999997    2.51999998
   13.86444473  164.74400330    0.52999997    2.51999998
   13.87055588  164.74400330    0.52999997    2.51999998
   13.87472248  167.56799316    0.52999997    2.51999998
   13.87777805  175.83099365    0.52999997    2.51999998
   13.87916660  172.69599915    0.52999997    2.51999998
   13.88166714  171.70300293    0.52999997    2.51999998
   13.88472176  160.52000427    0.52999997    2.51999998
   13.88805580  164.55900574    0.52999997    2.51999998
   13.89138889  168.83599854    0.52999997    2.51999998
   13.89444447  162.53199768    0.52999997    2.51999998
   13.89777756  167.62899780    0.52999997    2.51999998
   13.90083313  161.69700623    0.52999997    2.51999998
   13.90416622  166.43400574    0.52999997    2.53999996
   13.90749931  166.82099915    0.51999998    2.51999998
   13.91333294  166.82099915    0.52999997    2.53999996
   13.91750050  165.50199890    0.52999997    2.53999996
   13.92083359  173.78399658    0.52999997    2.53999996
   13.92388916  167.21600342    0.52999997    2.53999996
   13.92722225  171.14199829    0.52999997    2.53999996
   13.93055630  160.37300110    0.51999998    2.51999998
   13.93361092  176.56100464    0.51999998    2.53999996
   13.93694496  172.06799316    0.51999998    2.53999996
   13.94000053  167.39999390    0.52999997    2.53999996
   13.94333363  163.92900085    0.51999998    2.53999996
   13.94583321  163.18899536    0.52999997    2.53999996
   13.94694424  163.53100586    0.52999997    2.53999996
   13.94999981  163.16299438    0.52999997    2.53999996
   13.95611095  163.16299438    0.52999997    2.53999996
   13.96055508  159.64300537    0.52999997    2.53999996
   13.96416664  165.96400452    0.52999997    2.53999996
   13.96722221  165.21400452    0.51999998    2.53999996
   13.97055531  166.58399963    0.51999998    2.53999996
   13.97361088  168.19400024    0.51999998    2.53999996
   13.97694397  161.25199890    0.51999998    2.53999996
   13.97916603  166.50900269    0.52999997    2.53999996
   13.98055553  152.57600403    0.52999997    2.53999996
   13.98361111  165.29600525    0.52999997    2.53999996
   13.98694515  167.96899414    0.52999997    2.53999996
   13.99027824  166.85400391    0.51999998    2.53999996
   13.99333382  162.63800049    0.51999998    2.53999996
   13.99888897  162.63800049    0.52999997    2.53999996
   14.00305557  168.56399536    0.51999998    2.53999996
   14.00638866  156.26400757    0.51999998    2.53999996
   14.00972176  165.61300659    0.52999997    2.53999996
   14.01249981  160.59899902    0.51999998    2.55999994
   14.01333332  162.72000122    0.51999998    2.55999994
   14.01638889  158.20399475    0.52999997    2.55999994
   14.01972198  163.19400024    0.51999998    2.53999996
   14.02305508  169.13999939    0.51999998    2.53999996
   14.02611065  160.89300537    0.51999998    2.53999996
   14.02944374  164.21800232    0.51999998    2.53999996
   14.03277779  157.51100159    0.51999998    2.53999996
   14.03583336  165.24499512    0.51999998    2.53999996
   14.04194450  165.24499512    0.52999997    2.55999994
   14.04611111  161.27900696    0.51999998    2.53999996
   14.04916668  168.33799744    0.51999998    2.53999996
   14.05249977  164.62800598    0.51999998    2.53999996
   14.05583382  165.27999878    0.50000000    2.53999996
   14.05888939  165.93600464    0.51999998    2.55999994
   14.06222248  159.78799438    0.50000000    2.53999996
   14.06527805  157.88299561    0.51999998    2.55999994
   14.06861115  167.28300476    0.51999998    2.53999996
   14.07194424  166.75700378    0.50000000    2.53999996
   14.07499981  165.60699463    0.50000000    2.53999996
   14.07833290  167.09500122    0.50000000    2.55999994
   14.07916641  168.50999451    0.50000000    2.55999994
   14.08472157  168.50999451    0.47999999    2.55999994
   14.08888817  154.39900208    0.50000000    2.55999994
   14.09222221  167.11999512    0.50000000    2.55999994
   14.09527779  158.22999573    0.50000000    2.55999994
   14.11277771  157.11199951    0.50000000    2.55999994
   14.11527824  158.26699829    0.50000000    2.55999994
   14.11861134  157.05599976    0.50000000    2.55999994
   14.12166691  156.66000366    0.47999999    2.55999994
   14.12777805  156.66000366    0.47999999    2.55999994
   14.13194466  160.40800476    0.47999999    2.55999994
   14.13500023  160.72999573    0.47999999    2.55999994
   14.13833332  159.22000122    0.47999999    2.55999994
   14.14166641  158.97599792    0.47999999    2.55999994
   14.14472198  155.95500183    0.47999999    2.55999994
   14.14611053  163.73699951    0.47999999    2.55999994
   14.14861107  150.00900269    0.47999999    2.55999994
   14.15194416  155.10000610    0.47999999    2.55999994
   14.15499973  157.74699402    0.47999999    2.55999994
   14.15833282  161.28300476    0.47999999    2.55999994
   14.16138840  155.07499695    0.47999999    2.55999994
   14.16472149  161.19900513    0.47999999    2.55999994
   14.17055607  161.19900513    0.47999999    2.55999994
   14.17472267  162.93699646    0.47999999    2.55999994
   14.17805576  150.82299805    0.47999999    2.55999994
   14.17944431  159.38400269    0.47999999    2.55999994
   14.18166733  161.95700073    0.47999999    2.55999994
   14.18472195  154.58999634    0.47999999    2.55999994
   14.18805599  165.05299377    0.47999999    2.55999994
   14.19138908  156.28700256    0.47999999    2.55999994
   14.19444466  154.76300049    0.47999999    2.55999994
   14.19777775  151.69799805    0.47999999    2.55999994
   14.20111084  156.55400085    0.46000001    2.55999994
   14.20416641  151.06900024    0.46000001    2.55999994
   14.20749950  162.02600098    0.46000001    2.55999994
   14.21333313  162.02600098    0.44000000    2.55999994
   14.21749973  156.06199646    0.44000000    2.55999994
   14.22083282  157.12100220    0.44000000    2.55999994
   14.22416592  162.27699280    0.44000000    2.57999992
   14.22722149  152.18699646    0.44000000    2.57999992
   14.23055553  163.05599976    0.44000000    2.55999994
   14.23361111  158.13600159    0.44000000    2.55999994
   14.23694515  158.45199585    0.44000000    2.57999992
   14.24027824  150.93600464    0.41999999    2.57999992
   14.24333382  152.63000488    0.41999999    2.55999994
   14.24611092  153.38099670    0.41999999    2.57999992
   14.24722290  152.91099548    0.41999999    2.57999992
   14.25055599  161.04299927    0.44000000    2.57999992
   14.25638866  161.04299927    0.44000000    2.57999992
   14.26055527  147.52099609    0.44000000    2.57999992
   14.26361084  150.76600647    0.44000000    2.57999992
   14.26694393  155.37300110    0.41999999    2.57999992
   14.26999950  151.66400146    0.41999999    2.57999992
   14.27333355  157.30499268    0.44000000    2.57999992
   14.27666664  150.70899963    0.44000000    2.55999994
   14.27944374  142.59800720    0.41999999    2.57999992
   14.28027725  157.34599304    0.41999999    2.57999992
   14.28333378  150.56599426    0.41999999    2.57999992
   14.28666687  148.28300476    0.41999999    2.57999992
   14.29000092  159.49400330    0.44000000    2.57999992
   14.29305553  147.40100098    0.41999999    2.57999992
   14.29916668  147.40100098    0.44000000    2.57999992
   14.30333328  146.85499573    0.44000000    2.57999992
   14.30638885  153.29400635    0.44000000    2.57999992
   14.30972195  148.06300354    0.44000000    2.57999992
   14.31277752  146.60699463    0.44000000    2.57999992
   14.31333351  146.49400330    0.44000000    2.57999992
   14.31638908  147.52900696    0.44000000    2.57999992
   14.31972218  141.94700623    0.44000000    2.57999992
   14.32305527  142.34100342    0.44000000    2.57999992
   14.32611084  142.22999573    0.44000000    2.57999992
   14.32944393  150.08200073    0.44000000    2.57999992
   14.33249950  143.63600159    0.41999999    2.57999992
   14.33583260  148.68099976    0.41999999    2.57999992
   14.34194374  148.68099976    0.41999999    2.57999992
   14.34611034  156.07899475    0.41999999    2.57999992
   14.34666634  141.63699341    0.41999999    2.57999992
   14.34972191  140.66099548    0.41999999    2.57999992
   14.35305595  146.32499695    0.41999999    2.57999992
   14.35638905  149.03900146    0.41999999    2.57999992
   14.35944462  145.26400757    0.40000001    2.57999992
   14.36277771  150.11700439    0.41999999    2.57999992
   14.36611176  149.02600098    0.41999999    2.57999992
   14.36916637  159.19099426    0.40000001    2.57999992
   14.37250042  154.49200439    0.40000001    2.57999992
   14.37583351  154.73500061    0.40000001    2.57999992
   14.37888908  148.90100098    0.40000001    2.57999992
   14.37944412  154.41299438    0.40000001    2.57999992
   14.38500023  154.41299438    0.40000001    2.57999992
   14.38916683  148.36700439    0.40000001    2.57999992
   14.39222240  146.62899780    0.40000001    2.57999992
   14.39555550  153.12399292    0.40000001    2.57999992
   14.39888859  147.47900391    0.41999999    2.59999990
   14.40194416  154.34500122    0.40000001    2.57999992
   14.40527725  142.42300415    0.40000001    2.59999990
   14.40861034  158.67300415    0.40000001    2.57999992
   14.41166592  149.94799805    0.40000001    2.59999990
   14.41277695  155.27400208    0.40000001    2.59999990
   14.41527748  149.67300415    0.40000001    2.57999992
   14.41833401  160.97700500    0.40000001    2.57999992
   14.42166710  143.70500183    0.40000001    2.57999992
   14.42777824  143.70500183    0.40000001    2.57999992
   14.43194485  148.85400391    0.40000001    2.59999990
   14.43500042  149.65499878    0.40000001    2.59999990
   14.43833351  152.51699829    0.40000001    2.59999990
   14.44138908  149.72399902    0.40000001    2.59999990
   14.44472218  139.74499512    0.40000001    2.57999992
   14.44611073  144.53700256    0.40000001    2.57999992
   14.44833374  156.32200623    0.40000001    2.57999992
   14.45166683  152.19799805    0.40000001    2.57999992
   14.45472240  152.74800110    0.40000001    2.59999990
   14.45805550  148.51499939    0.40000001    2.57999992
   14.46138859  154.13200378    0.40000001    2.59999990
   14.46444416  150.65499878    0.38000000    2.59999990
   14.47055531  150.65499878    0.38000000    2.57999992
   14.47472191  152.80499268    0.40000001    2.59999990
   14.47777748  161.90299988    0.40000001    2.57999992
   14.47944355  148.32400513    0.38000000    2.59999990
   14.48138809  154.27499390    0.38000000    2.59999990
   14.48472214  140.16900635    0.38000000    2.59999990
   14.48777771  164.97599792    0.40000001    2.59999990
   14.49111176  148.24899292    0.40000001    2.59999990
   14.49416733  149.89999390    0.40000001    2.59999990
   14.49750042  151.45500183    0.40000001    2.59999990
   14.50083351  153.21200562    0.40000001    2.59999990
   14.50388908  143.39999390    0.40000001    2.59999990
   14.50722218  152.18400574    0.40000001    2.59999990
   14.51333332  152.18400574    0.40000001    2.59999990
   14.51749992  148.14300537    0.40000001    2.59999990
   14.52083302  146.63299561    0.40000001    2.59999990
   14.52388859  145.72599792    0.40000001    2.59999990
   14.52722168  154.73300171    0.40000001    2.59999990
   14.53027725  156.86599731    0.40000001    2.59999990
   14.53361130  142.66000366    0.40000001    2.59999990
   14.53694534  147.97599792    0.40000001    2.59999990
   14.54000092  152.18699646    0.40000001    2.59999990
   14.54333401  146.01300049    0.40000001    2.59999990
   14.54611111  155.10400391    0.38000000    2.59999990
   14.54694462  150.10299683    0.38000000    2.59999990
   14.55000019  140.78599548    0.38000000    2.59999990
   14.55611134  140.78599548    0.38000000    2.59999990
   14.56027794  153.85600281    0.38000000    2.59999990
   14.56361103  148.97500610    0.38000000    2.59999990
   14.56666660  130.33799744    0.38000000    2.59999990
   14.56999969  141.90800476    0.38000000    2.59999990
   14.57333374  134.01699829    0.38000000    2.59999990
   14.57638836  142.32899475    0.38000000    2.59999990
   14.57944393  149.80999756    0.38000000    2.59999990
   14.57999992  141.54400635    0.38000000    2.59999990
   14.58333302  149.32800293    0.38000000    2.59999990
   14.58638859  144.24200439    0.38000000    2.59999990
   14.58972168  133.97000122    0.38000000    2.59999990
   14.59305477  138.78900146    0.38000000    2.59999990
   14.59888840  138.78900146    0.38000000    2.59999990
   14.60305595  148.05599976    0.38000000    2.59999990
   14.60638905  147.70700073    0.38000000    2.59999990
   14.60972214  150.51199341    0.38000000    2.59999990
   14.61277771  138.77799988    0.38000000    2.59999990
   14.61333370  151.23899841    0.38000000    2.59999990
   14.61666679  159.53399658    0.38000000    2.61999989
   14.61972237  151.67300415    0.38000000    2.61999989
   14.62305546  151.08299255    0.38000000    2.59999990
   14.62611103  135.39100647    0.38000000    2.61999989
   14.62944412  152.44799805    0.38000000    2.61999989
   14.63277817  152.93200684    0.38000000    2.59999990
   14.63583279  136.27400208    0.36000001    2.61999989
   14.64194393  136.27400208    0.36000001    2.59999990
   14.64611053  150.63900757    0.38000000    2.59999990
   14.64666653  156.37500000    0.38000000    2.59999990
   14.64972210  143.98399353    0.38000000    2.59999990
   14.65305519  154.59800720    0.36000001    2.59999990
   14.65611076  154.50900269    0.36000001    2.59999990
   14.65944386  163.16900635    0.38000000    2.61999989
   14.66277695  173.81799316    0.36000001    2.61999989
   14.66583252  164.92999268    0.38000000    2.59999990
   14.66916656  176.64500427    0.38000000    2.59999990
   14.67250061  190.96299744    0.36000001    2.61999989
   14.67555618  192.53500366    0.36000001    2.61999989
   14.67888927  171.44700623    0.36000001    2.61999989
   14.68000031  174.20799255    0.36000001    2.61999989
   14.68472195  174.20799255    0.36000001    2.59999990
   14.68888855  167.50500488    0.36000001    2.61999989
   14.69194412  153.57099915    0.36000001    2.61999989
   14.69527817  177.20300293    0.36000001    2.61999989
   14.69861126  151.57800293    0.36000001    2.61999989
   14.70194435  167.09300232    0.36000001    2.59999990
   14.70499992  172.22300720    0.38000000    2.61999989
   14.70833302  171.51400757    0.38000000    2.61999989
   14.71138859  174.58999634    0.38000000    2.61999989
   14.71333313  203.71200562    0.38000000    2.61999989
   14.71500015  177.38699341    0.38000000    2.61999989
   14.71833324  203.74200439    0.38000000    2.59999990
   14.72138882  186.32200623    0.38000000    2.61999989
   14.72749996  186.32200623    0.38000000    2.61999989
   14.73166656  171.55299377    0.38000000    2.61999989
   14.73500061  180.28999329    0.38000000    2.61999989
   14.73805618  146.47500610    0.36000001    2.59999990
   14.74138927  164.44799805    0.38000000    2.61999989
   14.74472237  161.06599426    0.36000001    2.59999990
   14.74666691  175.96499634    0.36000001    2.61999989
   14.74833393  136.47999573    0.36000001    2.61999989
   14.75166702  149.28500366    0.36000001    2.59999990
   14.75472260  162.52999878    0.36000001    2.59999990
   14.75805569  147.40299988    0.38000000    2.61999989
   14.76138878  155.29299927    0.36000001    2.61999989
   14.76444435  158.30299377    0.38000000    2.61999989
   14.77055550  158.30299377    0.36000001    2.61999989
   14.77444458  151.77999878    0.36000001    2.61999989
   14.77777767  155.29699707    0.36000001    2.61999989
   14.77999973  136.55599976    0.36000001    2.61999989
   14.78138828  141.17399597    0.36000001    2.61999989
   14.78472233  145.42599487    0.36000001    2.61999989
   14.78777790  152.32400513    0.36000001    2.61999989
   14.79111195  159.23800659    0.38000000    2.61999989
   14.79444504  147.18400574    0.36000001    2.61999989
   14.79750061  151.77000427    0.38000000    2.61999989
   14.80083370  143.66999817    0.36000001    2.61999989
   14.80416679  141.15800476    0.36000001    2.61999989
   14.80722237  142.21899414    0.36000001    2.61999989
   14.81333351  142.21899414    0.34000000    2.61999989
   14.81750011  139.59599304    0.34000000    2.61999989
   14.82055569  143.99899292    0.34000000    2.61999989
   14.82388878  145.94599915    0.34000000    2.61999989
   14.82694435  147.63400269    0.34000000    2.61999989
   14.83027744  128.97599792    0.36000001    2.61999989
   14.83361053  141.08399963    0.36000001    2.61999989
   14.83666611  139.71000671    0.36000001    2.61999989
   14.84000015  129.11000061    0.36000001    2.61999989
   14.84333324  128.76300049    0.36000001    2.61999989
   14.84638882  139.97000122    0.34000000    2.61999989
   14.84694386  134.20799255    0.34000000    2.61999989
   14.85027790  140.53700256    0.34000000    2.61999989
   14.85611153  140.53700256    0.36000001    2.61999989
   14.86027813  147.20300293    0.36000001    2.61999989
   14.86333370  142.10099792    0.34000000    2.61999989
   14.86666679  129.93499756    0.36000001    2.61999989
   14.86999989  132.15499878    0.36000001    2.61999989
   14.87305546  131.90600586    0.36000001    2.61999989
   14.87638855  130.38900757    0.36000001    2.61999989
   14.87972260  136.04600525    0.36000001    2.64000010
   14.88055611  136.44000244    0.36000001    2.64000010
   14.88333321  132.46400452    0.34000000    2.64000010
   14.88666630  133.18699646    0.34000000    2.64000010
   14.89000034  130.30400085    0.34000000    2.64000010
   14.89305496  130.81599426    0.34000000    2.64000010
   14.89888859  130.81599426    0.34000000    2.61999989
   14.90305519  130.70799255    0.34000000    2.61999989
   14.90638828  127.95700073    0.34000000    2.61999989
   14.90944386  138.38099670    0.34000000    2.61999989
   14.91277695  119.90000153    0.36000001    2.64000010
   14.91361046  135.42900085    0.36000001    2.64000010
   14.91638851  136.33299255    0.36000001    2.64000010
   14.91944504  125.42400360    0.36000001    2.64000010
   14.92277813  132.11399841    0.36000001    2.61999989
   14.92611122  128.67399597    0.36000001    2.61999989
   14.92916679  130.32800293    0.34000000    2.61999989
   14.93249989  124.81500244    0.34000000    2.61999989
   14.93583298  138.37500000    0.34000000    2.64000010
   14.94166660  138.37500000    0.34000000    2.61999989
   14.94583321  131.29699707    0.36000001    2.64000010
   14.94694424  133.78300476    0.36000001    2.64000010
   14.94972229  137.10400391    0.36000001    2.64000010
   14.95277786  130.84700012    0.34000000    2.61999989
   14.95611095  126.91000366    0.34000000    2.61999989
   14.95944405  128.75399780    0.34000000    2.61999989
   14.96249962  130.39500427    0.34000000    2.61999989
   14.96583271  129.16600037    0.34000000    2.61999989
   14.96916580  141.74400330    0.34000000    2.61999989
   14.97222137  136.21200562    0.34000000    2.61999989
   14.97555542  134.10299683    0.34000000    2.61999989
   14.97861099  131.81900024    0.34000000    2.61999989
   14.98027706  127.95200348    0.34000000    2.61999989
   14.98472214  127.95200348    0.34000000    2.64000010
   14.98888874  132.74699402    0.34000000    2.61999989
   14.99194431  132.24800110    0.34000000    2.61999989
   14.99527836  130.85400391    0.34000000    2.61999989
   14.99833393  131.39599609    0.34000000    2.61999989
   15.00166702  127.52500153    0.34000000    2.61999989
   15.00500011  136.91799927    0.34000000    2.61999989
   15.00805569  138.76699829    0.34000000    2.61999989
   15.01138878  134.32099915    0.34000000    2.61999989
   15.01361084  143.92999268    0.34000000    2.61999989
   15.01500034  132.66200256    0.34000000    2.61999989
   15.01833344  142.93499756    0.34000000    2.61999989
   15.02138901  141.61799622    0.34000000    2.61999989
   15.02750015  141.61799622    0.34000000    2.61999989
   15.03166676  138.62500000    0.34000000    2.61999989
   15.03500080  141.74200439    0.34000000    2.64000010
   15.03805637  145.82000732    0.34000000    2.64000010
   15.04138947  147.10600281    0.34000000    2.64000010
   15.04444504  140.52400208    0.34000000    2.61999989
   15.04694462  143.34800720    0.34000000    2.61999989
   15.04833412  145.04200745    0.34000000    2.61999989
   15.05138874  145.15100098    0.34000000    2.64000010
   15.05472279  146.92999268    0.34000000    2.64000010
   15.05805588  157.33299255    0.34000000    2.64000010
   15.06111145  142.32899475    0.34000000    2.64000010
   15.06444454  151.41099548    0.34000000    2.61999989
   15.07027817  151.41099548    0.34000000    2.61999989
   15.07444477  142.60000610    0.34000000    2.61999989
   15.07777786  140.81599426    0.34000000    2.61999989
   15.08027744  145.80099487    0.36000001    2.64000010
   15.08138847  147.78999329    0.36000001    2.64000010
   15.08472157  158.10099792    0.36000001    2.61999989
   15.08777714  142.29499817    0.36000001    2.64000010
   15.09111118  128.54499817    0.36000001    2.64000010
   15.09416676  152.03100586    0.36000001    2.64000010
   15.09749985  155.40800476    0.36000001    2.64000010
   15.10083389  143.87199402    0.36000001    2.64000010
   15.10388947  205.70799255    0.36000001    2.61999989
   15.10722256  168.13800049    0.36000001    2.64000010
   15.11305618  168.13800049    0.36000001    2.61999989
   15.13166714  187.43299866    0.36000001    2.64000010
   15.13472176  170.67399597    0.36000001    2.64000010
   15.13805580  161.09199524    0.36000001    2.64000010
   15.14138889  165.72099304    0.36000001    2.64000010
   15.14444447  171.50900269    0.36000001    2.64000010
   15.14777756  198.95500183    0.36000001    2.64000010
   15.15083313  182.48699951    0.36000001    2.64000010
   15.15638828  182.48699951    0.36000001    2.64000010
   15.16027737  186.94900513    0.36000001    2.64000010
   15.16361046  182.92999268    0.36000001    2.64000010
   15.16472149  145.85899353    0.36000001    2.64000010
   15.16722298  146.71099854    0.36000001    2.64000010
   15.17055607  163.08099365    0.36000001    2.64000010
   15.17361164  164.73199463    0.36000001    2.64000010
   15.17694473  139.60800171    0.36000001    2.64000010
   15.18027782  169.02299500    0.36000001    2.64000010
   15.18333340  158.51100159    0.36000001    2.64000010
   15.18666649  159.43200684    0.36000001    2.64000010
   15.19000053  168.28399658    0.36000001    2.64000010
   15.19305515  163.29200745    0.36000001    2.64000010
   15.19916630  163.29200745    0.36000001    2.64000010
   15.20333290  161.14900208    0.38000000    2.64000010
   15.20638847  150.17599487    0.36000001    2.64000010
   15.20972157  144.55900574    0.36000001    2.64000010
   15.21305561  151.48599243    0.36000001    2.64000010
   15.21611118  178.92399597    0.36000001    2.64000010
   15.21944427  172.90800476    0.36000001    2.64000010
   15.22277737  170.43200684    0.36000001    2.64000010
   15.22583294  162.57000732    0.36000001    2.64000010
   15.22916603  159.95700073    0.36000001    2.64000010
   15.23138809  163.01499939    0.36000001    2.64000010
   15.23277760  155.83900452    0.38000000    2.64000010
   15.23611164  157.38800049    0.36000001    2.64000010
   15.24194431  157.38800049    0.36000001    2.64000010
   15.24611092  146.64999390    0.36000001    2.64000010
   15.24916649  157.00300598    0.36000001    2.64000010
   15.25249958  142.88699341    0.36000001    2.64000010
   15.25583363  152.93200684    0.36000001    2.64000010
   15.25888920  161.61700439    0.38000000    2.64000010
   15.26222229  153.15899658    0.38000000    2.64000010
   15.26472187  149.77799988    0.38000000    2.64000010
   15.26583290  142.90899658    0.38000000    2.64000010
   15.26916599  153.23500061    0.38000000    2.64000010
   15.27250004  153.49699402    0.38000000    2.64000010
   15.27555561  145.78399658    0.38000000    2.64000010
   15.27888870  144.71200562    0.38000000    2.64000010
   15.28472233  144.71200562    0.38000000    2.64000010
   15.28888893  137.06199646    0.38000000    2.64000010
   15.29222298  155.47099304    0.38000000    2.64000010
   15.29527855  158.20899963    0.38000000    2.64000010
   15.29805565  145.39900208    0.38000000    2.64000010
   15.29888916  159.61199951    0.38000000    2.64000010
   15.30222225  146.18400574    0.38000000    2.64000010
   15.30555534  144.47500610    0.38000000    2.64000010
   15.30861092  140.83700562    0.38000000    2.64000010
   15.31194496  148.99000549    0.36000001    2.64000010
   15.31500053  134.47799683    0.38000000    2.64000010
   15.31833363  159.48500061    0.38000000    2.66000009
   15.32166672  162.22399902    0.38000000    2.66000009
   15.32777786  162.22399902    0.40000001    2.64000010
   15.33166695  138.26800537    0.41999999    2.64000010
   15.33500004  136.37500000    0.46000001    2.64000010
   15.33833313  140.70199585    0.46000001    2.64000010
   15.34138870  139.51899719    0.47999999    2.64000010
   15.34472179  133.64100647    0.47999999    2.64000010
   15.34805489  156.94099426    0.47999999    2.64000010
   15.35111141  159.06300354    0.47999999    2.64000010
   15.35444450  142.86900330    0.44000000    2.64000010
   15.35750008  142.47399902    0.40000001    2.64000010
   15.36083412  137.05099487    0.38000000    2.64000010
   15.36416721  139.42399597    0.38000000    2.64000010
   15.36472225  137.31900024    0.38000000    2.64000010
   15.37055588  137.31900024    0.38000000    2.64000010
   15.37472248  135.36999512    0.38000000    2.64000010
   15.37777805  144.73399353    0.38000000    2.64000010
   15.38111115  139.94900513    0.38000000    2.64000010
   15.38444424  149.75700378    0.38000000    2.64000010
   15.38749981  141.25700378    0.38000000    2.64000010
   15.39083290  128.88299561    0.36000001    2.64000010
   15.39416695  138.19700623    0.36000001    2.64000010
   15.39722252  140.28500366    0.36000001    2.64000010
   15.39805508  134.94900513    0.38000000    2.66000009
   15.40083313  144.43400574    0.38000000    2.66000009
   15.40416622  145.13600159    0.38000000    2.64000010
   15.49861145   -1.00000000   -1.00000000   -1.00000000
   15.59472179   -1.00000000   -1.00000000   -1.00000000
   15.71277714   -1.00000000   -1.00000000   -1.00000000
   15.81333351   81.63639832    0.31999999    2.66000009
   15.81638908  144.14399719    0.31999999    2.66000009
   15.81972218  151.73100281    0.31999999    2.66000009
   15.82305527  160.65499878    0.31999999    2.66000009
   15.82611084  144.98800659    0.31999999    2.66000009
   15.82944393  140.83900452    0.31999999    2.66000009
   15.83361053  140.83900452    0.31999999    2.66000009
   15.83777714  143.98599243    0.31999999    2.66000009
   15.84083271  133.57800293    0.31999999    2.66000009
   15.84416676  154.18899536    0.31999999    2.66000009
   15.84666634  158.10200500    0.31999999    2.66000009
   15.84777737  159.74299622    0.31999999    2.66000009
   15.85111141  161.37500000    0.31999999    2.66000009
   15.85444450  145.77200317    0.34000000    2.66000009
   15.85750008  162.17999268    0.34000000    2.66000009
   15.86083412  149.99299622    0.34000000    2.66000009
   15.86388969  143.90800476    0.34000000    2.66000009
   15.86722279  156.25500488    0.34000000    2.66000009
   15.87055588  145.03300476    0.36000001    2.66000009
   15.87638855  145.03300476    0.34000000    2.66000009
   15.88055611  150.67500305    0.34000000    2.66000009
   15.88361073  153.33799744    0.36000001    2.67000008
   15.88694477  152.07000732    0.36000001    2.67000008
   15.89027786  151.31500244    0.34000000    2.66000009
   15.89333344  159.30999756    0.34000000    2.66000009
   15.89666653  142.34300232    0.34000000    2.66000009
   15.89999962  147.54499817    0.34000000    2.66000009
   15.90305519  129.08099365    0.31999999    2.66000009
   15.90638828  151.70500183    0.31999999    2.66000009
   15.90944386  143.92100525    0.31999999    2.66000009
   15.91277695  157.53599548    0.31999999    2.66000009
   15.91333294  144.79200745    0.31999999    2.66000009
   15.91944504  144.79200745    0.31999999    2.66000009
   15.92361164  148.15199280    0.31999999    2.67000008
   15.92694473  154.11999512    0.30000001    2.66000009
   15.93000031  150.18699646    0.30000001    2.66000009
   15.93333340  145.10600281    0.30000001    2.66000009
   15.93666649  152.13699341    0.31999999    2.66000009
   15.93972206  151.93099976    0.30000001    2.66000009
   15.94305515  161.19400024    0.30000001    2.66000009
   15.94638920  154.55000305    0.30000001    2.66000009
   15.94694424  147.87600708    0.30000001    2.66000009
   15.94972229  153.48100281    0.30000001    2.67000008
   15.95305538  157.04699707    0.30000001    2.67000008
   15.95611095  156.69999695    0.30000001    2.66000009
   15.96194458  156.69999695    0.30000001    2.66000009
   15.96611118  159.38699341    0.30000001    2.66000009
   15.96944427  144.77200317    0.30000001    2.66000009
   15.97249985  163.82400513    0.30000001    2.66000009
   15.97583294  149.81500244    0.30000001    2.66000009
   15.97916603  152.63900757    0.30000001    2.66000009
   15.98027706  165.05999756    0.30000001    2.66000009
   15.98277760  144.94999695    0.30000001    2.66000009
   15.98611164  134.03100586    0.30000001    2.67000008
   15.98916721  163.28500366    0.30000001    2.67000008
   15.99250031  154.51899719    0.31999999    2.66000009
   15.99583340  168.93800354    0.30000001    2.66000009
   15.99888897  141.23399353    0.30000001    2.66000009
   16.00499916  141.23399353    0.31999999    2.66000009
   16.00888824  152.63200378    0.31999999    2.66000009
   16.01222229  161.67399597    0.31999999    2.66000009
   16.01361084  123.52700043    0.31999999    2.66000009
   16.01583290  139.81799316    0.31999999    2.66000009
   16.01916695  154.50700378    0.31999999    2.66000009
   16.02222252  156.51199341    0.34000000    2.67000008
   16.02555466  137.69299316    0.40000001    2.66000009
   16.02888870  141.20799255    0.46000001    2.66000009
   16.03194427  143.35499573    0.46000001    2.66000009
   16.03527641  159.42300415    0.41999999    2.66000009
   16.03861046  132.58999634    0.31999999    2.66000009
   16.04166603  157.71499634    0.31999999    2.67000008
   16.04777718  157.71499634    0.31999999    2.66000009
   16.05194283  159.47700500    0.34000000    2.67000008
   16.05499840  154.61799622    0.31999999    2.66000009
   16.05833244  146.40499878    0.31999999    2.67000008
   16.06166649  159.26699829    0.31999999    2.67000008
   16.06472206  150.48100281    0.31999999    2.67000008
   16.06805611  131.07000732    0.31999999    2.66000009
   16.07139015  153.28599548    0.31999999    2.67000008
   16.07444572  161.27600098    0.31999999    2.67000008
   16.07777786  157.60000610    0.31999999    2.66000009
   16.08027840  164.65800476    0.34000000    2.67000008
   16.08139038  149.90800476    0.31999999    2.66000009
   16.08472252  147.86300659    0.31999999    2.67000008
   16.09055710  147.86300659    0.34000000    2.67000008
   16.09472275  169.01300049    0.34000000    2.67000008
   16.09805679  147.82200623    0.34000000    2.67000008
   16.10111237  153.66299438    0.34000000    2.67000008
   16.10444450  145.36900330    0.34000000    2.67000008
   16.10750008  150.34100342    0.34000000    2.67000008
   16.11083412  146.08200073    0.36000001    2.66000009
   16.11361122  138.38099670    0.36000001    2.66000009
   16.11472321  151.27099609    0.36000001    2.67000008
   16.11777878  140.47900391    0.34000000    2.66000009
   16.12111092  143.05999756    0.34000000    2.66000009
   16.12444496  154.73800659    0.36000001    2.67000008
   16.12750053  154.44799805    0.34000000    2.67000008
   16.13333321  154.44799805    0.34000000    2.66000009
   16.13750076  145.51600647    0.34000000    2.66000009
   16.14083290  160.33999634    0.34000000    2.67000008
   16.14388847  157.26699829    0.34000000    2.67000008
   16.14694405  142.96800232    0.34000000    2.66000009
   16.14749908  164.82600403    0.34000000    2.66000009
   16.15083313  161.42399597    0.34000000    2.66000009
   16.15388870  150.55700684    0.34000000    2.66000009
   16.15722275  161.49800110    0.34000000    2.66000009
   16.16055489  143.73699951    0.31999999    2.67000008
   16.16361046  167.36900330    0.31999999    2.66000009
   16.16694450  159.08999634    0.31999999    2.66000009
   16.17027664  171.97999573    0.31999999    2.66000009
   16.17638779  171.97999573    0.31999999    2.67000008
   16.18027687  143.90800476    0.31999999    2.66000009
   16.18361092  159.01100159    0.31999999    2.66000009
   16.18694305  140.63000488    0.31999999    2.66000009
   16.18999863  160.52900696    0.31999999    2.66000009
   16.19333267  170.68499756    0.31999999    2.66000009
   16.19666672  145.98800659    0.31999999    2.66000009
   16.19972038  141.36999512    0.31999999    2.67000008
   16.20305634  156.98300171    0.34000000    2.66000009
   16.20611191  150.33200073    0.34000000    2.66000009
   16.20944595  168.88099670    0.34000000    2.67000008
   16.21277809  170.02400208    0.34000000    2.67000008
   16.21361160  163.70899963    0.34000000    2.66000009
   16.21916771  163.70899963    0.34000000    2.66000009
   16.22333336  161.48500061    0.31999999    2.67000008
   16.22638893  164.71800232    0.31999999    2.67000008
   16.22972298  161.92999268    0.31999999    2.67000008
   16.23305511  157.28900146    0.34000000    2.67000008
   16.23611069  155.66900635    0.34000000    2.67000008
   16.23944473  161.96099854    0.31999999    2.66000009
   16.24250031  156.93400574    0.31999999    2.67000008
   16.24583435  162.44200134    0.34000000    2.67000008
   16.24694443  158.36099243    0.34000000    2.67000008
   16.24944496  170.46600342    0.34000000    2.66000009
   16.25277710  140.30700684    0.34000000    2.67000008
   16.25611115  152.71200562    0.34000000    2.67000008
   16.26194382  152.71200562    0.34000000    2.67000008
   16.26611137  153.32099915    0.34000000    2.67000008
   16.26944351  148.05999756    0.34000000    2.67000008
   16.27249908  187.85600281    0.34000000    2.66000009
   16.27583313  168.49099731    0.34000000    2.66000009
   16.27916718  147.87500000    0.36000001    2.67000008
   16.28027725  177.40600586    0.36000001    2.67000008
   16.28249931  167.25500488    0.34000000    2.67000008
   16.28583336  154.58599854    0.34000000    2.67000008
   16.28916550  179.17199707    0.36000001    2.66000009
   16.29222107  146.76899719    0.36000001    2.67000008
   16.29555511  166.11999512    0.36000001    2.67000008
   16.29861069  172.40199280    0.36000001    2.67000008
   16.30472183  172.40199280    0.36000001    2.67000008
   16.30888748  164.03199768    0.34000000    2.67000008
   16.31222153  154.83599854    0.34000000    2.67000008
   16.31361008  165.46899414    0.34000000    2.67000008
   16.31555557  150.98500061    0.34000000    2.67000008
   16.31888962  163.78999329    0.36000001    2.67000008
   16.32222366  161.15899658    0.36000001    2.67000008
   16.32555580  162.36599731    0.34000000    2.67000008
   16.32888985  144.78500366    0.36000001    2.66000009
   16.33250046  136.63600159    0.36000001    2.66000009
   16.33555603  143.93200684    0.36000001    2.67000008
   16.33889008  154.03799438    0.34000000    2.67000008
   16.34194565  145.22000122    0.34000000    2.67000008
   16.34749985  145.22000122    0.36000001    2.69000006
   16.35166740  145.55900574    0.34000000    2.67000008
   16.35499954  143.68899536    0.34000000    2.67000008
   16.35833359  170.87300110    0.34000000    2.67000008
   16.36138916  146.35899353    0.34000000    2.67000008
   16.36472321  147.02900696    0.34000000    2.67000008
   16.36777878  136.41600037    0.34000000    2.67000008
   16.37111092  141.50100708    0.36000001    2.66000009
   16.37444496  129.01400757    0.36000001    2.67000008
   16.37750053  158.82299805    0.36000001    2.67000008
   16.38027763  145.77900696    0.36000001    2.67000008
   16.38111115  152.40600586    0.36000001    2.67000008
   16.38444519  170.47799683    0.36000001    2.67000008
   16.39055634  170.47799683    0.36000001    2.67000008
   16.39472198  150.30700684    0.34000000    2.67000008
   16.39777756  163.50399780    0.34000000    2.67000008
   16.40111160  186.25300598    0.36000001    2.67000008
   16.40416718  170.78300476    0.34000000    2.67000008
   16.40749931  165.83200073    0.34000000    2.66000009
   16.41083336  177.48100281    0.34000000    2.66000009
   16.41361046  170.88000488    0.34000000    2.66000009
   16.41416550  162.36099243    0.34000000    2.66000009
   16.41749954  153.13999939    0.34000000    2.66000009
   16.42083359  151.51699829    0.34000000    2.67000008
   16.42388916  158.20899963    0.34000000    2.67000008
   16.42722130  154.05900574    0.34000000    2.67000008
   16.43333244  154.05900574    0.34000000    2.67000008
   16.43750000  171.88299561    0.34000000    2.67000008
   16.44083214  159.74800110    0.34000000    2.67000008
   16.44388771  171.55400085    0.34000000    2.67000008
   16.44694328  159.52600098    0.31999999    2.67000008
   16.44749832  156.21200562    0.31999999    2.67000008
   16.45083427  151.44400024    0.34000000    2.67000008
   16.45416832  149.57299805    0.34000000    2.67000008
   16.45722389  144.19299316    0.31999999    2.67000008
   16.46055603  138.08799744    0.34000000    2.66000009
   16.46361160  140.89100647    0.34000000    2.67000008
   16.46694565  154.63499451    0.36000001    2.67000008
   16.47027779  176.07800293    0.38000000    2.67000008
   16.47611237  176.07800293    0.38000000    2.67000008
   16.48027802  142.03399658    0.38000000    2.67000008
   16.48361206  148.22099304    0.38000000    2.67000008
   16.48666763  149.08700562    0.38000000    2.67000008
   16.48999977  152.82200623    0.40000001    2.67000008
   16.49333382  138.74200439    0.40000001    2.67000008
   16.49638939  136.41499329    0.41999999    2.67000008
   16.49972153  153.63400269    0.41999999    2.67000008
   16.50305557  147.04600525    0.41999999    2.67000008
   16.50611115  141.07899475    0.41999999    2.67000008
   16.50944519  142.52900696    0.44000000    2.67000008
   16.51277733  146.14700317    0.44000000    2.67000008
   16.51361084  160.23199463    0.44000000    2.67000008
   16.51888847  160.23199463    0.46000001    2.67000008
   16.52305603  136.02600098    0.46000001    2.67000008
   16.52638817  147.87399292    0.44000000    2.67000008
   16.52972221  160.24800110    0.38000000    2.67000008
   16.53277779  142.62899780    0.38000000    2.67000008
   16.53610992  156.89999390    0.36000001    2.67000008
   16.53972244  153.62399292    0.36000001    2.67000008
   16.54277802  134.78599548    0.36000001    2.67000008
   16.54611015  140.26100159    0.36000001    2.67000008
   16.54694366  139.13499451    0.36000001    2.67000008
   16.54944420  129.25599670    0.34000000    2.67000008
   16.55277634  135.18899536    0.34000000    2.67000008
   16.55611038  133.83399963    0.34000000    2.67000008
   16.56194305  133.83399963    0.34000000    2.67000008
   16.56611061  123.01200104    0.34000000    2.67000008
   16.56916809  131.66400146    0.34000000    2.67000008
   16.57250023  116.12599945    0.34000000    2.67000008
   16.57555580  120.59700012    0.34000000    2.67000008
   16.57888985  132.87199402    0.36000001    2.69000006
   16.58027840  137.37199402    0.36000001    2.69000006
   16.58250046  138.85499573    0.36000001    2.67000008
   16.58583450  145.84800720    0.36000001    2.67000008
   16.58916664  134.30299377    0.36000001    2.66000009
   16.59222221  114.55300140    0.36000001    2.66000009
   16.59555626  124.93299866    0.36000001    2.67000008
   16.59889030  131.41499329    0.36000001    2.67000008
   16.60472298  131.41499329    0.36000001    2.67000008
   16.60888863  142.07600403    0.36000001    2.67000008
   16.61194420  134.98800659    0.36000001    2.67000008
   16.61361122  127.83999634    0.36000001    2.67000008
   16.61555672  132.02000427    0.36000001    2.67000008
   16.61888885  119.13999939    0.38000000    2.67000008
   16.62222290  122.65899658    0.38000000    2.66000009
   16.62527847  148.52999878    0.38000000    2.67000008
   16.62861061  139.84599304    0.38000000    2.67000008
   16.63194466  129.44700623    0.38000000    2.67000008
   16.63500023  137.38999939    0.38000000    2.67000008
   16.63833237  135.39399719    0.38000000    2.67000008
   16.64138794  138.25900269    0.36000001    2.67000008
   16.64749908  138.25900269    0.38000000    2.67000008
   16.65166664  135.68200684    0.38000000    2.67000008
   16.65499878  131.95399475    0.38000000    2.67000008
   16.65805435  143.21000671    0.38000000    2.67000008
   16.66138840  148.31900024    0.36000001    2.67000008
   16.66472244  146.79699707    0.36000001    2.67000008
   16.66777802  140.10800171    0.36000001    2.66000009
   16.67111015  134.14300537    0.36000001    2.67000008
   16.67444420  120.32900238    0.36000001    2.67000008
   16.67749977  140.59100342    0.36000001    2.67000008
   16.68027687  134.51100159    0.38000000    2.67000008
   16.68111038  121.31700134    0.38000000    2.67000008
   16.68444443  120.90399933    0.36000001    2.67000008
   16.69027710  120.90399933    0.36000001    2.67000008
   16.69444275  133.61000061    0.38000000    2.67000008
   16.69777679  128.83399963    0.38000000    2.66000009
   16.70111275  124.10399628    0.38000000    2.67000008
   16.70416832  121.93499756    0.38000000    2.67000008
   16.70750046  134.01300049    0.36000001    2.67000008
   16.71055603  116.61599731    0.36000001    2.67000008
   16.71361160  119.91400146    0.36000001    2.67000008
   16.71416664  128.13099670    0.36000001    2.66000009
   16.71750069  121.65200043    0.36000001    2.66000009
   16.72083473  122.49700165    0.36000001    2.69000006
   16.72389030  116.80599976    0.38000000    2.67000008
   16.72722244  132.17599487    0.36000001    2.67000008
   16.73333359  132.17599487    0.38000000    2.67000008
   16.73750114  113.89099884    0.36000001    2.67000008
   16.74055672  136.77999878    0.38000000    2.67000008
   16.74388885  119.04900360    0.36000001    2.67000008
   16.74694443  113.86399841    0.36000001    2.67000008
   16.74722290  116.08599854    0.38000000    2.67000008
   16.75055504  121.13200378    0.38000000    2.67000008
   16.75388908  123.31300354    0.36000001    2.67000008
   16.75694466  127.62999725    0.36000001    2.67000008
   16.76027870  129.68699646    0.38000000    2.67000008
   16.76361084  122.66899872    0.38000000    2.66000009
   16.76666641  119.37799835    0.36000001    2.67000008
   16.77000046  125.95700073    0.36000001    2.67000008
   16.77611160  125.95700073    0.38000000    2.67000008
   16.78027725  123.32299805    0.38000000    2.67000008
   16.78361130  122.39499664    0.36000001    2.67000008
   16.78666687  122.58499908    0.38000000    2.67000008
   16.78999901  126.27899933    0.36000001    2.69000006
   16.79305458  124.61000061    0.36000001    2.69000006
   16.79638863  134.66400146    0.36000001    2.67000008
   16.79972076  124.55300140    0.36000001    2.67000008
   16.80277634  135.53500366    0.38000000    2.67000008
   16.80611038  125.24800110    0.38000000    2.67000008
   16.80944443  123.82399750    0.38000000    2.66000009
   16.81250000  113.93699646    0.38000000    2.66000009
   16.81361008  125.80100250    0.40000001    2.67000008
   16.83416748  125.80100250    0.40000001    2.66000009
   16.83833313  126.45999908    0.40000001    2.67000008
   16.84166718  128.72300720    0.40000001    2.67000008
   16.84500122  131.18400574    0.40000001    2.67000008
   16.84694481  124.57499695    0.40000001    2.66000009
   16.84861183  123.42800140    0.40000001    2.66000009
   16.85166740  123.86000061    0.40000001    2.67000008
   16.85499954  118.04699707    0.40000001    2.67000008
   16.85805511  123.78500366    0.40000001    2.67000008
   16.86138916  123.46900177    0.40000001    2.67000008
   16.86472321  125.25900269    0.40000001    2.67000008
   16.86777878  127.83499908    0.40000001    2.67000008
   16.87111092  125.41899872    0.40000001    2.67000008
   16.87694550  125.41899872    0.41999999    2.67000008
   16.88111115  134.00900269    0.40000001    2.67000008
   16.88444519  133.07499695    0.40000001    2.67000008
   16.88750076  124.91699982    0.40000001    2.67000008
   16.89083290  125.60199738    0.40000001    2.67000008
   16.89416695  129.39900208    0.40000001    2.67000008
   16.89722252  115.33399963    0.41999999    2.66000009
   16.90055466  133.94000244    0.40000001    2.66000009
   16.90388870  128.57699585    0.40000001    2.66000009
   16.90694427  129.70599365    0.40000001    2.66000009
   16.91027832  126.48699951    0.40000001    2.67000008
   16.91333389  129.68299866    0.40000001    2.67000008
   16.91388893  124.13099670    0.40000001    2.67000008
   16.92000008  124.13099670    0.40000001    2.67000008
   16.92388916  132.22300720    0.40000001    2.67000008
   16.92722130  119.04000092    0.40000001    2.67000008
   16.93055534  125.88099670    0.41999999    2.66000009
   16.93361092  128.83299255    0.41999999    2.66000009
   16.93694305  123.75800323    0.41999999    2.66000009
   16.94027710  136.78900146    0.41999999    2.67000008
   16.94333267  123.69899750    0.44000000    2.67000008
   16.94666672  137.09899902    0.41999999    2.66000009
   16.94722176  125.67500305    0.41999999    2.66000009
   16.95027924  130.67799377    0.44000000    2.66000009
   16.95361137  121.90100098    0.41999999    2.67000008
   16.95666695  128.50399780    0.41999999    2.67000008
   16.96277809  128.50399780    0.41999999    2.66000009
   16.96694565  129.88600159    0.41999999    2.67000008
   16.97000122  140.54600525    0.41999999    2.66000009
   16.97333336  137.70300293    0.41999999    2.66000009
   16.97666740  140.80200195    0.41999999    2.67000008
   16.97972298  135.83999634    0.41999999    2.67000008
   16.98055649  139.38699341    0.41999999    2.67000008
   16.98333359  133.94299316    0.44000000    2.67000008
   16.98666763  135.41600037    0.41999999    2.66000009
   16.98972321  143.05200195    0.44000000    2.66000009
   16.99305534  117.11499786    0.44000000    2.67000008
   16.99638939  122.15899658    0.44000000    2.66000009
   16.99944496  129.97900391    0.44000000    2.66000009
   17.00555611  129.97900391    0.44000000    2.67000008
   17.00972176  128.77099609    0.44000000    2.66000009
   17.01305580  128.42999268    0.44000000    2.67000008
   17.01388931  129.00799561    0.44000000    2.67000008
   17.01694489  136.43899536    0.44000000    2.66000009
   17.02000046  122.47899628    0.44000000    2.67000008
   17.02333260  124.51399994    0.44000000    2.67000008
   17.02666664  141.31799316    0.41999999    2.67000008
   17.02972221  144.00799561    0.41999999    2.67000008
   17.03305435  123.55799866    0.41999999    2.67000008
   17.03610992  132.48500061    0.40000001    2.66000009
   17.03944397  122.65699768    0.40000001    2.67000008
   17.04277802  127.20800018    0.38000000    2.67000008
   17.04833221  127.20800018    0.40000001    2.66000009
   17.05249977  134.92300415    0.40000001    2.66000009
   17.05583191  119.85500336    0.40000001    2.66000009
   17.05888748  144.07000732    0.40000001    2.67000008
   17.06222153  125.95600128    0.41999999    2.67000008
   17.06555557  125.27400208    0.41999999    2.67000008
   17.06861115  133.03700256    0.41999999    2.67000008
   17.07194519  152.40100098    0.41999999    2.66000009
   17.07527924  145.74099731    0.41999999    2.66000009
   17.07833481  136.65600586    0.44000000    2.67000008
   17.08083344  133.92100525    0.41999999    2.67000008
   17.08194542  130.40899658    0.41999999    2.67000008
   17.08527756  127.83100128    0.41999999    2.67000008
   17.09138870  127.83100128    0.44000000    2.66000009
   17.09527779  127.04100037    0.44000000    2.67000008
   17.09861183  126.20899963    0.44000000    2.67000008
   17.10194397  132.62300110    0.44000000    2.66000009
   17.10499954  139.93099976    0.44000000    2.66000009
   17.10833359  129.58700562    0.44000000    2.66000009
   17.11166763  133.79800415    0.46000001    2.66000009
   17.11388969  128.13200378    0.46000001    2.67000008
   17.11527824  126.05999756    0.46000001    2.67000008
   17.11861038  130.16799927    0.44000000    2.67000008
   17.12166595  121.33499908    0.44000000    2.67000008
   17.12500000  122.80300140    0.44000000    2.66000009
   17.12833405  123.33799744    0.44000000    2.66000009
   17.13416672  123.33799744    0.44000000    2.66000009
   17.13833237  124.63099670    0.44000000    2.67000008
   17.14138794  123.59899902    0.44000000    2.66000009
   17.14472198  134.10400391    0.44000000    2.66000009
   17.14722252  121.17900085    0.46000001    2.67000008
   17.14833260  119.52799988    0.46000001    2.67000008
   17.15166664  123.39399719    0.47999999    2.67000008
   17.15472221  123.36299896    0.47999999    2.67000008
   17.15805435  123.06300354    0.47999999    2.67000008
   17.16138840  118.08000183    0.47999999    2.67000008
   17.16444397  128.91099548    0.47999999    2.67000008
   17.16777802  130.34100342    0.47999999    2.67000008
   17.17111015  121.49700165    0.50000000    2.67000008
   17.17694473  121.49700165    0.47999999    2.66000009
   17.18111038  124.46099854    0.50000000    2.66000009
   17.18444443  126.16000366    0.47999999    2.66000009
   17.18750000  129.37399292    0.47999999    2.66000009
   17.19083214  131.68099976    0.47999999    2.66000009
   17.19388771  135.36599731    0.47999999    2.66000009
   17.19722176  132.42300415    0.51999998    2.66000009
   17.20055580  126.20400238    0.51999998    2.67000008
   17.20361137  132.14399719    0.51999998    2.66000009
   17.20694542  120.14800262    0.50000000    2.66000009
   17.21027946  122.92500305    0.50000000    2.66000009
   17.21333504  130.38099670    0.50000000    2.66000009
   17.21416664  131.59800720    0.50000000    2.66000009
   17.21972275  131.59800720    0.47999999    2.66000009
   17.22389030  121.02999878    0.47999999    2.66000009
   17.22722244  120.23899841    0.46000001    2.66000009
   17.23055649  124.45099640    0.46000001    2.66000009
   17.23361206  141.17599487    0.46000001    2.67000008
   17.23694420  129.22799683    0.46000001    2.66000009
   17.23999977  137.80000305    0.47999999    2.66000009
   17.24333382  127.15000153    0.47999999    2.66000009
   17.24666786  134.85800171    0.47999999    2.66000009
   17.24749947  132.68299866    0.47999999    2.66000009
   17.25027847  129.53300476    0.47999999    2.66000009
   17.25361061  124.24900055    0.46000001    2.67000008
   17.25694466  126.55400085    0.46000001    2.67000008
   17.26277733  126.55400085    0.46000001    2.66000009
   17.26666641  131.82000732    0.47999999    2.66000009
   17.27000046  118.17500305    0.46000001    2.67000008
   17.27333260  132.38800049    0.46000001    2.67000008
   17.27638817  136.74299622    0.47999999    2.66000009
   17.27972221  128.95799255    0.47999999    2.67000008
   17.28083229  129.25399780    0.47999999    2.67000008
   17.28333282  121.89099884    0.51999998    2.66000009
   17.28666687  127.49800110    0.46000001    2.66000009
   17.28972244  118.63200378    0.46000001    2.67000008
   17.29305458  132.28500366    0.46000001    2.66000009
   17.29638863  124.39800262    0.46000001    2.66000009
   17.29944420  130.77600098    0.46000001    2.66000009
   17.30555534  130.77600098    0.47999999    2.67000008
   17.30972099  138.84700012    0.50000000    2.67000008
   17.31277657  132.34300232    0.47999999    2.66000009
   17.31416512  124.11599731    0.47999999    2.66000009
   17.31638718  128.30499268    0.47999999    2.66000009
   17.31972313  130.55700684    0.47999999    2.66000009
   17.32277870  123.19499969    0.47999999    2.66000009
   17.32611275  132.11199951    0.50000000    2.66000009
   17.32944489  134.44200134    0.50000000    2.67000008
   17.33250046  138.25100708    0.50000000    2.67000008
   17.33583450  136.00399780    0.50000000    2.66000009
   17.33916664  132.97799683    0.51999998    2.66000009
   17.34222221  125.97200012    0.51999998    2.66000009
   17.34833336  125.97200012    0.51999998    2.66000009
   17.35250092  122.59500122    0.51999998    2.66000009
   17.35583305  121.91100311    0.51999998    2.66000009
   17.35888863  125.40000153    0.52999997    2.66000009
   17.36222267  134.25100708    0.55000001    2.66000009
   17.36527824  126.48500061    0.55000001    2.66000009
   17.36861038  130.46000671    0.55000001    2.64000010
   17.37194443  126.09799957    0.55000001    2.66000009
   17.37500000  128.83700562    0.55000001    2.67000008
   17.37833405  122.48600006    0.52999997    2.66000009
   17.38083267  121.33200073    0.52999997    2.66000009
   17.38222313  122.67299652    0.55000001    2.66000009
   17.38555527  136.15400696    0.51999998    2.64000010
   17.39111137  136.15400696    0.51999998    2.66000009
   17.39527702  138.18299866    0.51999998    2.66000009
   17.39861107  129.10299683    0.51999998    2.66000009
   17.40166664  136.88000488    0.51999998    2.66000009
   17.40499878  119.86799622    0.51999998    2.66000009
   17.40833282  126.59600067    0.51999998    2.66000009
   17.41138840  128.63400269    0.51999998    2.66000009
   17.41416550  128.48500061    0.51999998    2.66000009
   17.41499901  125.57800293    0.51999998    2.66000009
   17.41833305  126.88899994    0.51999998    2.66000009
   17.42166519  121.35199738    0.50000000    2.66000009
   17.42472076  116.76599884    0.51999998    2.66000009
   17.42805481  127.09700012    0.51999998    2.66000009
   17.43388748  127.09700012    0.51999998    2.66000009
   17.43805504  125.01399994    0.51999998    2.66000009
   17.44138718  120.52999878    0.50000000    2.66000009
   17.44472122  120.68399811    0.47999999    2.66000009
   17.44749832  122.21099854    0.47999999    2.66000009
   17.44805527  131.41999817    0.47999999    2.66000009
   17.45138931  133.99099731    0.47999999    2.66000009
   17.45472336  128.01699829    0.47999999    2.66000009
   17.45777893  121.99099731    0.47999999    2.66000009
   17.46111107  119.69999695    0.47999999    2.66000009
   17.46416664  125.91200256    0.46000001    2.66000009
   17.46750069  127.92900085    0.46000001    2.66000009
   17.47083473  126.19000244    0.46000001    2.66000009
   17.47694588  126.19000244    0.46000001    2.66000009
   17.48111153  115.53299713    0.46000001    2.66000009
   17.48416710  122.13800049    0.44000000    2.67000008
   17.48750114  124.38899994    0.44000000    2.66000009
   17.49083328  123.00399780    0.44000000    2.66000009
   17.49416733  122.88200378    0.41999999    2.66000009
   17.49722290  125.58300018    0.41999999    2.66000009
   17.50055504  125.24299622    0.41999999    2.66000009
   17.50388908  130.88200378    0.41999999    2.66000009
   17.50694466  122.48600006    0.41999999    2.66000009
   17.51027870  123.97299957    0.41999999    2.66000009
   17.51333427  130.09800720    0.40000001    2.66000009
   17.51416588  135.16400146    0.40000001    2.66000009
   17.51972198  135.16400146    0.41999999    2.66000009
   17.52388954  124.56700134    0.41999999    2.66000009
   17.52694511  128.34500122    0.41999999    2.66000009
   17.53027725  118.00599670    0.44000000    2.66000009
   17.53361130  136.05299377    0.44000000    2.66000009
   17.53666687  139.41000366    0.44000000    2.66000009
   17.53999901  131.81500244    0.44000000    2.66000009
   17.54333305  130.64599609    0.41999999    2.66000009
   17.54638863  133.90400696    0.41999999    2.66000009
   17.54749870  128.06500244    0.41999999    2.66000009
   17.54999924  138.23399353    0.41999999    2.66000009
   17.55333328  133.73699951    0.41999999    2.66000009
   17.55666542  135.16200256    0.41999999    2.66000009
   17.56250000  135.16200256    0.41999999    2.66000009
   17.56666756  131.22200012    0.41999999    2.66000009
   17.57000160  131.50900269    0.44000000    2.66000009
   17.57305717  126.21600342    0.41999999    2.66000009
   17.57638931  144.00599670    0.41999999    2.66000009
   17.57972336  123.05000305    0.41999999    2.66000009
   17.58083344  134.34700012    0.41999999    2.66000009
   17.58305550  123.55599976    0.40000001    2.66000009
   17.58638954  121.02200317    0.40000001    2.66000009
   17.58972359  128.02699280    0.40000001    2.66000009
   17.59277916  133.15400696    0.40000001    2.66000009
   17.59611130  134.25000000    0.40000001    2.66000009
   17.59916687  128.02999878    0.38000000    2.66000009
   17.60527802  128.02999878    0.38000000    2.66000009
   17.60944557  139.65699768    0.38000000    2.66000009
   17.61277771  136.05700684    0.38000000    2.66000009
   17.61416626  139.00199890    0.40000001    2.64000010
   17.61666679  139.34800720    0.40000001    2.64000010
   17.62000084  143.19999695    0.40000001    2.67000008
   17.62305641  137.70500183    0.40000001    2.66000009
   17.62638855  132.31399536    0.40000001    2.66000009
   17.62944412  131.85600281    0.40000001    2.66000009
   17.63277817  136.28799438    0.40000001    2.66000009
   17.63611031  139.72900391    0.41999999    2.66000009
   17.63916588  148.10299683    0.41999999    2.66000009
   17.64249992  144.96099854    0.41999999    2.66000009
   17.64833260  144.96099854    0.40000001    2.66000009
   17.65250015  136.13600159    0.38000000    2.66000009
   17.65555573  145.78199768    0.38000000    2.64000010
   17.65888786  160.86900330    0.38000000    2.64000010
   17.66222191  145.68899536    0.40000001    2.64000010
   17.66527748  138.46400452    0.40000001    2.66000009
   17.66860962  125.94000244    0.38000000    2.66000009
   17.67166519  141.54699707    0.38000000    2.66000009
   17.67499924  141.12800598    0.38000000    2.66000009
   17.67833328  134.47200012    0.40000001    2.66000009
   17.68083191  146.05299377    0.36000001    2.66000009
   17.68166542  138.24000549    0.36000001    2.66000009
   17.68499947  121.63999939    0.36000001    2.64000010
   17.69111061  121.63999939    0.36000001    2.66000009
   17.69527626  135.37800598    0.36000001    2.66000009
   17.69833183  133.64300537    0.34000000    2.66000009
   17.70166779  135.01800537    0.34000000    2.64000010
   17.70499992  135.47799683    0.34000000    2.66000009
   17.70805550  126.68299866    0.34000000    2.64000010
   17.71138954  126.22100067    0.34000000    2.64000010
   17.71416664  132.07000732    0.36000001    2.66000009
   17.71500015  109.61699677    0.36000001    2.66000009
   17.71833420  127.75000000    0.34000000    2.66000009
   17.72166634  114.47100067    0.31999999    2.64000010
   17.72472191  131.81199646    0.34000000    2.66000009
   17.72805595  131.52999878    0.31999999    2.64000010
   17.73388863  131.52999878    0.31999999    2.66000009
   17.73805618  118.30300140    0.31999999    2.66000009
   17.74138832  125.03800201    0.34000000    2.66000009
   17.74444389  109.52799988    0.36000001    2.66000009
   17.74749947  119.02999878    0.36000001    2.64000010
   17.74805641  126.86399841    0.36000001    2.64000010
   17.75138855  119.52799988    0.36000001    2.64000010
   17.75472260  117.63500214    0.38000000    2.64000010
   17.75777817  130.38499451    0.38000000    2.64000010
   17.76111031  117.66000366    0.36000001    2.66000009
   17.76444435  120.67500305    0.34000000    2.66000009
   17.76749992  121.36699677    0.34000000    2.66000009
   17.77083397  129.95700073    0.34000000    2.66000009
   17.77666664  129.95700073    0.34000000    2.66000009
   17.78083229  124.41699982    0.34000000    2.66000009
   17.78416634  131.33900452    0.34000000    2.66000009
   17.78722191  137.41200256    0.34000000    2.66000009
   17.79055595  134.34500122    0.34000000    2.66000009
   17.79388809  140.95899963    0.36000001    2.64000010
   17.79694366  141.05599976    0.36000001    2.64000010
   17.80027771  132.68099976    0.38000000    2.64000010
   17.80360985  132.57899475    0.38000000    2.64000010
   17.80666542  135.00199890    0.40000001    2.66000009
   17.80999947  138.74400330    0.40000001    2.66000009
   17.81333351  142.03700256    0.40000001    2.64000010
   17.81416512  136.96899414    0.40000001    2.64000010
   17.81972313  136.96899414    0.41999999    2.64000010
   17.82389069  130.33299255    0.41999999    2.64000010
   17.82722282  141.83999634    0.41999999    2.64000010
   17.83027840  139.78700256    0.41999999    2.64000010
   17.84777832  128.78599548    0.41999999    2.64000010
   17.85027885  133.35699463    0.41999999    2.64000010
   17.85333443  143.16099548    0.40000001    2.64000010
   17.85666656  136.58500671    0.40000001    2.66000009
   17.86277771  136.58500671    0.38000000    2.66000009
   17.86666679  155.12800598    0.38000000    2.64000010
   17.87000084  141.29100037    0.38000000    2.64000010
   17.87333298  140.47500610    0.38000000    2.64000010
   17.87638855  139.30900574    0.40000001    2.64000010
   17.87972260  144.52299500    0.44000000    2.64000010
   17.88111115  142.59199524    0.47999999    2.64000010
   17.88333321  140.96499634    0.47999999    2.64000010
   17.88638878  131.34700012    0.46000001    2.64000010
   17.88972282  134.97700500    0.44000000    2.64000010
   17.89277840  136.96400452    0.44000000    2.64000010
   17.89611053  146.02299500    0.41999999    2.64000010
   17.89944458  138.06500244    0.41999999    2.64000010
   17.90555573  138.06500244    0.41999999    2.64000010
   17.90972137  135.90299988    0.40000001    2.66000009
   17.91277695  140.62800598    0.40000001    2.64000010
   17.91444397  147.04100037    0.40000001    2.64000010
   17.91666603  144.84500122    0.40000001    2.64000010
   17.91972160  145.73300171    0.41999999    2.64000010
   17.92305565  159.67900085    0.41999999    2.64000010
   17.92611122  134.48399353    0.41999999    2.64000010
   17.92944336  150.52400208    0.41999999    2.64000010
   17.93277740  161.47799683    0.44000000    2.64000010
   17.93583298  151.58200073    0.46000001    2.64000010
   17.93916512  159.73300171    0.44000000    2.64000010
   17.94249916  157.05799866    0.44000000    2.64000010
   17.94833183  157.05799866    0.41999999    2.64000010
   17.95250130  149.01800537    0.41999999    2.64000010
   17.95583344  143.31399536    0.44000000    2.64000010
   17.95888901  151.67700195    0.41999999    2.64000010
   17.96222305  163.32600403    0.41999999    2.64000010
   17.96527863  147.14900208    0.41999999    2.64000010
   17.96861076  145.02200317    0.41999999    2.64000010
   17.97194481  150.79800415    0.41999999    2.64000010
   17.97500038  162.61599731    0.41999999    2.64000010
   17.97833443  151.59700012    0.40000001    2.64000010
   17.98111153  171.73599243    0.40000001    2.64000010
   17.98166656  161.21000671    0.40000001    2.64000010
   17.98500061  162.37300110    0.38000000    2.64000010
   17.99111176  162.37300110    0.38000000    2.64000010
   17.99527740  200.26600647    0.38000000    2.64000010
   17.99861145  213.92300415    0.38000000    2.64000010
   18.00166702  180.26699829    0.36000001    2.64000010
   18.00499916  193.74400330    0.36000001    2.64000010
   18.00833321  176.63699341    0.34000000    2.64000010
   18.01138878  186.75999451    0.31999999    2.64000010
   18.01444435  172.85400391    0.31999999    2.64000010
   18.01527786  196.33399963    0.31999999    2.64000010
   18.01833344  191.40899658    0.34000000    2.64000010
   18.02166557  202.99499512    0.34000000    2.64000010
   18.02499962  196.87300110    0.34000000    2.64000010
   18.02805519  205.18800354    0.40000001    2.64000010
   18.03416634  205.18800354    0.44000000    2.64000010
   18.03805542  175.27699280    0.44000000    2.64000010
   18.04138756  194.51699829    0.46000001    2.64000010
   18.04472160  188.69400024    0.46000001    2.64000010
   18.04777718  178.53700256    0.46000001    2.64000010
   18.04833221  181.44000244    0.46000001    2.64000010
   18.05138779  162.36000061    0.44000000    2.61999989
   18.05472183  179.48199463    0.41999999    2.64000010
   18.05777740  186.23199463    0.41999999    2.64000010
   18.06110954  192.81500244    0.41999999    2.64000010
   18.06444359  195.49000549    0.44000000    2.61999989
   18.06750107  166.26499939    0.44000000    2.61999989
   18.07083511  176.02099609    0.44000000    2.64000010
   18.07694626  176.02099609    0.47999999    2.64000010
   18.08111191  158.41400146    0.56999999    2.61999989
   18.08166695  178.25999451    0.56999999    2.61999989
   18.08472252  172.03999329    0.64999998    2.61999989
   18.08805656  170.13499451    0.64999998    2.61999989
   18.09111214  163.94900513    0.61000001    2.64000010
   18.09444427  163.42700195    0.56999999    2.64000010
   18.09777832  167.44900513    0.51999998    2.64000010
   18.10111237  160.17700195    0.51999998    2.61999989
   18.10416794  171.68699646    0.46000001    2.64000010
   18.10750008  156.32899475    0.44000000    2.64000010
   18.11055565  173.18899536    0.44000000    2.64000010
   18.11388969  168.69299316    0.41999999    2.64000010
   18.11444473  175.32899475    0.41999999    2.64000010
   18.11972237  175.32899475    0.46000001    2.61999989
   18.12388992  176.42599487    0.44000000    2.61999989
   18.12694550  166.86900330    0.44000000    2.61999989
   18.13027763  163.67900085    0.44000000    2.64000010
   18.13361168  164.13400269    0.41999999    2.64000010
   18.13666725  166.59300232    0.40000001    2.64000010
   18.13999939  162.75399780    0.40000001    2.64000010
   18.14333344  154.54899597    0.40000001    2.61999989
   18.14638901  150.16200256    0.40000001    2.64000010
   18.14777756  164.65299988    0.40000001    2.64000010
   18.15027809  152.17999268    0.40000001    2.61999989
   18.15333366  161.87199402    0.40000001    2.61999989
   18.15666580  157.56300354    0.40000001    2.61999989
   18.16250038  157.56300354    0.40000001    2.64000010
   18.16666603  138.68800354    0.41999999    2.61999989
   18.17000008  157.22300720    0.41999999    2.61999989
   18.17305565  147.52000427    0.40000001    2.61999989
   18.17638779  154.71699524    0.40000001    2.61999989
   18.17972183  157.22000122    0.40000001    2.64000010
   18.18111038  154.33000183    0.40000001    2.64000010
   18.18333244  153.85200500    0.40000001    2.64000010
   18.18638802  148.16000366    0.40000001    2.61999989
   18.18972206  159.93400574    0.41999999    2.61999989
   18.19305420  152.16299438    0.44000000    2.64000010
   18.19610977  152.22300720    0.44000000    2.61999989
   18.19944382  158.55000305    0.44000000    2.61999989
   18.20555687  158.55000305    0.41999999    2.61999989
   18.20944595  148.78500366    0.41999999    2.64000010
   18.21277809  132.22900391    0.40000001    2.64000010
   18.21444511  155.50199890    0.40000001    2.64000010
   18.21666718  146.36399841    0.40000001    2.64000010
   18.21972275  153.28300476    0.36000001    2.64000010
   18.22305679  137.52200317    0.36000001    2.64000010
   18.22611237  145.35000610    0.38000000    2.61999989
   18.22944450  147.52099609    0.40000001    2.64000010
   18.23277855  137.09899902    0.38000000    2.61999989
   18.23583412  141.14700317    0.38000000    2.61999989
   18.23916626  133.02600098    0.38000000    2.61999989
   18.24250031  138.11000061    0.38000000    2.64000010
   18.24833298  138.11000061    0.38000000    2.64000010
   18.25250053  143.58999634    0.40000001    2.61999989
   18.25555611  140.79100037    0.61000001    2.61999989
   18.25888824  134.46699524    0.61000001    2.61999989
   18.26194382  131.55400085    0.61000001    2.61999989
   18.26527786  132.96299744    0.47999999    2.64000010
   18.26861000  146.56300354    0.47999999    2.64000010
   18.27166557  150.10499573    0.40000001    2.61999989
   18.27499962  140.23899841    0.38000000    2.61999989
   18.27833366  152.07800293    0.36000001    2.61999989
   18.28111076  143.53199768    0.36000001    2.61999989
   18.28194427  147.25100708    0.36000001    2.64000010
   18.28499985  155.41400146    0.36000001    2.64000010
   18.29111099  155.41400146    0.34000000    2.61999989
   18.29527664  156.56599426    0.34000000    2.61999989
   18.29833221  149.02799988    0.36000001    2.61999989
   18.30166626  143.62300110    0.34000000    2.61999989
   18.30499840  152.21299744    0.34000000    2.61999989
   18.30805397  146.23699951    0.34000000    2.61999989
   18.31138802  146.31300354    0.34000000    2.61999989
   18.31444359  141.35699463    0.36000001    2.64000010
   18.31499863  129.47700500    0.36000001    2.64000010
   18.31805611  145.64799500    0.36000001    2.64000010
   18.32139015  146.39599609    0.36000001    2.61999989
   18.32444572  145.07600403    0.36000001    2.61999989
   18.32777786  136.32299805    0.36000001    2.61999989
   18.33388901  136.32299805    0.36000001    2.61999989
   18.33805656  135.75100708    0.36000001    2.61999989
   18.34138870  137.98300171    0.34000000    2.61999989
   18.34444427  129.10800171    0.36000001    2.61999989
   18.34777832  135.35600281    0.34000000    2.61999989
   18.34833336  136.82400513    0.34000000    2.61999989
   18.35138893  137.79499817    0.36000001    2.64000010
   18.35472298  133.59100342    0.34000000    2.61999989
   18.35777855  134.63600159    0.34000000    2.61999989
   18.36111069  140.37399292    0.34000000    2.61999989
   18.36444473  130.65800476    0.34000000    2.61999989
   18.36750031  134.58000183    0.34000000    2.61999989
   18.37083435  132.99800110    0.34000000    2.61999989
   18.37694550  132.99800110    0.36000001    2.61999989
   18.38111115  132.21800232    0.36000001    2.61999989
   18.38138962  143.61799622    0.36000001    2.61999989
   18.38500023  130.80299377    0.36000001    2.61999989
   18.38833237  141.76800537    0.36000001    2.61999989
   18.39166641  129.98699951    0.36000001    2.61999989
   18.39472198  130.98199463    0.36000001    2.61999989
   18.39805603  134.69700623    0.38000000    2.61999989
   18.40111160  137.15100098    0.36000001    2.61999989
   18.40444374  134.08799744    0.36000001    2.61999989
   18.40777779  126.97799683    0.36000001    2.61999989
   18.41110992  132.93800354    0.36000001    2.61999989
   18.41444397  135.67100525    0.36000001    2.61999989
   18.41499901  132.25399780    0.36000001    2.61999989
   18.41972160  132.25399780    0.38000000    2.61999989
   18.42388916  137.13600159    0.38000000    2.61999989
   18.42694473  127.76000214    0.44000000    2.61999989
   18.43027687  130.01400757    0.41999999    2.61999989
   18.43361092  127.27500153    0.41999999    2.61999989
   18.43694305  128.15100098    0.41999999    2.61999989
   18.43999863  128.74000549    0.41999999    2.61999989
   18.44333267  131.62399292    0.40000001    2.61999989
   18.44638824  131.59599304    0.38000000    2.61999989
   18.44805527  125.92600250    0.38000000    2.61999989
   18.45000076  123.19400024    0.38000000    2.61999989
   18.45333481  129.72900391    0.38000000    2.61999989
   18.45639038  130.64199829    0.38000000    2.61999989
   18.46250153  130.64199829    0.38000000    2.61999989
   18.46666718  128.90199280    0.38000000    2.61999989
   18.46972275  128.52000427    0.36000001    2.61999989
   18.47305679  116.89900208    0.36000001    2.61999989
   18.47638893  130.44099426    0.36000001    2.61999989
   18.47944450  138.31199646    0.38000000    2.59999990
   18.48139000  127.55000305    0.38000000    2.59999990
   18.48305511  131.97200012    0.38000000    2.61999989
   18.48638916  130.09599304    0.38000000    2.61999989
   18.48944473  133.90600586    0.36000001    2.59999990
   18.49277878  129.86099243    0.36000001    2.61999989
   18.49611092  127.22499847    0.38000000    2.61999989
   18.49916649  124.47799683    0.38000000    2.61999989
   18.50527763  124.47799683    0.38000000    2.59999990
   18.50944519  129.73699951    0.36000001    2.59999990
   18.51277733  136.95399475    0.36000001    2.59999990
   18.51472282  126.78399658    0.36000001    2.59999990
   18.51638794  128.32000732    0.36000001    2.61999989
   18.51972198  122.86199951    0.36000001    2.59999990
   18.52277756  125.99400330    0.36000001    2.59999990
   18.52611160  127.47499847    0.36000001    2.59999990
   18.52944374  129.91200256    0.38000000    2.61999989
   18.53249931  126.66600037    0.36000001    2.59999990
   18.53583336  134.39799500    0.36000001    2.59999990
   18.53916550  129.03900146    0.36000001    2.61999989
   18.54222107  133.05999756    0.36000001    2.59999990
   18.54833221  133.05999756    0.34000000    2.59999990
   18.55222130  120.75399780    0.34000000    2.59999990
   18.55555534  123.35900116    0.34000000    2.59999990
   18.55888748  127.40599823    0.34000000    2.59999990
   18.56194305  130.05900574    0.36000001    2.61999989
   18.56527710  122.44200134    0.36000001    2.59999990
   18.56861115  124.71900177    0.36000001    2.59999990
   18.57166672  135.63099670    0.34000000    2.59999990
   18.57500076  122.93299866    0.34000000    2.59999990
   18.57805634  131.52900696    0.34000000    2.59999990
   18.58139038  128.17999268    0.34000000    2.59999990
   18.58333397  132.62199402    0.34000000    2.59999990
   18.58500099  136.70100403    0.34000000    2.59999990
   18.59111214  136.70100403    0.36000001    2.61999989
   18.59527779  126.08499908    0.36000001    2.59999990
   18.59833336  133.19799805    0.34000000    2.61999989
   18.60166740  130.38900757    0.36000001    2.59999990
   18.60499954  144.58299255    0.36000001    2.59999990
   18.60805511  141.59199524    0.34000000    2.61999989
   18.61138916  129.75300598    0.34000000    2.59999990
   18.61472321  138.37500000    0.34000000    2.59999990
   18.61666679  119.37500000    0.34000000    2.59999990
   18.61805534  140.47599792    0.34000000    2.59999990
   18.62138939  131.03399658    0.36000001    2.59999990
   18.62472153  138.77900696    0.36000001    2.59999990
   18.62777710  139.79299927    0.36000001    2.59999990
   18.63388824  139.79299927    0.40000001    2.61999989
   18.63805580  127.09400177    0.36000001    2.59999990
   18.64138794  136.25500488    0.36000001    2.59999990
   18.64444351  135.97300720    0.36000001    2.59999990
   18.64777756  140.75900269    0.36000001    2.59999990
   18.64999962  128.26899719    0.36000001    2.59999990
   18.65138817  134.51699829    0.36000001    2.59999990
   18.65472221  129.72500610    0.36000001    2.59999990
   18.65777779  131.13900757    0.36000001    2.59999990
   18.66110992  133.45399475    0.36000001    2.59999990
   18.66444397  131.97300720    0.36000001    2.59999990
   18.66749954  134.07699585    0.36000001    2.59999990
   18.67083359  137.66700745    0.36000001    2.59999990
   18.67666626  137.66700745    0.38000000    2.59999990
   18.68083191  125.87899780    0.36000001    2.57999992
   18.68333244  126.86900330    0.36000001    2.57999992
   18.68444443  135.99099731    0.36000001    2.57999992
   18.68777657  138.30900574    0.36000001    2.57999992
   18.69083214  136.65400696    0.36000001    2.59999990
   18.69416618  141.49600220    0.36000001    2.59999990
   18.69749832  124.03900146    0.36000001    2.59999990
   18.70055580  137.05599976    0.38000000    2.59999990
   18.70388985  130.29800415    0.38000000    2.59999990
   18.70722389  137.69200134    0.38000000    2.59999990
   18.71027946  137.83700562    0.38000000    2.59999990
   18.71361160  129.82099915    0.36000001    2.59999990
   18.71972275  129.82099915    0.40000001    2.59999990
   18.72389030  134.50900269    0.38000000    2.59999990
   18.72694588  125.37899780    0.38000000    2.59999990
   18.73027802  153.89700317    0.38000000    2.59999990
   18.73333359  136.43200684    0.38000000    2.59999990
   18.73666763  127.66799927    0.40000001    2.59999990
   18.73999977  137.03399658    0.40000001    2.59999990
   18.74305534  145.96099854    0.40000001    2.59999990
   18.74638939  128.72900391    0.40000001    2.59999990
   18.74972153  127.67500305    0.40000001    2.59999990
   18.75055504  120.00800323    0.40000001    2.59999990
   18.75305557  141.68600464    0.40000001    2.59999990
   18.75638962  124.22200012    0.40000001    2.59999990
   18.76250076  124.22200012    0.41999999    2.57999992
   18.76666641  135.44700623    0.40000001    2.59999990
   18.76972198  132.60899353    0.40000001    2.59999990
   18.77305603  127.36699677    0.38000000    2.59999990
   18.77638817  146.92799377    0.38000000    2.59999990
   18.77972221  139.42700195    0.38000000    2.59999990
   18.78305435  139.00999451    0.38000000    2.59999990
   18.78388786  158.59100342    0.40000001    2.59999990
   18.78666687  154.21400452    0.40000001    2.59999990
   18.78999901  145.32899475    0.38000000    2.57999992
   18.79305458  154.91600037    0.38000000    2.57999992
   18.79638863  139.56300354    0.38000000    2.57999992
   18.79972076  140.41299438    0.38000000    2.57999992
   18.80527687  140.41299438    0.38000000    2.57999992
   18.80944443  140.09599304    0.38000000    2.59999990
   18.81277657  133.79400635    0.40000001    2.57999992
   18.81583214  116.81099701    0.38000000    2.57999992
   18.81722260  128.82400513    0.40000001    2.57999992
   18.81944466  126.96700287    0.40000001    2.57999992
   18.82277870  131.40600586    0.40000001    2.57999992
   18.82583427  136.72000122    0.38000000    2.57999992
   18.82916832  139.05599976    0.40000001    2.57999992
   18.83250046  134.42300415    0.38000000    2.59999990
   18.83583450  140.20100403    0.40000001    2.57999992
   18.83916664  134.62800598    0.40000001    2.57999992
   18.84222221  135.89500427    0.38000000    2.57999992
   18.84805679  135.89500427    0.38000000    2.57999992
   18.86638832  127.79900360    0.38000000    2.57999992
   18.86972237  135.96099854    0.38000000    2.57999992
   18.87305641  137.19400024    0.38000000    2.57999992
   18.87611198  137.88600159    0.38000000    2.55999994
   18.87944412  131.56300354    0.38000000    2.57999992
   18.88277817  139.10600281    0.38000000    2.57999992
   18.88583374  129.87199402    0.38000000    2.57999992
   18.89111137  129.87199402    0.40000001    2.57999992
   18.89527702  133.77099609    0.40000001    2.57999992
   18.89861107  145.34899902    0.40000001    2.57999992
   18.89944458  132.68299866    0.40000001    2.57999992
   18.90222168  140.61300659    0.40000001    2.57999992
   18.90555573  130.02099609    0.40000001    2.57999992
   18.90861130  129.32800293    0.40000001    2.57999992
   18.91194344  131.44599915    0.40000001    2.57999992
   18.91527748  132.33399963    0.38000000    2.57999992
   18.91833305  126.88099670    0.40000001    2.59999990
   18.92166519  140.15199280    0.38000000    2.57999992
   18.92499924  142.60299683    0.38000000    2.57999992
   18.92805481  133.13200378    0.38000000    2.57999992
   18.93416595  133.13200378    0.40000001    2.55999994
   18.93805504  137.34399414    0.40000001    2.57999992
   18.94138718  137.78199768    0.38000000    2.57999992
   18.94472122  135.16000366    0.38000000    2.55999994
   18.94777679  147.12300110    0.40000001    2.55999994
   18.95111275  136.57699585    0.40000001    2.55999994
   18.95444489  141.13600159    0.40000001    2.57999992
   18.95750046  132.72399902    0.40000001    2.57999992
   18.96083450  133.60099792    0.40000001    2.57999992
   18.96416664  129.09800720    0.44000000    2.57999992
   18.96611214  134.92199707    0.44000000    2.57999992
   18.96750069  127.16000366    0.44000000    2.57999992
   18.97083473  129.74699402    0.46000001    2.55999994
   18.97694588  129.74699402    0.44000000    2.55999994
   18.98111153  124.69699860    0.41999999    2.55999994
   18.98444557  131.22300720    0.41999999    2.55999994
   18.98750114  132.87199402    0.44000000    2.55999994
   18.99083328  132.62399292    0.41999999    2.55999994
   18.99388885  135.61300659    0.41999999    2.55999994
   18.99722290  130.66600037    0.41999999    2.55999994
   18.99972153  133.26499939    0.41999999    2.55999994
   19.00083351  126.31099701    0.41999999    2.55999994
   19.00416756  140.63200378    0.41999999    2.55999994
   19.00749969  129.86599731    0.44000000    2.55999994
   19.01055527  133.24099731    0.44000000    2.55999994
   19.01388931  131.52999878    0.44000000    2.55999994
   19.01972198  131.52999878    0.41999999    2.55999994
   19.02388954  129.91299438    0.44000000    2.57999992
   19.02722168  136.30200195    0.41999999    2.55999994
   19.03027725  136.13999939    0.41999999    2.55999994
   19.03305435  143.63000488    0.41999999    2.55999994
   19.03416634  136.54400635    0.41999999    2.55999994
   19.03750038  123.94599915    0.41999999    2.55999994
   19.04055595  132.77099609    0.41999999    2.55999994
   19.04388809  137.10699463    0.41999999    2.55999994
   19.04694366  136.92199707    0.44000000    2.55999994
   19.05027771  129.91400146    0.41999999    2.55999994
   19.05360985  130.87500000    0.41999999    2.55999994
   19.05666542  133.22300720    0.44000000    2.55999994
   19.06250000  133.22300720    0.44000000    2.55999994
   19.06666756  123.13600159    0.44000000    2.55999994
   19.07000160  128.23100281    0.44000000    2.55999994
   19.07333374  131.70399475    0.44000000    2.55999994
   19.07638931  124.25499725    0.44000000    2.55999994
   19.07972336  126.56500244    0.44000000    2.55999994
   19.08277893  127.91000366    0.44000000    2.55999994
   19.08611107  134.06900024    0.44000000    2.55999994
   19.08944511  131.18200684    0.44000000    2.55999994
   19.09250069  128.22900391    0.44000000    2.53999996
   19.09583473  137.00399780    0.44000000    2.55999994
   19.09916687  120.78299713    0.44000000    2.55999994
   19.09972191  132.09199524    0.44000000    2.55999994
   19.10555649  132.09199524    0.46000001    2.53999996
   19.10944557  121.77700043    0.46000001    2.55999994
   19.11277771  124.97699738    0.46000001    2.55999994
   19.11611176  122.07299805    0.47999999    2.55999994
   19.11916733  120.40499878    0.52999997    2.55999994
   19.12249947  126.40499878    0.56999999    2.55999994
   19.12583351  121.96900177    0.61000001    2.55999994
   19.12888908  121.85900116    0.67000002    2.55999994
   19.13222313  126.05100250    0.67000002    2.55999994
   19.13305473  122.48000336    0.67000002    2.55999994
   19.13583374  118.94599915    0.67000002    2.55999994
   19.13916588  129.46299744    0.56999999    2.55999994
   19.14249992  126.73200226    0.55000001    2.55999994
   19.14833260  126.73200226    0.52999997    2.55999994
   19.15250015  128.22200012    0.52999997    2.55999994
   19.15583229  126.16400146    0.52999997    2.55999994
   19.15888786  122.37799835    0.47999999    2.53999996
   19.16222191  122.69799805    0.47999999    2.55999994
   19.16527748  122.35800171    0.47999999    2.55999994
   19.16638756  120.60299683    0.47999999    2.55999994
   19.16888809  122.13600159    0.47999999    2.55999994
   19.17222214  124.40599823    0.50000000    2.55999994
   19.17555428  126.51799774    0.50000000    2.53999996
   19.17860985  121.96900177    0.50000000    2.53999996
   19.18194389  125.19100189    0.50000000    2.53999996
   19.18499947  124.39800262    0.52999997    2.53999996
   19.19111061  124.39800262    0.58999997    2.53999996
   19.19527626  124.00099945    0.67000002    2.53999996
   19.19861031  127.03900146    0.67000002    2.53999996
   19.19972038  123.83699799    0.67000002    2.53999996
   19.20194435  119.58599854    0.67000002    2.53999996
   19.20527840  118.72899628    0.69000000    2.53999996
   19.20861244  127.28500366    0.73000002    2.53999996
   19.21166801  123.03500366    0.73000002    2.53999996
   19.21500015  117.51399994    0.73000002    2.53999996
   19.21805573  121.13500214    0.73000002    2.51999998
   19.22138977  120.97000122    0.75000000    2.53999996
   19.22472191  127.24400330    0.80000001    2.53999996
   19.22777748  129.31500244    0.80000001    2.53999996
   19.23416710  129.31500244    0.83999997    2.53999996
   19.23805618  124.62000275    1.55999994    2.53999996
   19.24138832  132.65100098    1.60000002    2.53999996
   19.24472237  123.58200073    1.61000001    2.53999996
   19.24777794  123.51300049    2.17000008    2.53999996
   19.25111198  137.05999756    2.50000000    2.53999996
   19.25444412  134.34899902    3.25000000    2.51999998
   19.25749969  132.83999634    4.19999981    2.51999998
   19.26083374  130.30000305    4.90999985    2.50000000
   19.26388931  137.62199402    4.90999985    2.51999998
   19.26638794  132.90600586    4.90999985    2.53999996
   19.26749992  132.31900024    4.90999985    2.53999996
   19.27083397  129.40699768    4.90999985    2.51999998
   19.27694511  129.40699768    4.90999985    2.51999998
   19.28111076  132.62399292    4.90999985    2.50000000
   19.28416634  141.46099854    4.90999985    2.46000004
   19.28750038  133.27999878    4.90999985    2.48000002
   19.29083252  123.70500183    4.90999985    2.50000000
   19.29388809  161.92799377    4.90999985    2.48000002
   19.29722214  139.11999512    4.90999985    2.42000008
   19.29972076  156.97300720    4.90999985    2.40000010
   19.30083275  161.04899597    4.90999985    2.36999989
   19.30416679  160.94799805    4.90999985    2.32999992
   19.30749893  153.43400574    4.90999985    2.28999996
   19.31055450  158.77900696    4.90999985    2.30999994
   19.31388855  154.41700745    4.90999985    2.23000002
   19.31972313  154.41700745    4.90999985    2.28999996
   19.32389069  150.10600281    4.90999985    2.23000002
   19.32694626  156.09599304    4.90999985    2.23000002
   19.33027840  142.71899414    4.90999985    2.21000004
   19.33305550  197.19000244    4.90999985    2.13000011
   19.33388901  164.25100708    4.90999985    2.09999990
   19.33722305  223.79899597    4.90999985    2.23000002
   19.34055710  158.97399902    4.90999985    2.03999996
   19.34361267  197.33000183    4.90999985    2.23000002
   19.34694481  163.52999878    4.90999985    2.25000000
   19.35000038  154.63499451    4.90999985    2.26999998
   19.35333443  169.11199951    4.90999985    2.25000000
   19.35666656  162.92900085    4.90999985    2.26999998
   19.36250114  162.92900085    4.90999985    2.26999998
   19.36666679  169.50199890    4.90999985    2.15000010
   19.37000084  153.27200317    4.90999985    2.26999998
   19.37333298  178.05099487    4.90999985    1.98000002
   19.37638855  162.24499512    4.90999985    2.25000000
   19.37972260  206.21600342    4.90999985    1.96000004
   19.38277817  192.01899719    4.90999985    2.21000004
   19.38611031  179.99299622    4.90999985    2.03999996
   19.38944435  207.60200500    4.90999985    2.13000011
   19.39249992  195.48899841    4.90999985    2.11999989
   19.39583397  175.15299988    4.90999985    2.00000000
   19.39916611  185.21699524    4.90999985    2.19000006
   19.39972115  175.38299561    4.90999985    2.19000006
   19.40527725  175.38299561    4.90999985    2.23000002
   19.40944481  149.97000122    4.90999985    2.26999998
   19.41277695  163.48800659    4.90999985    2.28999996
   19.41611099  173.71000671    4.90999985    2.28999996
   19.41916656  169.08900452    4.90999985    2.19000006
   19.42249870  162.53900146    4.90999985    2.21000004
   19.42555428  163.41900635    4.90999985    2.25000000
   19.42888832  153.35200500    4.90999985    2.32999992
   19.43222237  148.74499512    4.90999985    2.36999989
   19.43305397  171.09599304    4.90999985    2.39000010
   19.43555450  158.08099365    4.90999985    2.39000010
   19.43888855  165.21600342    4.90999985    2.39000010
   19.44222069  168.36399841    4.90999985    2.36999989
   19.44833183  168.36399841    4.90999985    2.42000008
   19.45250130  150.44099426    4.90999985    2.44000006
   19.45555687  135.74400330    4.90999985    2.42000008
   19.45888901  143.69900513    4.90999985    2.46000004
   19.46194458  158.99299622    4.90999985    2.46000004
   19.46527863  159.80299377    4.90999985    2.50000000
   19.46638870  130.96600342    4.90999985    2.50000000
   19.46888924  152.40299988    4.90999985    2.51999998
   19.47222328  151.52600098    4.90999985    2.50000000
   19.47555542  130.37800598    4.90999985    2.48000002
   19.47861099  157.11900330    4.90999985    2.46000004
   19.48194504  146.28300476    4.90999985    2.50000000
   19.48527718  150.73899841    4.90999985    2.50000000
   19.49111176  150.73899841    4.90999985    2.50000000
   19.49527740  152.82299805    4.90999985    2.51999998
   19.49833298  138.86000061    4.90999985    2.51999998
   19.49972153  152.45500183    4.90999985    2.50000000
   19.50194359  138.27200317    4.90999985    2.50000000
   19.50527763  156.52799988    4.90999985    2.51999998
   19.50861168  144.19999695    4.90999985    2.50000000
   19.51166725  142.44599915    4.90999985    2.50000000
   19.51499939  143.66999817    4.59999990    2.50000000
   19.51833344  143.89799500    4.13999987    2.50000000
   19.52138901  145.00399780    3.72000003    2.50000000
   19.52472115  138.16400146    3.30999994    2.50000000
   19.52805519  142.75300598    2.75000000    2.48000002
   19.53388786  142.75300598    2.61999989    2.50000000
   19.53805542  136.53999329    2.46000004    2.50000000
   19.54138756  144.33099365    2.21000004    2.48000002
   19.54444313  141.92999268    1.91999996    2.50000000
   19.54777718  142.18200684    1.73000002    2.48000002
   19.55083275  131.24699402    1.69000006    2.48000002
   19.55416679  147.60000610    1.69000006    2.46000004
   19.55749893  143.41900635    1.78999996    2.48000002
   19.56055450  157.18400574    1.85000002    2.48000002
   19.56388855  140.98399353    1.88000000    2.48000002
   19.56638718  132.22599792    2.09999990    2.48000002
   19.56750107  150.75599670    2.15000010    2.48000002
   19.57083511  146.58900452    2.21000004    2.48000002
   19.57666779  146.58900452    2.46000004    2.48000002
   19.58083344  150.47999573    2.48000002    2.48000002
   19.58416748  138.96699524    2.48000002    2.48000002
   19.58722305  126.01499939    2.48000002    2.48000002
   19.59055710  137.06900024    2.48000002    2.48000002
   19.59388924  156.02600098    2.71000004    2.48000002
   19.59694481  138.65800476    2.86999989    2.48000002
   19.59972191  134.87600708    2.93000007    2.48000002
   19.60055542  138.07699585    2.94000006    2.48000002
   19.60388947  135.66200256    2.96000004    2.48000002
   19.60722351  133.16099548    3.05999994    2.48000002
   19.61027908  134.96200562    2.91000009    2.48000002
   19.61361122  138.39799500    2.44000006    2.48000002
   19.61972237  138.39799500    1.78999996    2.48000002
   19.62361145  134.25799561    1.73000002    2.48000002
   19.62694550  134.14199829    1.78999996    2.48000002
   19.63027763  123.44799805    1.88000000    2.48000002
   19.63305473  132.36799622    1.91999996    2.48000002
   19.63361168  133.92999268    1.89999998    2.48000002
   19.63694382  136.36099243    1.91999996    2.48000002
   19.64027786  147.11399841    2.07999992    2.48000002
   19.64333344  145.21400452    2.21000004    2.48000002
   19.64666748  148.61399841    2.32999992    2.48000002
   19.64972115  160.41900635    2.51999998    2.48000002
   19.65305519  209.21400452    2.51999998    2.46000004
   19.65638924   -1.00000000    2.48000002    2.46000004
   19.66638756   -1.00000000    2.59999990    2.46000004
   19.66972160   -1.00000000    2.59999990    2.46000004
   19.67305565   -1.00000000    2.69000006    2.48000002
   19.67611122   -1.00000000    2.64000010    2.48000002
   19.67944336   -1.00000000    2.66000009    2.48000002
   19.68277740   -1.00000000    2.76999998    2.48000002
   19.68583298   -1.00000000    2.91000009    2.46000004
   19.68916512   -1.00000000    2.93000007    2.48000002
   19.69222069   -1.00000000    2.96000004    2.48000002
   19.69555473   -1.00000000    2.86999989    2.48000002
   19.69888878   -1.00000000    2.86999989    2.48000002
   19.70944595   -1.00000000    2.93000007    2.48000002
   19.71250153   -1.00000000    2.69000006    2.50000000
   19.71611214   -1.00000000    2.50000000    2.48000002
   19.71944427   -1.00000000    2.34999990    2.50000000
   19.72249985   -1.00000000    2.30999994    2.50000000
   19.72583389   -1.00000000    2.11999989    2.48000002
   19.72916794   -1.00000000    1.86000001    2.48000002
   19.73222351   -1.00000000    1.66999996    2.50000000
   19.73583412   -1.00000000    1.55999994    2.50000000
   19.73916626   -1.00000000    1.48000002    2.48000002
   19.74222183   -1.00000000    1.39999998    2.50000000
   19.75222206   -1.00000000    1.16999996    2.48000002
   19.75555611   -1.00000000    1.07000005    2.48000002
   19.75861168   -1.00000000    1.05999994    2.48000002
   19.76194382   -1.00000000    1.03999996    2.48000002
   19.76527786   -1.00000000    1.01999998    2.48000002
   19.76861000   -1.00000000    1.03999996    2.48000002
   19.77194405   -1.00000000    1.01999998    2.48000002
   19.77499962   -1.00000000    1.01999998    2.48000002
   19.77833366   -1.00000000    1.00000000    2.48000002
   19.78166580   -1.00000000    1.03999996    2.46000004
   19.78472137   -1.00000000    1.01999998    2.46000004
   19.79500008   -1.00000000    1.01999998    2.46000004
   19.79833221   -1.00000000    1.03999996    2.46000004
   19.80166626   -1.00000000    1.05999994    2.46000004
   19.80499840   -1.00000000    1.09000003    2.46000004
   19.80805397   -1.00000000    1.09000003    2.46000004
   19.81138802   -1.00000000    1.07000005    2.46000004
   19.81472206   -1.00000000    1.03999996    2.46000004
   19.81777954   -1.00000000    1.03999996    2.46000004
   19.82111168   -1.00000000    1.00000000    2.44000006
   19.82444572   -1.00000000    1.01999998    2.44000006
   19.82750130   -1.00000000    1.14999998    2.46000004
   19.83777809   -1.00000000    1.39999998    2.44000006
   19.84111214   -1.00000000    1.60000002    2.44000006
   19.84444427   -1.00000000    1.58000004    2.44000006
   19.84749985   -1.00000000    1.61000001    2.44000006
   19.85083389   -1.00000000    1.66999996    2.44000006
   19.85416794   -1.00000000    1.73000002    2.44000006
   19.85722351   -1.00000000    1.73000002    2.44000006
   19.86055565   -1.00000000    1.78999996    2.42000008
   19.86361122   -1.00000000    1.71000004    2.42000008
   19.89111137   -1.00000000    1.76999998    2.42000008
   19.89416695   -1.00000000    1.76999998    2.42000008
   19.89749908   -1.00000000    1.85000002    2.44000006
   19.90111160   -1.00000000    1.96000004    2.42000008
   19.90444374   -1.00000000    2.05999994    2.42000008
   19.90749931   -1.00000000    2.11999989    2.42000008
   19.91083336   -1.00000000    2.13000011    2.42000008
   19.91416550   -1.00000000    2.07999992    2.42000008
   19.91722107   -1.00000000    2.05999994    2.42000008
   19.92055511   -1.00000000    2.05999994    2.42000008
   19.92388916   -1.00000000    2.01999998    2.42000008
   19.93416595   -1.00000000    1.94000006    2.42000008
   19.93722153   -1.00000000    1.91999996    2.42000008
   19.94055557   -1.00000000    1.91999996    2.40000010
   19.94388771   -1.00000000    2.07999992    2.40000010
   19.94694328   -1.00000000    2.15000010    2.42000008
   19.95027924   -1.00000000    2.25000000    2.40000010
   19.95333481   -1.00000000    2.28999996    2.40000010
   19.95666695   -1.00000000    2.34999990    2.40000010
   19.96000099   -1.00000000    2.40000010    2.40000010
   19.96305656   -1.00000000    2.50000000    2.40000010
   19.96666718   -1.00000000    2.59999990    2.40000010
   19.97666740   -1.00000000    2.71000004    2.40000010
   19.97972298   -1.00000000    2.73000002    2.40000010
   19.98305511   -1.00000000    2.71000004    2.40000010
   19.98638916   -1.00000000    2.69000006    2.40000010
   19.98944473   -1.00000000    2.71000004    2.40000010
   19.99277878   -1.00000000    2.76999998    2.40000010
   19.99611092   -1.00000000    2.82999992    2.40000010
   19.99916649   -1.00000000    2.80999994    2.40000010
   20.00250053   -1.00000000    2.82999992    2.40000010
   20.00583267   -1.00000000    2.78999996    2.39000010
   20.00916672   -1.00000000    2.71000004    2.40000010
   20.01944351   -1.00000000    2.67000008    2.39000010
   20.02277756   -1.00000000    2.66000009    2.39000010
   20.02583313   -1.00000000    2.66000009    2.40000010
   20.02916718   -1.00000000    2.64000010    2.40000010
   20.03249931   -1.00000000    2.57999992    2.39000010
   20.03583336   -1.00000000    2.53999996    2.40000010
   20.03916550   -1.00000000    2.48000002    2.40000010
   20.04249954   -1.00000000    2.42000008    2.39000010
   20.04555511   -1.00000000    2.34999990    2.39000010
   20.04888916   -1.00000000    2.26999998    2.39000010
   20.05222130   -1.00000000    2.19000006    2.39000010
   20.06222153   -1.00000000    2.01999998    2.39000010
   20.06555557   -1.00000000    2.00000000    2.39000010
   20.06888962   -1.00000000    2.00000000    2.39000010
   20.07222366   -1.00000000    2.03999996    2.39000010
   20.07555580   -1.00000000    2.05999994    2.39000010
   20.07861137   -1.00000000    2.07999992    2.39000010
   20.08194542   -1.00000000    2.11999989    2.39000010
   20.08527756   -1.00000000    2.17000008    2.39000010
   20.08833313   -1.00000000    2.21000004    2.39000010
   20.09166718   -1.00000000    2.25000000    2.36999989
   20.09472275   -1.00000000    2.28999996    2.39000010
   20.10527802   -1.00000000    2.32999992    2.36999989
   20.10833359   -1.00000000    2.34999990    2.36999989
   20.11166763   -1.00000000    2.34999990    2.36999989
   20.11472321   -1.00000000    2.34999990    2.39000010
   20.11805534   -1.00000000    2.34999990    2.39000010
   20.12138939   -1.00000000    2.32999992    2.36999989
   20.12444496   -1.00000000    2.30999994    2.36999989
   20.12777710   -1.00000000    2.28999996    2.36999989
   20.13111115   -1.00000000    2.25000000    2.36999989
   20.13444519   -1.00000000    2.23000002    2.36999989
   20.13777733   -1.00000000    2.21000004    2.36999989
   20.14805603   -1.00000000    2.28999996    2.39000010
   20.15111160   -1.00000000    2.34999990    2.36999989
   20.15444374   -1.00000000    2.39000010    2.36999989
   20.15777779   -1.00000000    2.51999998    2.36999989
   20.16083336   -1.00000000    2.66000009    2.36999989
   20.16416550   -1.00000000    2.84999990    2.36999989
   20.16749954   -1.00000000    3.09999990    2.36999989
   20.17083359   -1.00000000    3.36999989    2.36999989
   20.17416573   -1.00000000    3.76999998    2.36999989
   20.17722130   -1.00000000    4.05999994    2.34999990
   20.18055534   -1.00000000    4.36999989    2.36999989
   20.19083214   -1.00000000    4.90999985    2.36999989
   20.19416618   -1.00000000    4.90999985    2.34999990
   20.19722176   -1.00000000    4.90999985    2.34999990
   20.20083427   -1.00000000    4.90999985    2.34999990
   20.20416832   -1.00000000    4.90999985    2.34999990
   20.20750046   -1.00000000    4.90999985    2.34999990
   20.21055603   -1.00000000    4.90999985    2.34999990
   20.21389008   -1.00000000    4.90999985    2.34999990
   20.21722221   -1.00000000    4.90999985    2.34999990
   20.22027779   -1.00000000    4.90999985    2.34999990
   20.22361183   -1.00000000    4.90999985    2.34999990
   20.23361206   -1.00000000    4.90999985    2.32999992
   20.23694420   -1.00000000    4.90999985    2.32999992
   20.24027824   -1.00000000    4.90999985    2.32999992
   20.24333382   -1.00000000    4.90999985    2.32999992
   20.24666786   -1.00000000    4.90999985    2.32999992
   20.24972153   -1.00000000    4.90999985    2.32999992
   20.25305557   -1.00000000    4.90999985    2.32999992
   20.25638962   -1.00000000    4.90999985    2.32999992
   20.25944519   -1.00000000    4.90999985    2.30999994
   20.26277733   -1.00000000    4.90999985    2.30999994
   20.26611137   -1.00000000    4.90999985    2.30999994
   20.27666664   -1.00000000    4.90999985    2.28999996
   20.27972221   -1.00000000    4.90999985    2.28999996
   20.28305435   -1.00000000    4.90999985    2.28999996
   20.28610992   -1.00000000    4.90999985    2.30999994
   20.28944397   -1.00000000    4.90999985    2.30999994
   20.29277802   -1.00000000    4.90999985    2.30999994
   20.29583359   -1.00000000    4.90999985    2.32999992
   20.29916573   -1.00000000    4.90999985    2.32999992
   20.30277634   -1.00000000    4.90999985    2.32999992
   20.30611038   -1.00000000    4.90999985    2.32999992
   20.30916595   -1.00000000    4.90999985    2.30999994
   20.31944466   -1.00000000    4.90999985    2.28999996
   20.32250023   -1.00000000    4.90999985    2.28999996
   20.32583427   -1.00000000    4.90999985    2.26999998
   20.32916832   -1.00000000    4.90999985    2.26999998
   20.33222389   -1.00000000    4.90999985    2.26999998
   20.33583450   -1.00000000    4.90999985    2.25000000
   20.33916664   -1.00000000    4.90999985    2.25000000
   20.34222221   -1.00000000    4.90999985    2.25000000
   20.34555626   -1.00000000    4.90999985    2.23000002
   20.34861183   -1.00000000    4.90999985    2.23000002
   20.35194397   -1.00000000    4.90999985    2.21000004
   20.36222267   -1.00000000    4.90999985    2.15000010
   20.36555672   -1.00000000    4.90999985    2.13000011
   20.36888885   -1.00000000    4.90999985    2.11999989
   20.37222290   -1.00000000    4.90999985    2.09999990
   20.37527847   -1.00000000    4.90999985    2.07999992
   20.37861061   -1.00000000    4.90999985    2.05999994
   20.38166618   -1.00000000    4.90999985    2.03999996
   20.38500023   -1.00000000    4.90999985    2.00000000
   20.38833237   -1.00000000    4.90999985    1.91999996
   20.39138794   -1.00000000    4.90999985    1.85000002
   20.39472198   -1.00000000    4.90999985    1.73000002
   20.40499878   -1.00000000    4.90999985    1.23000002
   20.40833282   -1.00000000    4.90999985    1.05999994
   20.41166687   -1.00000000    4.90999985    0.86000001
   20.41472244   -1.00000000    4.90999985    0.69000000
   20.41805458   -1.00000000    4.90999985    0.52999997
   20.42111015   -1.00000000    4.90999985    0.40000001
   20.42444420   -1.00000000    4.90999985    0.28000000
   20.42777634   -1.00000000    4.90999985    0.20999999
   20.43083191   -1.00000000    4.90999985    0.15000001
   20.43444443   -1.00000000    4.90999985    0.13000000
   20.43777657   -1.00000000    4.90999985    0.11000000
   20.44777679   -1.00000000    4.90999985    0.09000000
   20.45111275   -1.00000000    4.90999985    0.09000000
   20.45444489   -1.00000000    4.90999985    0.09000000
   20.45750046   -1.00000000    4.90999985    0.09000000
   20.46083450   -1.00000000    4.90999985    0.09000000
   20.46416664   -1.00000000    4.90999985    0.09000000
   20.46750069   -1.00000000    4.90999985    0.09000000
   20.47083473   -1.00000000    4.90999985    0.09000000
   20.47389030   -1.00000000    4.90999985    0.09000000
   20.47722244   -1.00000000    4.90999985    0.09000000
   20.48055649   -1.00000000    4.90999985    0.11000000
   20.49083328   -1.00000000    4.90999985    0.11000000
   20.49388885   -1.00000000    4.90999985    0.11000000
   20.49722290   -1.00000000    4.90999985    0.11000000
   20.50083351   -1.00000000    4.90999985    0.11000000
   20.50416756   -1.00000000    4.90999985    0.11000000
   20.50722313   -1.00000000    4.90999985    0.13000000
   20.51055527   -1.00000000    4.90999985    0.13000000
   20.51388931   -1.00000000    4.90999985    0.15000001
   20.51694489   -1.00000000    4.90999985    0.15000001
   20.52027702   -1.00000000    4.90999985    0.15000001
   20.52333260   -1.00000000    4.90999985    0.17000000
   20.53361130   -1.00000000    4.90999985    0.17000000
   20.53694344   -1.00000000    4.90999985    0.17000000
   20.53999901   -1.00000000    4.90999985    0.17000000
   20.54333305   -1.00000000    4.90999985    0.19000000
   20.54638863   -1.00000000    4.90999985    0.19000000
   20.54972076   -1.00000000    4.90999985    0.20999999
   20.55305481   -1.00000000    4.90999985    0.20999999
   20.55611038   -1.00000000    4.90999985    0.20999999
   20.55944443   -1.00000000    4.90999985    0.23000000
   20.56277657   -1.00000000    4.90999985    0.23000000
   20.56583214   -1.00000000    4.90999985    0.25000000
   20.57638931   -1.00000000    4.90999985    0.31999999
   20.57972336   -1.00000000    4.90999985    0.36000001
   20.58277893   -1.00000000    4.90999985    0.38000000
   20.58611107   -1.00000000    4.90999985    0.46000001
   20.58944511   -1.00000000    4.90999985    0.56999999
   20.59250069   -1.00000000    4.90999985    0.70999998
   20.59583473   -1.00000000    4.90999985    0.81999999
   20.59916687   -1.00000000    4.90999985    0.95999998
   20.60250092   -1.00000000    4.90999985    1.13000000
   20.60583305   -1.00000000    4.90999985    1.36000001
   20.60888863   -1.00000000    4.90999985    1.50000000
   20.61916733   -1.00000000    4.90999985    1.83000004
   20.62249947   -1.00000000    4.90999985    1.96000004
   20.62583351   -1.00000000    4.90999985    2.01999998
   20.62888908   -1.00000000    4.90999985    2.09999990
   20.63222313   -1.00000000    4.90999985    2.13000011
   20.63583374   -1.00000000    4.90999985    2.17000008
   20.63916588   -1.00000000    4.90999985    2.19000006
   20.64222145   -1.00000000    4.90999985    2.17000008
   20.64555550   -1.00000000    4.90999985    2.17000008
   20.64888954   -1.00000000    4.90999985    2.17000008
   20.65194321   -1.00000000    4.90999985    2.13000011
   20.66222191   -1.00000000    4.90999985    1.83000004
