    HOUR (UT)   FLARE FACTOR    SKY TESTER    SUN TESTER
   11.24138927   -1.00000000   -1.00000000   -1.00000000
   11.26166630  350.13500977    1.66999996    1.51999998
   11.26666641  329.50900269    1.66999996    1.51999998
   11.27027798  329.29400635    1.69000006    1.51999998
   11.27361107  320.86700439    1.69000006    1.51999998
   11.27694416  333.32000732    1.69000006    1.51999998
   11.27999973  329.80099487    1.71000004    1.53999996
   11.28333378  349.15701294    1.71000004    1.53999996
   11.28638935  302.50698853    1.73000002    1.55999994
   11.29000092  320.12100220    1.73000002    1.55999994
   11.29305553  320.04098511    1.71000004    1.53999996
   11.29472256  348.48400879    1.73000002    1.58000004
   11.29666710  309.25799561    1.73000002    1.58000004
   11.30000019  310.15200806    1.73000002    1.58000004
   11.30305576  314.85198975    1.73000002    1.58000004
   11.30638885  293.91500854    1.75000000    1.58000004
   11.30972195  305.60101318    1.73000002    1.60000002
   11.31277752  298.08898926    1.75000000    1.60000002
   11.31611156  312.01998901    1.73000002    1.60000002
   11.31916618  316.76199341    1.73000002    1.61000001
   11.32250023  273.83898926    1.73000002    1.61000001
   11.32583332  304.53799438    1.73000002    1.60000002
   11.32805538  308.83499146    1.73000002    1.61000001
   11.32944393  303.75201416    1.73000002    1.61000001
   11.33277798  309.26998901    1.73000002    1.61000001
   11.33583260  320.30300903    1.73000002    1.61000001
   11.33916664  307.37200928    1.71000004    1.61000001
   11.34249973  308.60598755    1.71000004    1.61000001
   11.34555531  315.38598633    1.71000004    1.63000000
   11.34888840  304.79699707    1.71000004    1.63000000
   11.35222244  307.90701294    1.71000004    1.63000000
   11.35527802  279.76400757    1.71000004    1.63000000
   11.35861111  274.31500244    1.69000006    1.63000000
   11.36138916  293.41598511    1.69000006    1.66999996
   11.36222267  282.82400513    1.69000006    1.66999996
   11.36527824  291.82998657    1.69000006    1.64999998
   11.36861134  267.45800781    1.69000006    1.64999998
   11.37194443  281.88299561    1.69000006    1.69000006
   11.37500000  256.00500488    1.69000006    1.69000006
   11.37833309  275.78900146    1.69000006    1.69000006
   11.38166714  292.79098511    1.69000006    1.69000006
   11.38472176  292.14401245    1.69000006    1.69000006
   11.38805580  274.37899780    1.69000006    1.71000004
   11.39138889  265.02999878    1.66999996    1.71000004
   11.39444447  254.90800476    1.64999998    1.71000004
   11.39499950  265.09100342    1.64999998    1.71000004
   11.39833355  276.13598633    1.64999998    1.71000004
   11.40138817  271.22299194    1.64999998    1.71000004
   11.40472221  285.43600464    1.64999998    1.71000004
   11.40777779  278.01098633    1.63000000    1.71000004
   11.41111088  247.95899963    1.63000000    1.71000004
   11.41444397  248.79200745    1.63000000    1.71000004
   11.41750050  261.97500610    1.63000000    1.73000002
   11.42083359  248.07800293    1.61000001    1.75000000
   11.42416668  265.40301514    1.61000001    1.73000002
   11.42722225  273.53698730    1.60000002    1.75000000
   11.42833328  272.53698730    1.60000002    1.75000000
   11.43111134  259.64199829    1.60000002    1.75000000
   11.43416691  259.03601074    1.60000002    1.75000000
   11.43750000  262.55999756    1.60000002    1.76999998
   11.44083309  233.01100159    1.61000001    1.76999998
   11.44388866  270.69500732    1.61000001    1.76999998
   11.44722271  243.89900208    1.60000002    1.76999998
   11.45027733  240.97799683    1.60000002    1.76999998
   11.45361137  264.76501465    1.60000002    1.78999996
   11.45694447  259.03100586    1.60000002    1.78999996
   11.46000004  260.00799561    1.60000002    1.78999996
   11.46166611  248.49899292    1.60000002    1.78999996
   11.46388912  246.11199951    1.61000001    1.78999996
   11.46694374  231.81599426    1.66999996    1.80999994
   11.47027779  246.06399536    1.66999996    1.80999994
   11.47333336  243.43499756    1.91999996    1.80999994
   11.47666645  254.81399536    2.05999994    1.80999994
   11.47999954  254.46200562    2.07999992    1.80999994
   11.48305511  253.87600708    2.07999992    1.83000004
   11.48638916  238.35899353    2.07999992    1.83000004
   11.48972225  211.37500000    2.07999992    1.83000004
   11.49277782  227.22200012    2.03999996    1.85000002
   11.49499989  244.84100342    2.03999996    1.85000002
   11.49666691  234.95100403    2.01999998    1.85000002
   11.49972248  244.66700745    2.01999998    1.85000002
   11.50305557  237.00500488    2.05999994    1.86000001
   11.50638866  217.19000244    2.09999990    1.85000002
   11.50944424  285.34698486    2.15000010    1.78999996
   11.51277733  318.68301392    2.23000002    1.73000002
   11.51583290  241.22599792    2.28999996    1.75000000
   11.51916599  264.47799683    2.30999994    1.78999996
   11.52250004  231.77200317    2.34999990    1.85000002
   11.52555561  218.64900208    2.39000010    1.88000000
   11.52833271  210.83999634    2.39000010    1.88000000
   11.52944374  218.34100342    2.40000010    1.86000001
   11.53249931  224.24499512    2.40000010    1.88000000
   11.53583336  232.03599548    2.40000010    1.88000000
   11.53888893  218.53599548    2.39000010    1.89999998
   11.54222298  227.32699585    2.34999990    1.88000000
   11.54555607  222.82499695    2.28999996    1.89999998
   11.54861164  229.79600525    2.19000006    1.89999998
   11.55194473  226.34599304    2.09999990    1.89999998
   11.55527782  235.49800110    2.01999998    1.89999998
   11.55833340  226.05999756    1.88000000    1.89999998
   11.56166649  225.54499817    1.85000002    1.89999998
   11.56222248  214.88200378    1.85000002    1.89999998
   11.56527805  234.53599548    1.73000002    1.89999998
   11.56861115  210.72599792    1.64999998    1.89999998
   11.57166672  216.08700562    1.55999994    1.91999996
   11.57499981  203.19200134    1.50000000    1.91999996
   11.57833290  218.26400757    1.46000004    1.91999996
   11.58138847  218.94900513    1.44000006    1.91999996
   11.58472157  227.83999634    1.44000006    1.91999996
   11.58805561  218.68200684    1.44000006    1.91999996
   11.59111118  221.12399292    1.44000006    1.91999996
   11.59444427  212.74600220    1.41999996    1.91999996
   11.59499931  198.94500732    1.41999996    1.91999996
   11.59805489  203.63000488    1.41999996    1.94000006
   11.60111141  232.44700623    1.41999996    1.91999996
   11.60444450  204.48599243    1.39999998    1.94000006
   11.60750008  223.55400085    1.38000000    1.96000004
   11.61083412  216.77699280    1.38000000    1.96000004
   11.61416721  219.13499451    1.38000000    1.96000004
   11.61722279  216.11300659    1.38000000    1.94000006
   11.62055588  226.76800537    1.38000000    1.94000006
   11.62388897  201.68099976    1.38000000    1.96000004
   11.62694454  219.52499390    1.38000000    1.96000004
   11.62833309  219.00599670    1.38000000    1.96000004
   11.63083363  207.53799438    1.36000001    1.96000004
   11.63388920  215.27699280    1.36000001    1.96000004
   11.63722229  216.94700623    1.36000001    1.96000004
   11.64027786  200.68699646    1.36000001    1.96000004
   11.64361095  213.38900757    1.36000001    1.96000004
   11.64694405  204.74000549    1.34000003    1.98000002
   11.64999962  222.79899597    1.34000003    1.98000002
   11.65333271  211.58200073    1.34000003    1.98000002
   11.65666676  208.06900024    1.34000003    1.98000002
   11.65972137  225.59399414    1.34000003    1.98000002
   11.66166592  213.15400696    1.34000003    1.98000002
   11.66361046  215.22999573    1.34000003    1.98000002
   11.66666698  210.67100525    1.34000003    1.98000002
   11.67000008  218.82299805    1.33000004    2.00000000
   11.67305565  200.65499878    1.33000004    2.00000000
   11.67638874  232.40800476    1.33000004    2.00000000
   11.67972279  226.60899353    1.30999994    2.01999998
   11.68277836  200.42700195    1.30999994    2.01999998
   11.68611145  211.72099304    1.30999994    2.01999998
   11.68944454  207.47900391    1.30999994    2.01999998
   11.69250011  204.15100098    1.30999994    2.01999998
   11.69527817  219.90199280    1.30999994    2.01999998
   11.69638920  213.79499817    1.30999994    2.01999998
   11.69972229  213.67100525    1.28999996    2.01999998
   11.70277786  219.02499390    1.28999996    2.01999998
   11.70611095  201.49899292    1.28999996    2.01999998
   11.70944405  195.36799622    1.28999996    2.03999996
   11.71249962  197.48399353    1.28999996    2.03999996
   11.71583271  192.77499390    1.30999994    2.03999996
   11.71916580  200.55999756    1.30999994    2.03999996
   11.72222137  216.47300720    1.28999996    2.03999996
   11.72555542  209.03599548    1.28999996    2.03999996
   11.72833252  197.18499756    1.28999996    2.03999996
   11.72916603  219.94700623    1.28999996    2.03999996
   11.73222160  198.85299683    1.28999996    2.03999996
   11.73555565  202.82299805    1.28999996    2.03999996
   11.73888874  202.06199646    1.26999998    2.05999994
   11.74194431  205.66600037    1.26999998    2.05999994
   11.74527836  234.04299927    1.28999996    2.05999994
   11.74833393  201.63499451    1.26999998    2.05999994
   11.75166702  219.29899597    1.26999998    2.05999994
   11.75500011  211.32800293    1.26999998    2.05999994
   11.75805569  210.11300659    1.26999998    2.07999992
   11.76138878  208.38000488    1.25000000    2.07999992
   11.76194477  211.57800293    1.25000000    2.07999992
   11.76500034  215.35800171    1.25000000    2.05999994
   11.76833344  215.98199463    1.25000000    2.05999994
   11.77166653  195.74600220    1.25000000    2.05999994
   11.77472210  211.26499939    1.25000000    2.07999992
   11.77805519  207.73199463    1.25000000    2.07999992
   11.78138828  204.52200317    1.25000000    2.09999990
   11.78472233  213.33900452    1.23000002    2.09999990
   11.78777790  200.75399780    1.23000002    2.09999990
   11.79111195  203.30599976    1.23000002    2.09999990
   11.79444504  209.47599792    1.23000002    2.07999992
   11.79527855  206.76300049    1.23000002    2.07999992
   11.79777813  213.44200134    1.23000002    2.09999990
   11.80111122  217.56799316    1.23000002    2.09999990
   11.80444431  208.94900513    1.23000002    2.09999990
   11.80749989  230.79699707    1.23000002    2.09999990
   11.81083393  213.47099304    1.21000004    2.09999990
   11.81388950  222.83999634    1.21000004    2.09999990
   11.81722260  230.66200256    1.21000004    2.09999990
   11.82055569  231.02099609    1.21000004    2.11999989
   11.82361126  221.29299927    1.21000004    2.11999989
   11.82694435  230.22700500    1.21000004    2.11999989
   11.82861137  231.26199341    1.21000004    2.11999989
   11.83055592  239.58500671    1.21000004    2.11999989
   11.83388901  206.04800415    1.21000004    2.11999989
   11.83722210  214.80499268    1.19000006    2.11999989
   11.84027767  218.30099487    1.19000006    2.11999989
   11.84361076  227.69599915    1.19000006    2.11999989
   11.84694386  218.45500183    1.19000006    2.13000011
   11.85000038  245.29299927    1.19000006    2.13000011
   11.85333347  236.11700439    1.19000006    2.13000011
   11.85666752  210.27900696    1.16999996    2.13000011
   11.85972214  211.17300415    1.19000006    2.13000011
   11.86194515  227.79899597    1.19000006    2.13000011
   11.86333370  229.85299683    1.19000006    2.13000011
   11.86666679  242.14900208    1.19000006    2.13000011
   11.86999989  249.06100464    1.16999996    2.13000011
   11.87305546  223.32299805    1.16999996    2.13000011
   11.87638855  265.01098633    1.16999996    2.15000010
   11.87972260  265.86700439    1.16999996    2.13000011
   11.88277817  250.15100098    1.16999996    2.13000011
   11.88611126  270.46200562    1.16999996    2.13000011
   11.88916683  225.46600342    1.16999996    2.13000011
   11.89249992  237.14999390    1.16999996    2.13000011
   11.89527798  233.60800171    1.16999996    2.15000010
   11.89611053  247.30799866    1.16999996    2.15000010
   11.89944458  241.86399841    1.14999998    2.15000010
   11.90277767  233.42100525    1.16999996    2.15000010
   11.90583324  228.64399719    1.14999998    2.15000010
   11.90916634  226.22900391    1.14999998    2.17000008
   11.91249943  246.00799561    1.14999998    2.17000008
   11.91555500  231.53399658    1.14999998    2.15000010
   11.91888905  230.53900146    1.14999998    2.15000010
   11.92194462  216.39900208    1.14999998    2.17000008
   11.92527771  211.95199585    1.13000000    2.17000008
   11.92861176  208.67999268    1.13000000    2.17000008
   11.92916679  216.37100220    1.13000000    2.17000008
   11.93222237  225.73300171    1.14999998    2.17000008
   11.93555546  230.99800110    1.14999998    2.17000008
   11.93861103  226.74499512    1.13000000    2.17000008
   11.94194412  240.20199585    1.14999998    2.17000008
   11.94527817  230.77099609    1.14999998    2.19000006
   11.94833374  228.25000000    1.14999998    2.17000008
   11.95166683  222.74699402    1.14999998    2.17000008
   11.95472240  257.01000977    1.13000000    2.17000008
   11.95805550  246.14599609    1.13000000    2.17000008
   11.96138859  229.20700073    1.13000000    2.19000006
   11.96194458  222.00000000    1.13000000    2.19000006
   11.96472168  219.35499573    1.13000000    2.19000006
   11.96805477  204.33500671    1.13000000    2.19000006
   11.97138882  229.14300537    1.11000001    2.19000006
   11.97444439  235.44000244    1.11000001    2.19000006
   11.97777748  242.11300659    1.13000000    2.19000006
   11.98111057  216.51699829    1.11000001    2.19000006
   11.98416710  222.82800293    1.11000001    2.19000006
   11.98750019  238.63299561    1.11000001    2.19000006
   11.99055576  227.23100281    1.11000001    2.19000006
   11.99388885  228.39599609    1.11000001    2.21000004
   11.99527836  192.83700562    1.11000001    2.21000004
   11.99777794  213.37699890    1.11000001    2.19000006
   12.00083351  219.13000488    1.11000001    2.21000004
   12.00416660  222.78700256    1.11000001    2.21000004
   12.00722218  215.17799377    1.11000001    2.21000004
   12.01055527  227.41499329    1.09000003    2.21000004
   12.01388931  231.40800476    1.09000003    2.21000004
   12.01722240  214.63499451    1.09000003    2.21000004
   12.02027798  221.22200012    1.09000003    2.23000002
   12.02361107  208.05799866    1.09000003    2.23000002
   12.02666664  217.03199768    1.09000003    2.23000002
   12.02861118  209.63900757    1.09000003    2.23000002
   12.03055573  217.69900513    1.09000003    2.23000002
   12.03361130  208.01100159    1.09000003    2.23000002
   12.03694534  223.98699951    1.09000003    2.23000002
   12.04027843  222.25999451    1.09000003    2.23000002
   12.04333401  225.23599243    1.09000003    2.23000002
   12.04666710  205.02499390    1.09000003    2.23000002
   12.05000019  202.13600159    1.09000003    2.23000002
   12.05333328  210.69099426    1.09000003    2.23000002
   12.05638885  214.26199341    1.09000003    2.23000002
   12.05972195  204.81500244    1.09000003    2.23000002
   12.06194496  206.35200500    1.07000005    2.25000000
   12.06333351  211.23500061    1.07000005    2.25000000
   12.06638908  198.87500000    1.09000003    2.25000000
   12.06972218  195.86300659    1.07000005    2.23000002
   12.07305527  212.98300171    1.07000005    2.23000002
   12.07638836  181.36099243    1.07000005    2.23000002
   12.07944393  205.11399841    1.07000005    2.25000000
   12.08277798  202.34300232    1.07000005    2.25000000
   12.08611107  190.90299988    1.07000005    2.23000002
   12.08916664  203.96099854    1.05999994    2.25000000
   12.09249973  188.08399963    1.05999994    2.25000000
   12.09555531  183.19500732    1.05999994    2.25000000
   12.09611034  191.21200562    1.05999994    2.25000000
   12.09944439  204.16700745    1.05999994    2.25000000
   12.10249996  189.36900330    1.05999994    2.25000000
   12.10583401  198.59899902    1.05999994    2.25000000
   12.10916710  206.19400024    1.05999994    2.25000000
   12.11222267  199.75300598    1.05999994    2.25000000
   12.11555576  198.34500122    1.05999994    2.25000000
   12.11861134  190.25399780    1.05999994    2.26999998
   12.12194443  204.64700317    1.05999994    2.26999998
   12.12527752  202.61300659    1.05999994    2.26999998
   12.12833309  202.34500122    1.03999996    2.26999998
   12.12888908  192.90800476    1.03999996    2.26999998
   12.13222218  188.27099609    1.03999996    2.26999998
   12.13527775  191.16099548    1.03999996    2.26999998
   12.13861084  185.31599426    1.03999996    2.26999998
   12.14194393  196.96299744    1.03999996    2.26999998
   12.14499950  185.98100281    1.03999996    2.28999996
   12.14833355  174.14900208    1.03999996    2.28999996
   12.15138817  169.49200439    1.03999996    2.28999996
   12.15472221  168.47900391    1.03999996    2.28999996
   12.15805531  169.91000366    1.03999996    2.28999996
   12.16111088  178.38699341    1.03999996    2.28999996
   12.16222191  176.62500000    1.03999996    2.28999996
   12.16472149  177.52299500    1.03999996    2.28999996
   12.16777802  186.57499695    1.03999996    2.26999998
   12.17111111  187.19500732    1.03999996    2.28999996
   12.17444515  160.26699829    1.03999996    2.28999996
   12.17750072  174.80799866    1.03999996    2.28999996
   12.18083382  172.85899353    1.03999996    2.28999996
   12.18388939  184.69000244    1.03999996    2.28999996
   12.18722248  175.08299255    1.03999996    2.28999996
   12.19055557  181.99899292    1.03999996    2.30999994
   12.19361115  173.25700378    1.03999996    2.30999994
   12.19555569  157.06599426    1.03999996    2.30999994
   12.19750023  173.01600647    1.01999998    2.30999994
   12.20055580  178.87800598    1.01999998    2.30999994
   12.20388889  168.17700195    1.01999998    2.30999994
   12.20722198  177.99000549    1.03999996    2.30999994
   12.21027756  182.27000427    1.01999998    2.30999994
   12.21361065  162.44500732    1.01999998    2.30999994
   12.21666622  173.40299988    1.01999998    2.30999994
   12.21999931  177.27799988    1.01999998    2.30999994
   12.22333336  177.69799805    1.01999998    2.30999994
   12.22638798  173.18200684    1.01999998    2.28999996
   12.22888851  179.66499329    1.01999998    2.30999994
   12.23027706  173.86599731    1.01999998    2.30999994
   12.23333359  178.70899963    1.01999998    2.30999994
   12.23666668  179.00199890    1.01999998    2.30999994
   12.24000072  188.37800598    1.01999998    2.30999994
   12.24305534  182.52600098    1.01999998    2.30999994
   12.24666691  179.50599670    1.00000000    2.30999994
   12.24972248  181.33299255    1.00000000    2.32999992
   12.25305557  176.09800720    1.00000000    2.32999992
   12.25611115  174.40800476    1.01999998    2.30999994
   12.25944424  173.96200562    1.00000000    2.32999992
   12.27805519  164.51899719    1.00000000    2.32999992
   12.27916622  160.32400513    1.00000000    2.32999992
   12.28249931  161.62600708    1.00000000    2.32999992
   12.28555584  161.58000183    1.00000000    2.32999992
   12.28888893  165.39900208    1.00000000    2.34999990
   12.29194450  167.79600525    1.00000000    2.34999990
   12.29527855  163.39900208    1.00000000    2.34999990
   12.29861164  177.90299988    1.00000000    2.32999992
   12.30166721  181.14900208    1.00000000    2.34999990
   12.30500031  172.92799377    1.00000000    2.34999990
   12.30833340  175.13099670    0.98000002    2.36999989
   12.31138897  164.21499634    0.98000002    2.34999990
   12.31194496  167.39999390    0.98000002    2.34999990
   12.31500053  178.11900330    1.00000000    2.36999989
   12.31833363  170.60600281    1.00000000    2.36999989
   12.32166672  175.38000488    0.98000002    2.34999990
   12.32472229  168.51400757    0.98000002    2.34999990
   12.32805538  171.07400513    0.98000002    2.34999990
   12.33111095  158.44900513    0.98000002    2.36999989
   12.33444405  164.37100220    0.98000002    2.36999989
   12.33777714  168.73899841    0.98000002    2.34999990
   12.34083271  172.80999756    1.00000000    2.34999990
   12.34416676  169.42799377    1.01999998    2.36999989
   12.34472179  165.52499390    1.01999998    2.36999989
   12.34777737  165.72000122    1.01999998    2.36999989
   12.35111141  163.57000732    1.03999996    2.36999989
   12.35416698  164.31799316    1.01999998    2.36999989
   12.35750008  168.53500366    1.01999998    2.36999989
   12.36055565  168.70199585    1.01999998    2.36999989
   12.36388969  169.70799255    1.01999998    2.36999989
   12.36722279  171.63699341    0.98000002    2.36999989
   12.37027836  159.51300049    0.98000002    2.36999989
   12.37361145  157.58299255    0.98000002    2.36999989
   12.37694454  167.36599731    0.98000002    2.39000010
   12.37805557  159.69599915    0.98000002    2.39000010
   12.38055611  164.60699463    0.98000002    2.39000010
   12.38361073  171.09700012    0.98000002    2.39000010
   12.38694477  171.16900635    0.98000002    2.39000010
   12.39000034  165.41700745    0.98000002    2.39000010
   12.39333344  171.42500305    0.98000002    2.36999989
   12.39666653  158.26199341    0.98000002    2.36999989
   12.39972210  171.27299500    0.98000002    2.36999989
   12.40305519  160.95700073    0.98000002    2.36999989
   12.40638828  170.94599915    0.98000002    2.39000010
   12.40944386  180.98699951    0.98000002    2.39000010
   12.41138840  162.91000366    0.98000002    2.39000010
   12.41333294  165.49299622    0.98000002    2.39000010
   12.41638851  170.49499512    0.98000002    2.39000010
   12.41972256  169.28100586    0.98000002    2.39000010
   12.42305565  168.90499878    0.98000002    2.39000010
   12.42611122  179.40499878    0.98000002    2.39000010
   12.42944431  173.26600647    0.98000002    2.39000010
   12.43249989  170.57699585    0.95999998    2.39000010
   12.43583298  162.63499451    0.95999998    2.40000010
   12.43916702  167.45500183    0.95999998    2.40000010
   12.44222260  164.17199707    0.95999998    2.39000010
   12.44472218  171.22500610    0.95999998    2.39000010
   12.44611073  166.95799255    0.95999998    2.39000010
   12.44916630  164.89500427    0.95999998    2.39000010
   12.45249939  168.38499451    0.95999998    2.39000010
   12.45583344  167.86000061    0.95999998    2.39000010
   12.45888901  164.60800171    0.95999998    2.39000010
   12.46222210  158.99299622    0.94000000    2.40000010
   12.46527767  157.12500000    0.94000000    2.39000010
   12.46861076  164.01800537    0.94000000    2.39000010
   12.47194386  159.43299866    0.94000000    2.40000010
   12.47499943  157.41600037    0.94000000    2.42000008
   12.47805500  164.77699280    0.94000000    2.40000010
   12.47888851  167.77400208    0.94000000    2.40000010
   12.48194408  167.52699280    0.94000000    2.40000010
   12.48527813  154.55200195    0.94000000    2.40000010
   12.48861122  166.16700745    0.94000000    2.40000010
   12.49166679  161.22900391    0.94000000    2.40000010
   12.49499989  160.16999817    0.94000000    2.40000010
   12.49805546  156.96200562    0.94000000    2.40000010
   12.50138855  151.97599792    0.94000000    2.40000010
   12.50472260  153.32299805    0.94000000    2.40000010
   12.50777817  160.89700317    0.94000000    2.40000010
   12.51111126  161.05799866    0.94000000    2.42000008
   12.51166630  159.46200562    0.94000000    2.42000008
   12.51444435  164.99600220    0.94000000    2.42000008
   12.51777744  160.78900146    0.94000000    2.40000010
   12.52111053  156.19000244    0.94000000    2.40000010
   12.52416611  159.65400696    0.94000000    2.40000010
   12.52750015  154.60499573    0.94000000    2.40000010
   12.53055573  160.04400635    0.94000000    2.40000010
   12.53388977  154.93299866    0.92000002    2.40000010
   12.53722286  164.87899780    0.92000002    2.42000008
   12.54027843  159.27099609    0.92000002    2.42000008
   12.54361153  159.81599426    0.92000002    2.42000008
   12.54500008  164.93699646    0.92000002    2.40000010
   12.54722309  167.95799255    0.92000002    2.40000010
   12.55055618  161.94299316    0.92000002    2.44000006
   12.55388927  164.91200256    0.92000002    2.42000008
   12.55694485  167.49400330    0.92000002    2.42000008
   12.56027794  156.25700378    0.92000002    2.40000010
   12.56333351  159.35000610    0.92000002    2.42000008
   12.56666660  162.92599487    0.92000002    2.42000008
   12.56999969  159.57400513    0.94000000    2.42000008
   12.57305527  166.82099915    0.92000002    2.44000006
   12.57638836  165.79299927    0.92000002    2.44000006
   12.57833290  159.97999573    0.92000002    2.44000006
   12.57999992  161.01699829    0.92000002    2.44000006
   12.58361053  153.88800049    0.92000002    2.42000008
   12.58666611  171.25199890    0.92000002    2.42000008
   12.59000015  172.46000671    0.92000002    2.44000006
   12.59305477  167.13299561    0.89999998    2.42000008
   12.59638882  163.02499390    0.89999998    2.42000008
   12.59972191  167.15899658    0.89999998    2.44000006
   12.60277843  162.13000488    0.89999998    2.42000008
   12.60611153  156.71600342    0.89999998    2.44000006
   12.60944462  166.21299744    0.89999998    2.44000006
   12.61166668  149.12300110    0.89999998    2.42000008
   12.61277771  166.74800110    0.89999998    2.42000008
   12.61611176  155.63499451    0.89999998    2.42000008
   12.61944485  164.17399597    0.89999998    2.42000008
   12.62250042  166.05900574    0.89999998    2.42000008
   12.62583351  173.08599854    0.89999998    2.44000006
   12.62888908  150.98699951    0.89999998    2.44000006
   12.63222218  157.52000427    0.89999998    2.44000006
   12.63555527  162.90800476    0.89999998    2.44000006
   12.63861084  155.83999634    0.89999998    2.44000006
   12.64194393  169.55799866    0.89999998    2.46000004
   12.64499950  184.62600708    0.89999998    2.46000004
   12.64555550  182.50599670    0.89999998    2.44000006
   12.64888859  175.32899475    0.89999998    2.44000006
   12.65222168  185.83799744    0.89999998    2.44000006
   12.65527725  170.39599609    0.89999998    2.46000004
   12.65861034  205.78399658    0.88000000    2.44000006
   12.66166592  187.03300476    0.88000000    2.44000006
   12.66499996  195.08999634    0.88000000    2.46000004
   12.66833401  198.67599487    0.88000000    2.46000004
   12.67138958  198.30099487    0.88000000    2.44000006
   12.67472267  242.73100281    0.89999998    2.46000004
   12.67805576  184.00700378    0.88000000    2.46000004
   12.67833328  239.92100525    0.88000000    2.46000004
   12.68166733  203.61199951    0.88000000    2.44000006
   12.68500042  187.67199707    0.88000000    2.44000006
   12.68805599  173.10299683    0.88000000    2.46000004
   12.69138908  201.24000549    0.88000000    2.46000004
   12.69472218  195.96000671    0.88000000    2.46000004
   12.69777775  204.14700317    0.88000000    2.46000004
   12.70111084  209.48899841    0.88000000    2.46000004
   12.70416641  196.34199524    0.88000000    2.46000004
   12.70749950  220.86300659    0.88000000    2.46000004
   12.71083355  213.08700562    0.88000000    2.46000004
   12.71166611  190.95199585    0.88000000    2.46000004
   12.71444416  217.48800659    0.88000000    2.46000004
   12.71777725  203.49600220    0.88000000    2.46000004
   12.72083282  208.41799927    0.88000000    2.48000002
   12.72416592  218.39399719    0.88000000    2.46000004
   12.72749996  236.66299438    0.88000000    2.46000004
   12.73055553  212.67700195    0.88000000    2.46000004
   12.73388958  209.80999756    0.88000000    2.46000004
   12.73694515  174.25999451    0.88000000    2.46000004
   12.74027824  205.57899475    0.86000001    2.48000002
   12.74361134  190.14700317    0.86000001    2.46000004
   12.74499989  177.50000000    0.88000000    2.46000004
   12.74722290  188.30900574    0.86000001    2.46000004
   12.75055599  183.25500488    0.88000000    2.46000004
   12.75361156  201.30299377    0.86000001    2.46000004
   12.75694466  200.46099854    0.88000000    2.46000004
   12.76027775  186.27299500    0.88000000    2.46000004
   12.76333332  182.13999939    0.86000001    2.48000002
   12.76666641  198.42700195    0.86000001    2.46000004
   12.76999950  190.41999817    0.86000001    2.46000004
   12.77305508  182.00000000    0.86000001    2.46000004
   12.77638817  177.29899597    0.86000001    2.46000004
   12.77833271  188.47900391    0.86000001    2.46000004
   12.77999973  196.84399414    0.86000001    2.46000004
   12.78333378  179.30400085    0.86000001    2.48000002
   12.78638935  184.91900635    0.86000001    2.48000002
   12.78972244  185.16799927    0.86000001    2.48000002
   12.79305553  181.99000549    0.86000001    2.46000004
   12.79611111  175.67300415    0.86000001    2.48000002
   12.79944515  173.32600403    0.86000001    2.48000002
   12.80249977  189.02900696    0.86000001    2.48000002
   12.80583382  168.93899536    0.86000001    2.48000002
   12.80916691  179.59100342    0.86000001    2.48000002
   12.81166649  166.17700195    0.86000001    2.48000002
   12.81277752  186.21000671    0.86000001    2.48000002
   12.81611156  190.30099487    0.86000001    2.48000002
   12.81916618  200.47200012    0.86000001    2.48000002
   12.82277775  198.01899719    0.86000001    2.48000002
   12.82583332  185.60000610    0.86000001    2.48000002
   12.82916641  167.02000427    0.86000001    2.48000002
   12.83222198  175.71299744    0.86000001    2.48000002
   12.83555508  193.30599976    0.86000001    2.48000002
   12.83888817  169.09800720    0.86000001    2.48000002
   12.84194374  180.77900696    0.86000001    2.48000002
   12.84499931  185.86000061    0.86000001    2.48000002
   12.84555531  187.64799500    0.86000001    2.48000002
   12.84888840  172.77400208    0.86000001    2.48000002
   12.85222244  175.61700439    0.86000001    2.48000002
   12.85527802  159.16000366    0.86000001    2.48000002
   12.85861111  178.40899658    0.86000001    2.48000002
   12.86166668  180.33799744    0.86000001    2.48000002
   12.86500072  188.09399414    0.86000001    2.48000002
   12.86833382  177.58799744    0.86000001    2.48000002
   12.87138939  192.35099792    0.86000001    2.48000002
   12.87472248  194.51800537    0.86000001    2.48000002
   12.87805557  165.42399597    0.83999997    2.48000002
   12.87861156  177.13600159    0.83999997    2.48000002
   12.88138866  184.68499756    0.86000001    2.48000002
   12.88472176  180.81700134    0.83999997    2.48000002
   12.88777733  191.86700439    0.83999997    2.48000002
   12.89111137  181.44900513    0.86000001    2.48000002
   12.89444447  204.82099915    0.83999997    2.48000002
   12.89750004  199.82699585    0.83999997    2.48000002
   12.90083313  198.58500671    0.83999997    2.48000002
   12.90416622  188.69900513    0.83999997    2.48000002
   12.90722179  186.82400513    0.83999997    2.48000002
   12.91055489  190.45500183    0.83999997    2.50000000
   12.91166592  183.88000488    0.83999997    2.50000000
   12.91416645  180.53199768    0.83999997    2.50000000
   12.91750050  190.26800537    0.83999997    2.50000000
   12.92055607  173.91600037    0.83999997    2.50000000
   12.92388916  187.55900574    0.81999999    2.48000002
   12.92722225  173.06399536    0.81999999    2.48000002
   12.93027782  195.97900391    0.81999999    2.50000000
   12.93361092  169.43400574    0.81999999    2.50000000
   12.93694496  176.22700500    0.81999999    2.50000000
   12.94000053  188.60200500    0.83999997    2.50000000
   12.94333363  173.28500366    0.81999999    2.50000000
   12.94499969  174.36599731    0.81999999    2.50000000
   12.94694424  176.46499634    0.81999999    2.50000000
   12.95027733  179.91400146    0.81999999    2.50000000
   12.95333290  168.13400269    0.83999997    2.50000000
   12.95666695  180.23300171    0.83999997    2.51999998
   12.96000004  167.18200684    0.81999999    2.51999998
   12.96305561  177.41799927    0.83999997    2.50000000
   12.96638870  176.36900330    0.83999997    2.51999998
   12.96972179  173.69599915    0.81999999    2.50000000
   12.97277737  171.92300415    0.81999999    2.50000000
   12.97611046  169.33399963    0.81999999    2.50000000
   12.97833252  172.69400024    0.81999999    2.50000000
   12.97972202  172.13600159    0.81999999    2.50000000
   12.98305511  175.34300232    0.81999999    2.51999998
   12.98611164  183.25199890    0.81999999    2.50000000
   12.98944473  160.07600403    0.81999999    2.50000000
   12.99277782  168.97599792    0.81999999    2.50000000
   12.99583340  185.46400452    0.81999999    2.50000000
   12.99916649  168.25199890    0.81999999    2.50000000
   13.00249958  158.28100586    0.83999997    2.50000000
   13.00555515  163.46299744    0.81999999    2.50000000
   13.00888920  162.41299438    0.83999997    2.50000000
   13.01194477  163.55000305    0.83999997    2.51999998
   13.01249981  157.73500061    0.83999997    2.51999998
   13.01583290  162.67900085    0.81999999    2.50000000
   13.01888847  149.46699524    0.81999999    2.50000000
   13.02222157  184.56300354    0.81999999    2.50000000
   13.02555561  164.26499939    0.81999999    2.51999998
   13.02861118  174.34399414    0.81999999    2.51999998
   13.03194427  173.91000366    0.81999999    2.51999998
   13.03527832  173.27699280    0.81999999    2.51999998
   13.03833389  167.69599915    0.81999999    2.51999998
   13.04166698  154.48599243    0.81999999    2.50000000
   13.04472256  161.83500671    0.81999999    2.53999996
   13.04527855  174.24800110    0.81999999    2.53999996
   13.04861164  173.55499268    0.81999999    2.51999998
   13.05166721  165.25599670    0.81999999    2.50000000
   13.05500031  155.98399353    0.81999999    2.51999998
   13.05833340  168.53799438    0.81999999    2.50000000
   13.06138897  179.56599426    0.81999999    2.51999998
   13.06472206  171.78700256    0.81999999    2.51999998
   13.06805515  174.02400208    0.80000001    2.50000000
   13.07111073  174.21400452    0.81999999    2.51999998
   13.07444477  173.86599731    0.81999999    2.51999998
   13.07750034  156.36599731    0.81999999    2.51999998
   13.07861137  178.08799744    0.81999999    2.51999998
   13.08138847  165.60099792    0.80000001    2.53999996
   13.08444405  156.71000671    0.80000001    2.51999998
   13.08777714  166.75599670    0.80000001    2.51999998
   13.09111118  172.98699951    0.80000001    2.51999998
   13.09416676  169.16499329    0.80000001    2.53999996
   13.09749985  161.41400146    0.80000001    2.53999996
   13.10083389  169.09899902    0.80000001    2.51999998
   13.10388947  157.26800537    0.80000001    2.51999998
   13.10722256  165.29400635    0.81999999    2.51999998
   13.11027813  166.65299988    0.81999999    2.51999998
   13.11194515  154.57899475    0.81999999    2.51999998
   13.11416721  147.00599670    0.81999999    2.51999998
   13.11750031  157.75399780    0.81999999    2.51999998
   13.12055588  164.64399719    0.80000001    2.51999998
   13.12388897  157.53399658    0.80000001    2.53999996
   13.12694454  157.43800354    0.80000001    2.51999998
   13.13027763  144.97099304    0.80000001    2.53999996
   13.13361073  165.19700623    0.80000001    2.51999998
   13.13666630  147.88999939    0.80000001    2.51999998
   13.14000034  155.48899841    0.80000001    2.51999998
   13.14333344  159.33700562    0.80000001    2.55999994
   13.14527798  155.42100525    0.80000001    2.53999996
   13.14694405  148.38299561    0.80000001    2.51999998
   13.15027714  151.78900146    0.80000001    2.53999996
   13.15333271  162.73899841    0.80000001    2.53999996
   13.15666676  164.15499878    0.80000001    2.53999996
   13.15972137  158.97799683    0.80000001    2.53999996
   13.16305542  140.92999268    0.80000001    2.53999996
   13.16638851  153.35499573    0.80000001    2.55999994
   13.16944504  144.38999939    0.80000001    2.53999996
   13.17277813  148.46400452    0.80000001    2.53999996
   13.17611122  153.01400757    0.80000001    2.53999996
   13.17861176  143.82800293    0.80000001    2.53999996
   13.17972279  145.00199890    0.80000001    2.55999994
   13.18305588  137.54100037    0.80000001    2.53999996
   13.18611145  140.48100281    0.80000001    2.53999996
   13.18944454  134.87800598    0.80000001    2.53999996
   13.19250011  140.39900208    0.80000001    2.53999996
   13.19583321  144.51899719    0.80000001    2.53999996
   13.19916630  145.06599426    0.80000001    2.53999996
   13.20222187  138.92900085    0.80000001    2.53999996
   13.20555496  148.45399475    0.79000002    2.53999996
   13.20888901  136.09500122    0.79000002    2.53999996
   13.21194458  148.25900269    0.79000002    2.55999994
   13.21249962  143.05099487    0.79000002    2.55999994
   13.21583271  145.54600525    0.79000002    2.53999996
   13.21888828  143.08200073    0.79000002    2.53999996
   13.22222137  147.08500671    0.79000002    2.53999996
   13.22527695  146.65800476    0.79000002    2.53999996
   13.22861099  145.22999573    0.79000002    2.55999994
   13.23194408  148.10299683    0.79000002    2.55999994
   13.23500061  144.97700500    0.79000002    2.55999994
   13.23861122  146.33700562    0.79000002    2.55999994
   13.34305477   -1.00000000   -1.00000000   -1.00000000
   13.44000053   -1.00000000   -1.00000000   -1.00000000
   13.54111195   -1.00000000   -1.00000000   -1.00000000
   13.57833290   98.53399658    0.73000002    2.57999992
   13.58166695  127.75099945    0.70999998    2.59999990
   13.58472157  135.92999268    0.73000002    2.59999990
   13.58805561  137.07299805    0.70999998    2.59999990
   13.59138870  138.33599854    0.70999998    2.59999990
   13.59444427  137.76899719    0.70999998    2.59999990
   13.59861088  137.76899719    0.70999998    2.59999990
   13.60277843  139.27699280    0.70999998    2.59999990
   13.60611153  137.07099915    0.70999998    2.59999990
   13.60916710  136.13800049    0.70999998    2.61999989
   13.61166668  136.70700073    0.70999998    2.59999990
   13.61305618  137.67799377    0.70999998    2.59999990
   13.61611176  131.95599365    0.70999998    2.59999990
   13.61944485  136.23100281    0.70999998    2.59999990
   13.62416649  130.51699829    0.70999998    2.59999990
   13.62722206  134.25500488    0.70999998    2.59999990
   13.63055611  136.69799805    0.70999998    2.59999990
   13.63388920  136.43200684    0.70999998    2.61999989
   13.63694477  139.81399536    0.70999998    2.59999990
   13.64138889  139.81399536    0.70999998    2.61999989
   13.64555550  138.94799805    0.70999998    2.59999990
   13.64888859  136.51699829    0.70999998    2.61999989
   13.65222168  144.90699768    0.70999998    2.59999990
   13.65527725  133.06799316    0.70999998    2.61999989
   13.65861034  145.14199829    0.70999998    2.61999989
   13.66166592  136.51600647    0.70999998    2.61999989
   13.66499996  129.78700256    0.70999998    2.61999989
   13.66833401  134.94700623    0.70999998    2.61999989
   13.67138958  141.18200684    0.70999998    2.57999992
   13.67472267  136.28700256    0.70999998    2.59999990
   13.67805576  130.83000183    0.70999998    2.61999989
   13.67833328  134.91499329    0.70999998    2.61999989
   13.68444443  134.91499329    0.70999998    2.61999989
   13.68861103  139.95199585    0.69000000    2.61999989
   13.69166660  142.37800598    0.69000000    2.61999989
   13.69499969  137.89700317    0.69000000    2.59999990
   13.69805527  141.48699951    0.69000000    2.61999989
   13.70138836  137.89500427    0.70999998    2.61999989
   13.70472240  134.39399719    0.69000000    2.57999992
   13.70777798  137.35400391    0.69000000    2.59999990
   13.71111107  141.27900696    0.69000000    2.61999989
   13.71166611  136.64999390    0.69000000    2.61999989
   13.71472168  138.68600464    0.69000000    2.61999989
   13.71805477  135.25399780    0.69000000    2.59999990
   13.72111034  127.09100342    0.69000000    2.59999990
   13.72722149  127.09100342    0.69000000    2.61999989
   13.73138809  159.06199646    0.69000000    2.64000010
   13.73472214  161.30499268    0.70999998    2.61999989
   13.73805618  152.80900574    0.70999998    2.61999989
   13.74111176  151.31100464    0.69000000    2.59999990
   13.74444485  142.17999268    0.70999998    2.61999989
   13.74499989  158.35499573    0.70999998    2.61999989
   13.74805546  153.94000244    0.69000000    2.61999989
   13.75138855  146.24600220    0.70999998    2.61999989
   13.75444412  152.80599976    0.69000000    2.61999989
   13.75777817  155.85899353    0.69000000    2.61999989
   13.76083374  143.30499268    0.69000000    2.61999989
   13.76416683  133.39500427    0.69000000    2.61999989
   13.76999950  133.39500427    0.69000000    2.61999989
   13.77416611  154.58599854    0.69000000    2.61999989
   13.77750015  154.52099609    0.69000000    2.61999989
   13.77861118  164.75599670    0.69000000    2.61999989
   13.78138828  162.50999451    0.69000000    2.61999989
   13.78444481  151.17300415    0.69000000    2.61999989
   13.78777790  149.04800415    0.69000000    2.61999989
   13.79083347  150.14100647    0.69000000    2.61999989
   13.79416752  156.37500000    0.69000000    2.61999989
   13.79750061  152.76600647    0.69000000    2.61999989
   13.80055618  148.76600647    0.69000000    2.61999989
   13.80388927  138.54100037    0.69000000    2.61999989
   13.80722237  144.58799744    0.69000000    2.61999989
   13.81277752  144.58799744    0.67000002    2.61999989
   13.81694412  145.45100403    0.67000002    2.61999989
   13.82027817  147.68899536    0.69000000    2.61999989
   13.82361126  155.00900269    0.69000000    2.61999989
   13.82666683  152.56500244    0.69000000    2.61999989
   13.82999992  154.07800293    0.69000000    2.61999989
   13.83333302  170.14100647    0.69000000    2.61999989
   13.83638859  173.09899902    0.69000000    2.61999989
   13.84000015  156.41400146    0.67000002    2.61999989
   13.84305477  152.98399353    0.67000002    2.61999989
   13.84499931  170.35099792    0.67000002    2.61999989
   13.84666634  153.44900513    0.69000000    2.61999989
   13.85000038  152.18099976    0.69000000    2.61999989
   13.85583401  152.18099976    0.67000002    2.61999989
   13.85972214  149.55999756    0.67000002    2.61999989
   13.86305618  145.84700012    0.67000002    2.61999989
   13.86638927  143.14100647    0.67000002    2.61999989
   13.86944485  146.81700134    0.67000002    2.61999989
   13.87277794  168.81300354    0.67000002    2.64000010
   13.87611103  144.56100464    0.67000002    2.61999989
   13.87833309  172.28100586    0.69000000    2.59999990
   13.87944412  154.58999634    0.69000000    2.59999990
   13.88277817  159.64799500    0.69000000    2.64000010
   13.88583279  145.77099609    0.69000000    2.64000010
   13.88916683  162.81399536    0.69000000    2.61999989
   13.89249992  160.77099609    0.67000002    2.61999989
   13.89861107  160.77099609    0.67000002    2.64000010
   13.90277767  151.34599304    0.69000000    2.61999989
   13.90583324  172.58500671    0.69000000    2.61999989
   13.90916634  137.61399841    0.67000002    2.64000010
   13.91166592  151.50599670    0.67000002    2.64000010
   13.91277695  147.44099426    0.67000002    2.64000010
   13.91611099  149.78999329    0.67000002    2.64000010
   13.91916656  157.39199829    0.67000002    2.64000010
   13.92250061  149.94700623    0.67000002    2.61999989
   13.92583370  131.73500061    0.67000002    2.61999989
   13.92888927  126.96099854    0.67000002    2.61999989
   13.93222237  136.70300293    0.67000002    2.61999989
   13.93527794  132.38800049    0.67000002    2.64000010
   13.94138908  132.38800049    0.67000002    2.64000010
   13.94555569  122.01300049    0.67000002    2.64000010
   13.94888878  140.44000244    0.67000002    2.64000010
   13.95194435  131.18499756    0.67000002    2.64000010
   13.95527744  144.24699402    0.67000002    2.64000010
   13.95861053  140.85499573    0.67000002    2.64000010
   13.96166611  145.56199646    0.67000002    2.64000010
   13.96500015  139.19799805    0.67000002    2.64000010
   13.96805477  133.37699890    0.67000002    2.64000010
   13.97138882  137.16099548    0.67000002    2.64000010
   13.97472191  130.85699463    0.67000002    2.64000010
   13.97777748  127.97699738    0.64999998    2.61999989
   13.97861099  128.19200134    0.64999998    2.61999989
   13.98416710  128.19200134    0.67000002    2.64000010
   13.98833370  129.19999695    0.64999998    2.64000010
   13.99166679  129.69099426    0.64999998    2.64000010
   13.99472237  124.17299652    0.64999998    2.64000010
   13.99805546  130.01499939    0.67000002    2.64000010
   14.00138855  129.94700623    0.67000002    2.64000010
   14.00444412  124.34799957    0.64999998    2.64000010
   14.00777817  128.77499390    0.64999998    2.64000010
   14.01111126  134.03900146    0.67000002    2.64000010
   14.01166630  126.66100311    0.67000002    2.64000010
   14.01444435  135.27400208    0.64999998    2.64000010
   14.01777744  129.10699463    0.64999998    2.64000010
   14.02083302  128.36999512    0.64999998    2.64000010
   14.02722168  128.36999512    0.64999998    2.64000010
   14.03111076  126.65299988    0.64999998    2.64000010
   14.03444481  137.79200745    0.64999998    2.64000010
   14.03777790  124.11199951    0.64999998    2.66000009
   14.04083347  130.16600037    0.64999998    2.64000010
   14.04416752  128.56300354    0.64999998    2.64000010
   14.04500008  135.62100220    0.64999998    2.61999989
   14.04777813  126.15599823    0.64999998    2.64000010
   14.05111122  130.32800293    0.64999998    2.66000009
   14.05416679  129.83299255    0.64999998    2.64000010
   14.05749989  131.47099304    0.64999998    2.66000009
   14.06083393  132.80799866    0.64999998    2.66000009
   14.06388950  123.93900299    0.64999998    2.64000010
   14.06999969  123.93900299    0.64999998    2.64000010
   14.07416630  128.01300049    0.64999998    2.64000010
   14.07666683  130.96000671    0.64999998    2.64000010
   14.07805538  135.03900146    0.64999998    2.64000010
   14.08027744  134.73699951    0.64999998    2.64000010
   14.08361053  133.88400269    0.64999998    2.64000010
   14.08694458  132.09800720    0.64999998    2.64000010
   14.09000015  135.35600281    0.64999998    2.64000010
   14.09333324  127.91000366    0.64999998    2.66000009
   14.09638882  130.87199402    0.64999998    2.66000009
   14.09972191  129.93699646    0.64999998    2.66000009
   14.10305595  128.52299500    0.64999998    2.64000010
   14.10611153  131.47900391    0.64999998    2.66000009
   14.11222267  131.47900391    0.64999998    2.64000010
   14.11638927  129.78199768    0.64999998    2.64000010
   14.11972237  132.90800476    0.64999998    2.64000010
   14.12277794  130.32200623    0.64999998    2.64000010
   14.12611103  122.64099884    0.64999998    2.66000009
   14.12944412  125.41000366    0.64999998    2.66000009
   14.13249969  134.19599915    0.64999998    2.64000010
   14.13583279  137.12800598    0.64999998    2.66000009
   14.13916683  130.76800537    0.64999998    2.66000009
   14.14222240  132.56399536    0.64999998    2.66000009
   14.14472198  132.82600403    0.64999998    2.66000009
   14.14583302  145.77699280    0.64999998    2.66000009
   14.14916611  138.96000671    0.64999998    2.66000009
   14.15499973  138.96000671    0.64999998    2.66000009
   14.15972137  128.02699280    0.63000000    2.66000009
   14.16305542  124.86799622    0.64999998    2.66000009
   14.16611099  133.11799622    0.64999998    2.64000010
   14.16944504  126.46800232    0.64999998    2.66000009
   14.17277813  131.41099548    0.64999998    2.66000009
   14.17583370  129.27099609    0.64999998    2.66000009
   14.17833328  124.86799622    0.64999998    2.66000009
   14.17944431  130.18499756    0.64999998    2.66000009
   14.18277836  123.62200165    0.64999998    2.66000009
   14.18583298  127.26100159    0.64999998    2.64000010
   14.18916702  147.62100220    0.64999998    2.64000010
   14.19250011  132.99600220    0.64999998    2.66000009
   14.19833374  132.99600220    0.64999998    2.66000009
   14.20249939  129.82000732    0.64999998    2.64000010
   14.20583344  132.83099365    0.64999998    2.64000010
   14.20916653  135.66200256    0.64999998    2.66000009
   14.21166611  137.38999939    0.64999998    2.64000010
   14.21249962  129.37100220    0.64999998    2.64000010
   14.21583271  129.67799377    0.64999998    2.64000010
   14.21888828  134.60499573    0.64999998    2.66000009
   14.22222137  130.21000671    0.64999998    2.66000009
   14.22555542  124.57199860    0.64999998    2.66000009
   14.22861099  126.20300293    0.64999998    2.66000009
   14.23194408  122.28600311    0.64999998    2.64000010
   14.23527813  126.41600037    0.64999998    2.64000010
   14.24138927  126.41600037    0.63000000    2.64000010
   14.24555588  130.03700256    0.64999998    2.66000009
   14.24861145  126.03800201    0.63000000    2.66000009
   14.25194454  131.33599854    0.63000000    2.66000009
   14.25527763  123.58899689    0.63000000    2.64000010
   14.25833321  122.21299744    0.63000000    2.64000010
   14.26166630  126.79000092    0.63000000    2.66000009
   14.26500034  127.44000244    0.63000000    2.67000008
   14.26805496  128.45599365    0.63000000    2.67000008
   14.27138901  125.43000031    0.63000000    2.66000009
   14.27472210  128.48699951    0.63000000    2.66000009
   14.27777767  129.30799866    0.63000000    2.66000009
   14.27861118  129.41799927    0.63000000    2.64000010
   14.28416729  129.41799927    0.63000000    2.66000009
   14.28833389  126.93000031    0.63000000    2.66000009
   14.29138947  125.13200378    0.63000000    2.66000009
   14.29472256  127.77400208    0.63000000    2.66000009
   14.29805565  127.19100189    0.63000000    2.66000009
   14.30111122  122.70400238    0.63000000    2.67000008
   14.30444431  129.84599304    0.63000000    2.67000008
   14.30777836  134.00999451    0.63000000    2.66000009
   14.31083393  124.57599640    0.63000000    2.66000009
   14.31194496  131.35600281    0.63000000    2.66000009
   14.31444454  139.02400208    0.63000000    2.66000009
   14.31777763  145.47700500    0.63000000    2.67000008
   14.32083321  135.08700562    0.63000000    2.67000008
   14.32694435  135.08700562    0.63000000    2.66000009
   14.33111095  129.99400330    0.63000000    2.66000009
   14.33444405  140.61300659    0.63000000    2.66000009
   14.33749962  145.94000244    0.63000000    2.67000008
   14.34083271  133.01300049    0.63000000    2.66000009
   14.34416676  131.66700745    0.63000000    2.67000008
   14.34527779  124.19100189    0.63000000    2.67000008
   14.34749985  126.91100311    0.63000000    2.66000009
   14.35083389  130.11099243    0.63000000    2.66000009
   14.35416698  128.86799622    0.63000000    2.67000008
   14.35722256  132.25300598    0.63000000    2.66000009
   14.36055565  132.06599426    0.63000000    2.66000009
   14.36361122  126.92900085    0.63000000    2.67000008
   14.36999989  126.92900085    0.63000000    2.66000009
   14.37388897  131.30200195    0.63000000    2.64000010
   14.37722206  130.64900208    0.61000001    2.67000008
   14.37861156  130.71899414    0.61000001    2.67000008
   14.38083363  132.19999695    0.61000001    2.67000008
   14.38416672  133.03300476    0.61000001    2.66000009
   14.38749981  126.97499847    0.61000001    2.66000009
   14.39055538  131.16999817    0.61000001    2.66000009
   14.39388847  129.39399719    0.63000000    2.67000008
   14.39694405  129.19599915    0.61000001    2.67000008
   14.40027714  122.78700256    0.61000001    2.67000008
   14.40361118  128.61199951    0.61000001    2.67000008
   14.40666676  129.56399536    0.61000001    2.67000008
   14.41277695  129.56399536    0.63000000    2.66000009
   14.41694450  133.49600220    0.61000001    2.66000009
   14.42000008  129.32400513    0.61000001    2.66000009
   14.42333412  123.69999695    0.61000001    2.67000008
   14.42666721  126.78099823    0.61000001    2.67000008
   14.42972279  125.79000092    0.61000001    2.67000008
   14.43305588  137.47700500    0.61000001    2.67000008
   14.43638897  126.24299622    0.61000001    2.67000008
   14.43944454  129.32800293    0.61000001    2.67000008
   14.44277763  131.96099854    0.61000001    2.66000009
   14.44527817  129.49699402    0.61000001    2.66000009
   14.44638920  126.78600311    0.61000001    2.66000009
   14.44972229  128.19599915    0.61000001    2.67000008
   14.45555496  128.19599915    0.61000001    2.66000009
   14.45972157  134.46800232    0.61000001    2.67000008
   14.46305561  134.21299744    0.61000001    2.66000009
   14.46611118  124.64299774    0.61000001    2.66000009
   14.46944427  127.22000122    0.61000001    2.67000008
   14.47249985  126.78800201    0.61000001    2.66000009
   14.47583294  134.10200500    0.61000001    2.66000009
   14.47861099  132.03399658    0.61000001    2.66000009
   14.47944355  134.99200439    0.61000001    2.66000009
   14.48277760  138.05900574    0.61000001    2.66000009
   14.48611164  129.43299866    0.61000001    2.67000008
   14.48916721  135.23399353    0.61000001    2.66000009
   14.49250031  141.32299805    0.61000001    2.67000008
   14.49833393  141.32299805    0.61000001    2.67000008
   14.50249958  127.21600342    0.58999997    2.67000008
   14.50583363  126.05899811    0.58999997    2.67000008
   14.50888920  128.70399475    0.58999997    2.67000008
   14.51194477  127.85399628    0.61000001    2.67000008
   14.51249981  137.48100281    0.61000001    2.67000008
   14.51583290  123.65699768    0.61000001    2.67000008
   14.51916599  129.11099243    0.61000001    2.67000008
   14.52222157  126.06999969    0.58999997    2.67000008
   14.52555561  128.71899414    0.61000001    2.69000006
   14.52888870  129.40199280    0.61000001    2.69000006
   14.53194427  127.91999817    0.61000001    2.67000008
   14.53527832  129.61599731    0.58999997    2.67000008
   14.54111195  129.61599731    0.58999997    2.67000008
   14.54527855  138.48899841    0.58999997    2.67000008
   14.54861164  128.17900085    0.58999997    2.67000008
   14.55194473  130.05499268    0.58999997    2.66000009
   14.55527782  133.76800537    0.58999997    2.66000009
   14.55833340  130.80900574    0.58999997    2.69000006
   14.56166649  134.66700745    0.58999997    2.69000006
   14.56500053  134.74299622    0.58999997    2.67000008
   14.56805515  140.60800171    0.58999997    2.69000006
   14.57138920  126.97599792    0.58999997    2.67000008
   14.57472229  124.67700195    0.58999997    2.67000008
   14.57777786  131.70899963    0.58999997    2.67000008
   14.57861137  132.35000610    0.58999997    2.67000008
   14.59916592  132.35000610    0.58999997    2.67000008
   14.60333347  133.60899353    0.58999997    2.69000006
   14.60666752  130.10499573    0.58999997    2.67000008
   14.60972214  129.35000610    0.58999997    2.69000006
   14.61194515  137.16799927    0.58999997    2.69000006
   14.61333370  132.75399780    0.58999997    2.67000008
   14.61666679  128.72500610    0.58999997    2.67000008
   14.61999989  129.41700745    0.58999997    2.69000006
   14.62305546  130.47999573    0.58999997    2.67000008
   14.62638855  127.89900208    0.58999997    2.67000008
   14.62944412  130.33700562    0.58999997    2.67000008
   14.63277817  132.27299500    0.58999997    2.67000008
   14.63611126  123.50299835    0.58999997    2.67000008
   14.64194393  123.50299835    0.58999997    2.67000008
   14.64611053  127.28299713    0.58999997    2.69000006
   14.64916611  131.31300354    0.58999997    2.69000006
   14.65249920  128.85299683    0.58999997    2.69000006
   14.65583324  128.70399475    0.58999997    2.69000006
   14.65888882  126.70899963    0.58999997    2.69000006
   14.66222191  131.72700500    0.58999997    2.69000006
   14.66555500  125.84500122    0.58999997    2.69000006
   14.66861153  128.32299805    0.58999997    2.67000008
   14.67194462  121.30100250    0.58999997    2.67000008
   14.67527771  118.67299652    0.58999997    2.67000008
   14.67833328  130.35000610    0.58999997    2.67000008
   14.67888927  123.66799927    0.58999997    2.69000006
   14.68472195  123.66799927    0.58999997    2.69000006
   14.68888855  123.69200134    0.58999997    2.67000008
   14.69222260  121.02600098    0.56999999    2.67000008
   14.69527817  128.75399780    0.58999997    2.69000006
   14.69861126  121.57700348    0.58999997    2.69000006
   14.70194435  134.97799683    0.58999997    2.67000008
   14.70499992  129.48899841    0.58999997    2.67000008
   14.70833302  125.86699677    0.58999997    2.67000008
   14.71138859  127.03099823    0.56999999    2.69000006
   14.71222210  121.36199951    0.56999999    2.69000006
   14.71527767  126.54699707    0.58999997    2.69000006
   14.71861076  127.37599945    0.58999997    2.69000006
   14.72166634  129.69599915    0.56999999    2.69000006
   14.72777748  129.69599915    0.58999997    2.69000006
   14.73166656  126.91100311    0.58999997    2.67000008
   14.73500061  129.57800293    0.58999997    2.67000008
   14.73833370  127.02600098    0.58999997    2.69000006
   14.74138927  133.08999634    0.56999999    2.67000008
   14.74472237  130.55700684    0.58999997    2.71000004
   14.74555588  126.73699951    0.58999997    2.71000004
   14.74833393  123.62200165    0.58999997    2.71000004
   14.75138855  130.40899658    0.56999999    2.69000006
   14.75472260  130.96200562    0.56999999    2.69000006
   14.75777817  130.17999268    0.58999997    2.69000006
   14.76111126  127.21900177    0.58999997    2.69000006
   14.76444435  120.67700195    0.56999999    2.71000004
   14.77055550  120.67700195    0.58999997    2.69000006
   14.77472210  124.48500061    0.56999999    2.67000008
   14.77777767  116.53900146    0.56999999    2.69000006
   14.77888870  122.70099640    0.56999999    2.69000006
   14.78138828  117.63400269    0.58999997    2.67000008
   14.78472233  106.73300171    0.56999999    2.67000008
   14.78805637  125.39700317    0.56999999    2.67000008
   14.79111195  116.98699951    0.56999999    2.69000006
   14.79444504  125.94100189    0.58999997    2.69000006
   14.79777813  126.86599731    0.56999999    2.69000006
   14.80083370  127.84999847    0.56999999    2.69000006
   14.80416679  125.15299988    0.56999999    2.69000006
   14.80749989  125.22100067    0.56999999    2.69000006
   14.81333351  125.22100067    0.56999999    2.69000006
   14.81750011  124.08699799    0.56999999    2.69000006
   14.82055569  141.48899841    0.56999999    2.69000006
   14.82388878  118.82099915    0.56999999    2.67000008
   14.82722187  132.02600098    0.56999999    2.67000008
   14.83027744  135.91700745    0.56999999    2.69000006
   14.83361053  130.32600403    0.56999999    2.69000006
   14.83694458  133.13499451    0.56999999    2.69000006
   14.84000015  132.78300476    0.56999999    2.67000008
   14.84333324  122.48200226    0.56999999    2.67000008
   14.84555531  122.65699768    0.56999999    2.69000006
   14.84694386  124.73600006    0.56999999    2.69000006
   14.85000038  135.10699463    0.56999999    2.67000008
   14.85611153  135.10699463    0.56999999    2.69000006
   14.86027813  120.77600098    0.56999999    2.69000006
   14.86361122  122.83899689    0.56999999    2.69000006
   14.86666679  121.52999878    0.56999999    2.69000006
   14.86999989  120.52799988    0.56999999    2.69000006
   14.87333393  123.70500183    0.56999999    2.67000008
   14.87638855  122.69599915    0.56999999    2.67000008
   14.87888908  121.78900146    0.56999999    2.69000006
   14.88027763  124.87999725    0.56999999    2.69000006
   14.88333321  116.75599670    0.56999999    2.69000006
   14.88666630  119.98600006    0.56999999    2.69000006
   14.89000034  118.88400269    0.56999999    2.69000006
   14.89305496  118.65100098    0.56999999    2.69000006
   14.89916611  118.65100098    0.56999999    2.67000008
   14.90305519  115.11000061    0.56999999    2.69000006
   14.90638828  119.81500244    0.56999999    2.67000008
   14.90972137  118.28600311    0.56999999    2.67000008
   14.91222191  121.35900116    0.56999999    2.67000008
   14.91333294  117.13700104    0.56999999    2.67000008
   14.91638851  117.47899628    0.56999999    2.67000008
   14.91972256  123.52300262    0.56999999    2.69000006
   14.92277813  123.47399902    0.56999999    2.69000006
   14.92611122  123.25399780    0.56999999    2.69000006
   14.92944431  122.96199799    0.55000001    2.69000006
   14.93249989  120.48999786    0.56999999    2.69000006
   14.93583298  128.92900085    0.56999999    2.69000006
   14.94194412  128.92900085    0.56999999    2.71000004
   14.94611073  126.00199890    0.56999999    2.71000004
   14.94916630  122.12500000    0.56999999    2.69000006
   14.95249939  113.70200348    0.56999999    2.69000006
   14.95555496  122.96499634    0.56999999    2.69000006
   14.95888901  121.63700104    0.56999999    2.69000006
   14.96222210  117.54299927    0.56999999    2.69000006
   14.96527767  122.16300201    0.56999999    2.69000006
   14.96861076  122.65100098    0.55000001    2.71000004
   14.97194386  119.59200287    0.55000001    2.71000004
   14.97499943  118.03900146    0.56999999    2.69000006
   14.97833252  124.36599731    0.55000001    2.69000006
   14.97888851  122.03800201    0.55000001    2.69000006
   14.98472214  122.03800201    0.56999999    2.69000006
   14.98888874  121.34899902    0.56999999    2.69000006
   14.99222279  119.72799683    0.55000001    2.69000006
   14.99527836  115.21199799    0.55000001    2.69000006
   14.99861145  122.17600250    0.56999999    2.69000006
   15.00166702  119.10199738    0.56999999    2.69000006
   15.00500011  115.25700378    0.56999999    2.67000008
   15.00833321  115.33100128    0.56999999    2.67000008
   15.01138878  115.41400146    0.56999999    2.69000006
   15.01222229  117.14800262    0.56999999    2.69000006
   15.01527786  115.75900269    0.56999999    2.69000006
   15.01833344  112.64299774    0.56999999    2.69000006
   15.02166653  118.57599640    0.56999999    2.69000006
   15.02750015  118.57599640    0.56999999    2.69000006
   15.03166676  127.05899811    0.56999999    2.69000006
   15.03500080  124.76999664    0.56999999    2.69000006
   15.03805637  126.57599640    0.58999997    2.69000006
   15.04138947  122.82900238    0.58999997    2.69000006
   15.04472256  142.48800659    0.56999999    2.69000006
   15.04555607  135.30499268    0.56999999    2.69000006
   15.04833412  125.41999817    0.56999999    2.69000006
   15.05138874  135.63200378    0.56999999    2.69000006
   15.05472279  139.95500183    0.56999999    2.69000006
   15.05805588  140.21000671    0.56999999    2.69000006
   15.06111145  133.62199402    0.56999999    2.69000006
   15.06444454  129.04299927    0.56999999    2.69000006
   15.07055569  129.04299927    0.56999999    2.69000006
   15.07472229  121.42600250    0.56999999    2.69000006
   15.07777786  128.27299500    0.56999999    2.69000006
   15.07888889  128.94000244    0.58999997    2.69000006
   15.08166695  131.50100708    0.56999999    2.69000006
   15.08472157  123.30699921    0.56999999    2.69000006
   15.08805561  123.83599854    0.56999999    2.69000006
   15.09138870  127.21700287    0.56999999    2.69000006
   15.09444427  133.51899719    0.56999999    2.71000004
   15.09777737  119.42400360    0.56999999    2.69000006
   15.10111141  121.14700317    0.56999999    2.69000006
   15.10416698  124.21199799    0.56999999    2.69000006
   15.10750008  122.63200378    0.56999999    2.69000006
   15.11333370  122.63200378    0.56999999    2.69000006
   15.11750031  129.04400635    0.56999999    2.69000006
   15.12055588  120.47599792    0.56999999    2.69000006
   15.12388897  124.87200165    0.56999999    2.71000004
   15.12694454  120.79299927    0.56999999    2.71000004
   15.13027763  124.36799622    0.56999999    2.71000004
   15.13361073  127.30100250    0.56999999    2.69000006
   15.13666630  122.79599762    0.56999999    2.71000004
   15.14000034  128.00000000    0.56999999    2.71000004
   15.14333344  130.00700378    0.56999999    2.71000004
   15.14555550  127.87400055    0.56999999    2.71000004
   15.14694405  129.81799316    0.56999999    2.69000006
   15.14999962  133.01400757    0.56999999    2.69000006
   15.15611076  133.01400757    0.56999999    2.71000004
   15.16027737  124.87599945    0.56999999    2.69000006
   15.16333294  124.84700012    0.56999999    2.69000006
   15.16666698  123.72499847    0.56999999    2.71000004
   15.17000008  124.90100098    0.56999999    2.71000004
   15.17305565  118.74099731    0.56999999    2.69000006
   15.17638874  120.24299622    0.56999999    2.69000006
   15.17888927  121.35099792    0.56999999    2.69000006
   15.18000031  119.80599976    0.56999999    2.71000004
   15.18305588  116.79000092    0.56999999    2.71000004
   15.18638897  118.09600067    0.56999999    2.69000006
   15.18972206  133.45599365    0.56999999    2.71000004
   15.19277763  124.31900024    0.56999999    2.71000004
   15.19888878  124.31900024    0.55000001    2.71000004
   15.20305538  127.58599854    0.56999999    2.69000006
   15.20638847  123.44400024    0.56999999    2.69000006
   15.20944405  128.54499817    0.55000001    2.71000004
   15.21222210  125.45700073    0.56999999    2.69000006
   15.21333313  120.60900116    0.56999999    2.69000006
   15.21638870  129.97900391    0.56999999    2.71000004
   15.21972179  125.32700348    0.56999999    2.71000004
   15.22305489  125.57800293    0.56999999    2.71000004
   15.22611046  120.30699921    0.55000001    2.71000004
   15.22944355  122.95099640    0.56999999    2.71000004
   15.23277760  123.19200134    0.56999999    2.69000006
   15.23583317  119.56400299    0.55000001    2.69000006
   15.24166679  119.56400299    0.55000001    2.71000004
   15.24583340  127.97799683    0.56999999    2.71000004
   15.24916649  124.62500000    0.56999999    2.69000006
   15.25249958  115.88600159    0.56999999    2.71000004
   15.25555515  124.95400238    0.56999999    2.71000004
   15.25888920  124.55100250    0.56999999    2.69000006
   15.26222229  125.69499969    0.56999999    2.69000006
   15.26527786  128.64399719    0.56999999    2.69000006
   15.26861095  133.62699890    0.56999999    2.71000004
   15.27166653  127.32499695    0.56999999    2.69000006
   15.27499962  131.11399841    0.56999999    2.71000004
   15.27833271  133.55000305    0.56999999    2.71000004
   15.27888870  132.09500122    0.56999999    2.71000004
   15.28472233  132.09500122    0.56999999    2.69000006
   15.28888893  122.72200012    0.56999999    2.71000004
   15.29194450  126.63800049    0.56999999    2.71000004
   15.29527855  133.00500488    0.56999999    2.69000006
   15.29833412  127.01799774    0.56999999    2.69000006
   15.30166721  135.81700134    0.56999999    2.71000004
   15.30500031  129.61099243    0.55000001    2.71000004
   15.30805588  119.08399963    0.56999999    2.71000004
   15.31138897  120.18599701    0.56999999    2.71000004
   15.31222248  128.36599731    0.56999999    2.71000004
   15.31500053  126.40200043    0.56999999    2.71000004
   15.31833363  124.47100067    0.55000001    2.71000004
   15.32138920  129.72399902    0.55000001    2.71000004
   15.32750034  129.72399902    0.55000001    2.71000004
   15.33166695  131.37199402    0.55000001    2.73000002
   15.33472157  129.83399963    0.55000001    2.73000002
   15.33805561  129.54699707    0.56999999    2.71000004
   15.34138870  132.04800415    0.55000001    2.71000004
   15.34444427  124.36900330    0.55000001    2.71000004
   15.34555531  119.85600281    0.55000001    2.71000004
   15.34805489  139.53999329    0.55000001    2.69000006
   15.35111141  135.32699585    0.55000001    2.69000006
   15.35444450  134.95300293    0.56999999    2.71000004
   15.35777855  126.43199921    0.55000001    2.71000004
   15.36083412  128.10499573    0.55000001    2.71000004
   15.36416721  129.60299683    0.55000001    2.71000004
   15.37027836  129.60299683    0.55000001    2.69000006
   15.37444496  144.11900330    0.55000001    2.69000006
   15.37777805  126.40899658    0.55000001    2.69000006
   15.37888908  126.99500275    0.55000001    2.69000006
   15.38138866  132.62199402    0.55000001    2.69000006
   15.38444424  134.79100037    0.55000001    2.71000004
   15.38777733  147.54899597    0.56999999    2.71000004
   15.39111137  129.01899719    0.56999999    2.71000004
   15.39416695  141.74800110    0.55000001    2.73000002
   15.39750004  123.71299744    0.55000001    2.69000006
   15.40083313  122.62599945    0.55000001    2.69000006
   15.40388870  128.57200623    0.56999999    2.71000004
   15.40722179  124.34999847    0.56999999    2.71000004
   15.41305542  124.34999847    0.55000001    2.71000004
   15.41722298  140.76400757    0.55000001    2.71000004
   15.42055607  124.39199829    0.55000001    2.71000004
   15.42388916  127.45600128    0.55000001    2.71000004
   15.42694473  142.64700317    0.56999999    2.71000004
   15.43027782  121.12200165    0.55000001    2.71000004
   15.43361092  127.49400330    0.55000001    2.71000004
   15.43694496  122.14199829    0.56999999    2.71000004
   15.44000053  125.19799805    0.56999999    2.71000004
   15.44333363  125.59799957    0.55000001    2.71000004
   15.44555569  126.63800049    0.55000001    2.69000006
   15.44694424  135.92599487    0.55000001    2.69000006
   15.44999981  128.19900513    0.55000001    2.69000006
   15.45611095  128.19900513    0.55000001    2.71000004
   15.46027756  123.02200317    0.55000001    2.71000004
   15.46333313  128.09300232    0.55000001    2.71000004
   15.46666622  134.74299622    0.55000001    2.71000004
   15.46972179  125.22699738    0.56999999    2.71000004
   15.47305489  122.38700104    0.56999999    2.71000004
   15.47638798  126.85299683    0.55000001    2.71000004
   15.47888851  131.34100342    0.55000001    2.71000004
   15.47999954  130.46899414    0.55000001    2.71000004
   15.48305511  128.60699463    0.55000001    2.71000004
   15.48638916  128.62399292    0.55000001    2.71000004
   15.48972225  124.15000153    0.55000001    2.71000004
   15.49277782  116.45099640    0.55000001    2.69000006
   15.49888897  116.45099640    0.55000001    2.71000004
   15.50305557  122.79000092    0.55000001    2.71000004
   15.50638866  121.65100098    0.55000001    2.71000004
   15.50944424  125.40799713    0.55000001    2.71000004
   15.51222229  119.63200378    0.55000001    2.69000006
   15.51305580  121.06900024    0.55000001    2.69000006
   15.51611137  131.62800598    0.55000001    2.71000004
   15.51944447  122.23999786    0.55000001    2.71000004
   15.52277756  124.91200256    0.55000001    2.71000004
   15.52583313  131.05200195    0.55000001    2.71000004
   15.52916622  123.91400146    0.55000001    2.71000004
   15.53249931  130.95700073    0.55000001    2.71000004
   15.53555584  126.42600250    0.55000001    2.71000004
   15.54166698  126.42600250    0.55000001    2.71000004
   15.54583359  129.77099609    0.55000001    2.73000002
   15.54916668  126.23699951    0.55000001    2.71000004
   15.55222225  125.41699982    0.55000001    2.71000004
   15.55555534  126.27300262    0.55000001    2.71000004
   15.55888939  128.65499878    0.55000001    2.71000004
   15.56194496  122.15399933    0.55000001    2.69000006
   15.56527805  123.48100281    0.55000001    2.73000002
   15.56833363  129.57899475    0.55000001    2.71000004
   15.57166672  122.90699768    0.55000001    2.71000004
   15.57499981  123.51200104    0.55000001    2.71000004
   15.57805538  128.79499817    0.55000001    2.71000004
   15.57888889  122.90799713    0.55000001    2.71000004
   15.58444405  122.90799713    0.55000001    2.71000004
   15.58861065  129.33900452    0.55000001    2.71000004
   15.59194374  129.77699280    0.55000001    2.71000004
   15.59527779  128.00100708    0.55000001    2.69000006
   15.61277771  119.80899811    0.55000001    2.71000004
   15.61527824  118.84999847    0.55000001    2.71000004
   15.61833382  124.26300049    0.55000001    2.71000004
   15.62166691  122.37999725    0.55000001    2.71000004
   15.62750053  122.37999725    0.55000001    2.71000004
   15.63166714  128.07299805    0.55000001    2.71000004
   15.63500023  126.99099731    0.55000001    2.71000004
   15.63805580  124.80100250    0.55000001    2.71000004
   15.64138889  121.21499634    0.55000001    2.73000002
   15.64472198  130.03300476    0.55000001    2.71000004
   15.64611053  130.94599915    0.55000001    2.71000004
   15.64805508  120.04599762    0.55000001    2.71000004
   15.65138817  123.09799957    0.55000001    2.71000004
   15.65444374  119.46800232    0.55000001    2.71000004
   15.65777779  121.47499847    0.55000001    2.71000004
   15.66111088  124.63700104    0.55000001    2.73000002
   15.66416645  118.76699829    0.55000001    2.71000004
   15.67027855  118.76699829    0.52999997    2.71000004
   15.67444515  122.42600250    0.52999997    2.71000004
   15.67777824  122.35600281    0.52999997    2.71000004
   15.67944431  125.41100311    0.52999997    2.71000004
   15.68138885  133.66099548    0.52999997    2.71000004
   15.68472195  124.82499695    0.52999997    2.71000004
   15.68777752  125.05000305    0.52999997    2.71000004
   15.69111156  128.42799377    0.52999997    2.71000004
   15.69444466  126.49600220    0.52999997    2.71000004
   15.69750023  128.37699890    0.55000001    2.71000004
   15.70083332  121.80599976    0.55000001    2.71000004
   15.70416641  130.77600098    0.83999997    2.71000004
   15.70722198  127.07800293    0.83999997    2.71000004
   15.71333313  127.07800293    0.81999999    2.71000004
   15.71749973  122.05699921    0.75000000    2.71000004
   15.72055531  118.10800171    0.70999998    2.71000004
   15.72388840  121.95999908    0.70999998    2.71000004
   15.72722149  115.72799683    0.79000002    2.71000004
   15.73027706  120.61399841    0.81999999    2.71000004
   15.73361111  123.67600250    0.81999999    2.71000004
   15.73666668  130.67900085    0.89999998    2.71000004
   15.74000072  129.62199402    0.88000000    2.71000004
   15.74333382  126.09999847    0.89999998    2.71000004
   15.74611092  126.46800232    1.01999998    2.71000004
   15.74666691  123.02100372    1.01999998    2.71000004
   15.75000000  128.06599426    1.16999996    2.69000006
   15.75611115  128.06599426    0.67000002    2.73000002
   15.76027775  126.63700104    0.67000002    2.71000004
   15.76333332  119.61699677    1.44000006    2.69000006
   15.76666641  114.26799774    1.61000001    2.66000009
   15.76999950  115.94000244    1.00000000    2.71000004
   15.77305508  118.20500183    0.89999998    2.71000004
   15.77638817  127.40899658    0.89999998    2.71000004
   15.77944374  127.51399994    1.71000004    2.69000006
   15.78027725  123.53199768    1.64999998    2.71000004
   15.78333378  133.31399536    2.40000010    2.71000004
   15.78666687  126.44000244    3.11999989    2.69000006
   15.79000092  120.33599854    2.51999998    2.69000006
   15.79305553  127.48200226    0.89999998    2.71000004
   15.79888916  127.48200226    0.89999998    2.69000006
   15.80305576  125.88600159    0.80000001    2.71000004
   15.80638885  122.11299896    0.61000001    2.71000004
   15.80944443  120.75199890    0.61000001    2.71000004
   15.81277752  120.96900177    0.63000000    2.71000004
   15.81305599  121.05799866    0.63000000    2.71000004
   15.81638908  123.33200073    1.51999998    2.69000006
   15.81944466  124.64900208    3.73000002    2.66000009
   15.82277775  125.31099701    4.34999990    2.67000008
   15.82611084  124.04599762    2.19000006    2.71000004
   15.82916641  121.49099731    2.51999998    2.69000006
   15.83249950  123.02700043    1.94000006    2.67000008
   15.83583260  123.54299927    1.88000000    2.69000006
   15.84166622  123.54299927    1.58000004    2.67000008
   15.84583282  130.42799377    1.38000000    2.69000006
   15.84638882  128.95799255    1.30999994    2.69000006
   15.84972191  126.90799713    1.14999998    2.71000004
   15.85277843  124.92600250    0.81999999    2.69000006
   15.85611153  123.74099731    0.69000000    2.71000004
   15.85944462  125.53800201    0.64999998    2.71000004
   15.86250019  122.14800262    0.61000001    2.71000004
   15.86583328  118.44300079    0.58999997    2.71000004
   15.86888885  120.43399811    0.58999997    2.71000004
   15.87222195  125.27500153    0.58999997    2.71000004
   15.87555599  126.04000092    0.63000000    2.71000004
   15.87861156  121.71299744    0.67000002    2.71000004
   15.87972260  115.55100250    0.67000002    2.71000004
   15.88472176  115.55100250    0.61000001    2.71000004
   15.88888836  121.89900208    0.63000000    2.73000002
   15.89194393  122.27300262    0.63000000    2.71000004
   15.89527798  122.14600372    0.67000002    2.71000004
   15.89833355  119.61299896    0.67000002    2.71000004
   15.90166664  124.83300018    0.64999998    2.71000004
   15.90499973  125.31600189    0.69000000    2.71000004
   15.90805531  129.88099670    0.67000002    2.71000004
   15.91138840  130.11300659    0.67000002    2.73000002
   15.91305542  119.80899811    0.67000002    2.73000002
   15.91499996  122.33000183    0.69000000    2.71000004
   15.91805553  120.56999969    0.81999999    2.71000004
   15.92138958  117.39700317    0.81999999    2.69000006
   15.92750072  117.39700317    0.83999997    2.71000004
   15.93166733  121.97499847    1.34000003    2.71000004
   15.93472195  126.92500305    1.01999998    2.71000004
   15.93805599  124.80999756    1.07000005    2.71000004
   15.94138908  124.75800323    1.26999998    2.71000004
   15.94444466  125.70800018    1.30999994    2.71000004
   15.94638920  122.96800232    1.30999994    2.71000004
   15.94833374  120.46800232    1.33000004    2.71000004
   15.95138836  123.93800354    1.33000004    2.71000004
   15.95472240  125.24299622    1.91999996    2.71000004
   15.95805550  121.94000244    0.80000001    2.71000004
   15.96111107  129.33099365    0.80000001    2.71000004
   15.96444416  133.21099854    0.81999999    2.71000004
   15.97027779  133.21099854    1.41999996    2.71000004
   15.97444439  123.56900024    1.39999998    2.71000004
   15.97777748  116.63700104    1.36000001    2.71000004
   15.97972202  120.76999664    1.36000001    2.71000004
   15.98138809  125.48400116    1.46000004    2.71000004
   15.98444462  126.37999725    1.46000004    2.71000004
   15.98777771  119.38500214    1.89999998    2.69000006
   15.99111176  124.91899872    1.34000003    2.71000004
   15.99416733  120.58000183    1.09000003    2.71000004
   15.99750042  123.58399963    1.11000001    2.71000004
   16.00055504  122.19300079    1.16999996    2.71000004
   16.00388908  151.54100037    2.11999989    2.69000006
   16.00722313  126.17600250    2.71000004    2.66000009
   16.01305580  126.17600250    2.01999998    2.69000006
   16.01722145  133.20100403    1.46000004    2.69000006
   16.02055550  136.35699463    1.33000004    2.69000006
   16.02388954  132.74099731    1.19000006    2.69000006
   16.02694511  142.17799377    1.91999996    2.67000008
   16.03027725  123.70899963    1.48000002    2.69000006
   16.03361130  134.61900330    1.71000004    2.71000004
   16.03666687  135.24099731    4.90999985    2.73000002
   16.03999901  127.33899689    4.90999985    2.73000002
   16.04333305  132.37600708    4.90999985    2.73000002
   16.04638863  124.67800140    2.32999992    2.69000006
   16.04694366  122.48999786    2.32999992    2.69000006
   16.04999924  117.16699982    2.00000000    2.69000006
   16.05611038  117.16699982    1.64999998    2.69000006
   16.06027794  121.63400269    1.46000004    2.69000006
   16.06333351  130.13900757    1.34000003    2.69000006
   16.06666756  120.07299805    1.30999994    2.69000006
   16.06972313  118.82299805    1.16999996    2.71000004
   16.07305717  125.38700104    0.83999997    2.71000004
   16.07638931  123.23999786    0.86000001    2.71000004
   16.07944489  122.62400055    0.86000001    2.71000004
   16.08000183  125.72899628    0.86000001    2.71000004
   16.08333397  125.98999786    1.91999996    2.69000006
   16.08666801  123.35600281    1.88000000    2.71000004
   16.08972359  125.09100342    1.66999996    2.71000004
   16.09305573  120.36499786    2.21000004    2.67000008
   16.09889030  120.36499786    3.14000010    2.67000008
   16.10305595  131.17700195    3.21000004    2.66000009
   16.10611153  119.56099701    3.03999996    2.67000008
   16.10944557  122.95999908    2.78999996    2.67000008
   16.11277771  126.44200134    3.23000002    2.66000009
   16.11333466  121.25199890    3.51999998    2.64000010
   16.11638832  129.77999878    3.80999994    2.64000010
   16.11972237  129.13299561    3.32999992    2.67000008
   16.12277794  126.35099792    4.21999979    2.69000006
   16.12611198  134.63699341    4.90999985    2.48000002
   16.12944412  122.35800171    4.90999985    2.48000002
   16.13249969  122.86699677    4.90999985    2.61999989
   16.13583374  124.26899719    4.34999990    2.64000010
   16.14166641  124.26899719    3.99000001    2.64000010
   16.14583397  112.49099731    3.07999992    2.67000008
   16.14666748  121.56700134    3.07999992    2.67000008
   16.14944458  121.99099731    2.64000010    2.67000008
   16.15250015  120.03700256    2.51999998    2.69000006
   16.15583229  129.47900391    2.09999990    2.69000006
   16.15916634  122.71399689    2.07999992    2.69000006
   16.16222191  131.38900757    1.88000000    2.69000006
   16.16555595  121.15000153    1.98000002    2.69000006
   16.16888809  125.11199951    2.40000010    2.67000008
   16.17194366  125.93399811    2.26999998    2.69000006
   16.17527771  120.00199890    2.23000002    2.67000008
   16.17833328  128.46299744    2.15000010    2.67000008
   16.18000031  127.94300079    1.50000000    2.71000004
   16.18472099  127.94300079    1.19000006    2.71000004
   16.18861008  117.86699677    0.94000000    2.73000002
   16.19194412  130.53599548    0.94000000    2.71000004
   16.19527626  124.79799652    0.98000002    2.73000002
   16.19833183  126.48200226    1.66999996    2.69000006
   16.20166779  120.31500244    1.76999998    2.69000006
   16.20499992  127.24199677    1.78999996    2.69000006
   16.20805550  136.42300415    2.07999992    2.69000006
   16.21138954  124.74500275    1.78999996    2.69000006
   16.21333504  138.87300110    1.66999996    2.67000008
   16.21500015  122.66500092    1.61000001    2.69000006
   16.21805573  129.13299561    0.94000000    2.71000004
   16.22138977  129.36000061    0.58999997    2.73000002
   16.22750092  129.36000061    0.52999997    2.71000004
   16.23166656  118.85600281    0.52999997    2.71000004
   16.23472214  129.39900208    0.52999997    2.71000004
   16.23805618  121.35600281    0.52999997    2.71000004
   16.24111176  122.72499847    0.52999997    2.71000004
   16.24444389  125.78399658    0.52999997    2.71000004
   16.24666786  125.53600311    0.52999997    2.71000004
   16.24805641  127.60500336    0.52999997    2.71000004
   16.25111198  171.42799377    0.52999997    2.71000004
   16.25444412  172.77400208    0.55000001    2.73000002
   16.25777817  152.57600403    0.55000001    2.73000002
   16.26111031  204.12300110    0.55000001    2.71000004
   16.26416588  194.19000244    0.61000001    2.71000004
   16.27027702  194.19000244    0.63000000    2.73000002
   16.27444458  186.11099243    0.58999997    2.69000006
   16.27750015  191.09700012    0.58999997    2.71000004
   16.28000069  172.80000305    0.55000001    2.73000002
   16.28138924  154.47700500    0.55000001    2.73000002
   16.28472137  148.83799744    0.55000001    2.73000002
   16.28777695  201.17100525    0.55000001    2.71000004
   16.29111099  158.72999573    0.55000001    2.73000002
   16.29416656  139.89100647    0.55000001    2.71000004
   16.29749870  139.47099304    0.55000001    2.71000004
   16.30083275  149.82699585    0.52999997    2.73000002
   16.30388832  135.07699585    0.52999997    2.73000002
   16.30722237  145.54299927    0.52999997    2.71000004
   16.31305504  145.54299927    0.52999997    2.71000004
   16.31722260  126.58100128    0.52999997    2.73000002
   16.32055664  135.55900574    0.52999997    2.73000002
   16.32361221  130.49099731    0.52999997    2.71000004
   16.32694626  125.83399963    0.52999997    2.73000002
   16.33027840  144.23199463    0.52999997    2.73000002
   16.33333397  123.03199768    0.52999997    2.71000004
   16.33666801  123.75099945    0.52999997    2.71000004
   16.33972359  126.96499634    0.52999997    2.75000000
   16.34305573  130.35499573    0.52999997    2.75000000
   16.34638977  128.88000488    0.51999998    2.73000002
   16.34805679  130.58599854    0.51999998    2.73000002
   16.35000038  133.52200317    0.51999998    2.73000002
   16.35583305  133.52200317    0.51999998    2.73000002
   16.36000061  121.57800293    0.51999998    2.71000004
   16.36333466  128.40499878    0.51999998    2.75000000
   16.36666679  133.59300232    0.51999998    2.75000000
   16.37000084  120.64499664    0.51999998    2.73000002
   16.37305641  126.94400024    0.51999998    2.73000002
   16.37638855  127.61199951    0.52999997    2.73000002
   16.37972260  126.90299988    0.52999997    2.73000002
   16.38138962  128.53100586    0.51999998    2.71000004
   16.38333321  124.58699799    0.51999998    2.71000004
   16.38638878  130.81199646    0.51999998    2.73000002
   16.38972282  129.82600403    0.51999998    2.73000002
   16.39305496  130.72999573    0.52999997    2.73000002
   16.39888954  130.72999573    0.52999997    2.73000002
   16.40305519  125.29399872    0.51999998    2.73000002
   16.40638924  120.57399750    0.51999998    2.73000002
   16.40944481  126.27500153    0.51999998    2.71000004
   16.41277695  142.24899292    0.51999998    2.73000002
   16.41499901  131.94299316    0.51999998    2.71000004
   16.41638756  122.48600006    0.51999998    2.71000004
   16.41944313  133.54200745    0.52999997    2.71000004
   16.42277718  127.85900116    0.51999998    2.71000004
   16.42583275  137.13200378    0.51999998    2.71000004
   16.42916679  139.65100098    0.52999997    2.71000004
   16.43249893  131.95100403    0.52999997    2.71000004
   16.43555450  135.93400574    0.51999998    2.73000002
   16.44166565  135.93400574    0.51999998    2.73000002
   16.44583321  132.60000610    0.51999998    2.71000004
   16.44833183  120.19499969    0.51999998    2.73000002
   16.44944382  128.58700562    0.51999998    2.73000002
   16.45250130  128.75399780    0.52999997    2.71000004
   16.45583344  130.87899780    0.51999998    2.73000002
   16.45888901  123.50700378    0.52999997    2.71000004
   16.46222305  133.74899292    0.52999997    2.71000004
   16.46555710  119.86799622    0.51999998    2.71000004
   16.46861076  128.32200623    0.52999997    2.73000002
   16.47194481  133.94000244    0.51999998    2.73000002
   16.47527885  123.07599640    0.51999998    2.73000002
   16.47833443  135.30099487    0.51999998    2.73000002
   16.48444557  135.30099487    0.51999998    2.71000004
   16.48861122  132.56199646    0.51999998    2.71000004
   16.49194527  140.54899597    0.51999998    2.73000002
   16.49500084  131.80299377    0.51999998    2.73000002
   16.49833298  131.92199707    0.51999998    2.73000002
   16.50166702  122.47100067    0.51999998    2.73000002
   16.50472260  128.42900085    0.51999998    2.73000002
   16.50805473  126.15399933    0.51999998    2.73000002
   16.51138878  125.04000092    0.51999998    2.73000002
   16.51444435  124.74099731    0.51999998    2.71000004
   16.51527786  126.19499969    0.51999998    2.71000004
   16.51805496  130.91499329    0.51999998    2.73000002
   16.52138901  127.01300049    0.51999998    2.71000004
   16.52722168  127.01300049    0.51999998    2.71000004
   16.53138924  129.57800293    0.51999998    2.71000004
   16.53472137  130.83299255    0.51999998    2.73000002
   16.53805542  135.49299622    0.51999998    2.73000002
   16.54111099  131.07099915    0.52999997    2.71000004
   16.54444313  123.38200378    0.51999998    2.71000004
   16.54777718  131.75500488    0.51999998    2.71000004
   16.54861069  134.69599915    0.51999998    2.71000004
   16.55138779  122.18099976    0.52999997    2.73000002
   16.55444336  123.83499908    0.52999997    2.73000002
   16.55777740  131.39900208    0.52999997    2.73000002
   16.56110954  122.54599762    0.52999997    2.73000002
   16.56416512  126.16799927    0.51999998    2.71000004
   16.57027817  126.16799927    0.52999997    2.73000002
   16.57444572  124.63500214    0.52999997    2.73000002
   16.57750130  128.60800171    0.52999997    2.73000002
   16.58083344  121.12699890    0.52999997    2.71000004
   16.58222389  118.73899841    0.52999997    2.71000004
   16.58444595  131.71600342    0.52999997    2.71000004
   16.58777809  124.71800232    0.52999997    2.71000004
   16.59083366  135.81599426    0.51999998    2.71000004
   16.59416771  126.27700043    0.52999997    2.73000002
   16.59722328  128.92199707    0.51999998    2.73000002
   16.60055542  128.96200562    0.52999997    2.71000004
   16.60388947  117.27100372    0.51999998    2.73000002
   16.60694504  127.84999847    0.51999998    2.73000002
   16.61305618  127.84999847    0.51999998    2.73000002
   16.63138962  127.05699921    0.51999998    2.73000002
   16.63472176  137.55799866    0.51999998    2.73000002
   16.63777733  131.20799255    0.51999998    2.73000002
   16.64111137  131.08000183    0.51999998    2.73000002
   16.64444351  130.93600464    0.51999998    2.73000002
   16.64749908  139.20599365    0.51999998    2.71000004
   16.65083313  149.20899963    0.51999998    2.73000002
   16.65611076  149.20899963    0.51999998    2.71000004
   16.66027832  134.50399780    0.51999998    2.75000000
   16.66333389  139.18800354    0.51999998    2.73000002
   16.66444397  137.49800110    0.51999998    2.73000002
   16.66722107  139.01100159    0.51999998    2.73000002
   16.67027664  138.89199829    0.51999998    2.71000004
   16.67361069  137.74400330    0.51999998    2.73000002
   16.67694473  150.36700439    0.51999998    2.73000002
   16.68000031  127.56099701    0.51999998    2.73000002
   16.68333244  129.22200012    0.51999998    2.73000002
   16.68638802  129.07699585    0.51999998    2.71000004
   16.68972206  141.77699280    0.51999998    2.73000002
   16.69305420  131.40199280    0.51999998    2.73000002
   16.69888878  131.40199280    0.51999998    2.73000002
   16.70305634  132.81100464    0.51999998    2.71000004
   16.70639038  129.14199829    0.51999998    2.73000002
   16.70944595  134.27400208    0.51999998    2.73000002
   16.71277809  135.98300171    0.51999998    2.71000004
   16.71583366  132.42700195    0.51999998    2.73000002
   16.71916771  146.81399536    0.51999998    2.73000002
   16.72249985  128.53700256    0.51999998    2.73000002
   16.72555542  146.37500000    0.51999998    2.73000002
   16.72888947  140.74000549    4.90999985    2.67000008
   16.73111153  137.91099548    4.90999985    2.71000004
   16.73250008  132.83000183    4.90999985    2.71000004
   16.73555565  128.74099731    3.28999996    2.67000008
   16.74166679  128.74099731    0.73000002    2.73000002
   16.74583435  134.71299744    0.51999998    2.73000002
   16.74916649  132.60200500    0.51999998    2.73000002
   16.75222206  145.88299561    0.56999999    2.71000004
   16.75555611  133.87600708    0.73000002    2.71000004
   16.75888824  143.95500183    0.94000000    2.73000002
   16.76194382  135.78100586    1.14999998    2.73000002
   16.76444435  142.85099792    1.13000000    2.71000004
   16.76583290  136.55700684    0.61000001    2.71000004
   16.76888847  124.58200073    0.51999998    2.73000002
   16.77222252  137.13000488    0.51999998    2.73000002
   16.77527809  135.03599548    0.51999998    2.73000002
   16.77861023  133.02099609    0.51999998    2.73000002
   16.78472137  133.02099609    0.51999998    2.73000002
   16.78861046  136.65400696    0.51999998    2.73000002
   16.79194450  137.51400757    0.50000000    2.71000004
   16.79527664  125.38099670    0.51999998    2.71000004
   16.79777718  131.62899780    0.50000000    2.73000002
   16.79888916  127.14499664    0.50000000    2.73000002
   16.80222130  125.20999908    0.50000000    2.73000002
   16.80527687  130.30400085    0.51999998    2.71000004
   16.80861092  122.86900330    0.55000001    2.73000002
   16.81166649  127.86399841    0.55000001    2.71000004
   16.81499863  132.28500366    0.51999998    2.71000004
   16.81833458  128.79899597    0.51999998    2.71000004
   16.82139015  134.47200012    2.13000011    2.71000004
   16.82750130  134.47200012    4.90999985    2.57999992
   16.83166695  127.18900299    4.90999985    2.50000000
   16.83472252  122.75900269    3.32999992    2.71000004
   16.83805656  135.45199585    1.01999998    2.71000004
   16.84138870  126.95800018    0.56999999    2.73000002
   16.84444427  131.02200317    0.56999999    2.73000002
   16.84777832  124.37200165    0.56999999    2.73000002
   16.85083389  131.11700439    0.56999999    2.73000002
   16.85416794  131.60299683    0.56999999    2.73000002
   16.85750008  126.95300293    1.75000000    2.73000002
   16.86055565  132.21499634    3.34999990    2.71000004
   16.86388969  123.93399811    4.90999985    2.25000000
   16.86444473  137.97999573    4.90999985    2.39000010
   16.87027740  137.97999573    4.90999985    2.17000008
   16.87444496   -1.00000000    4.90999985    1.34000003
   16.87833405  108.87699890    4.90999985    1.63000000
   16.88166618  117.64700317    4.90999985    1.38000000
   16.88472176  209.85000610    4.90999985    1.94000006
   16.88805580  198.99000549    4.90999985    2.15000010
   16.89111137  148.31199646    4.90999985    2.15000010
   16.89444351  137.68499756    4.90999985    2.26999998
   16.89777756  142.25999451    4.90999985    2.36999989
   16.89805603  163.01300049    4.90999985    2.36999989
