    HOUR (UT)   FLARE FACTOR    SKY TESTER    SUN TESTER
   10.93000031   -1.00000000   -1.00000000   -1.00000000
   10.95027733  230.84300232    4.90999985    1.61000001
   10.95611095  206.10200500    4.90999985    1.61000001
   10.95944405  228.72500610    4.90999985    1.61000001
   10.96249962  182.56100464    4.90999985    1.61000001
   10.96583271  184.61799622    4.90999985    1.63000000
   10.96888828  196.65499878    4.90999985    1.63000000
   10.97222137  188.36099243    4.90999985    1.63000000
   10.97555542  200.91600037    4.90999985    1.64999998
   10.97861099  190.15299988    4.90999985    1.64999998
   10.98194408  193.86799622    4.90999985    1.64999998
   10.98361111  180.58500671    4.90999985    1.66999996
   10.98555565  184.09100342    4.90999985    1.66999996
   10.98888874  176.28100586    4.90999985    1.66999996
   10.99194431  170.85000610    4.90999985    1.66999996
   10.99527836  175.94299316    4.90999985    1.69000006
   10.99861145  177.08200073    4.90999985    1.69000006
   11.00166702  193.63800049    4.90999985    1.69000006
   11.00500011  146.17900085    4.90999985    1.69000006
   11.00833321  182.83200073    4.90999985    1.69000006
   11.01138878  168.51499939    4.90999985    1.71000004
   11.01472187  173.47300720    4.90999985    1.71000004
   11.01694393  175.57000732    4.90999985    1.71000004
   11.01805496  164.52900696    4.90999985    1.71000004
   11.02138901  182.09300232    4.90999985    1.71000004
   11.02472210  172.29200745    4.90999985    1.73000002
   11.02777767  191.46800232    4.90999985    1.73000002
   11.03111076  155.81100464    4.90999985    1.73000002
   11.03444481  169.91499329    4.90999985    1.73000002
   11.03777790  167.43099976    4.90999985    1.75000000
   11.04083347  156.15699768    4.90999985    1.75000000
   11.04416752  177.24600220    4.90999985    1.75000000
   11.04750061  163.52099609    4.90999985    1.76999998
   11.05027771  153.22700500    4.90999985    1.76999998
   11.05083370  171.54200745    4.90999985    1.75000000
   11.05416679  172.91799927    4.90999985    1.76999998
   11.05749989  166.57499695    4.90999985    1.76999998
   11.06055546  144.27699280    4.90999985    1.76999998
   11.06388950  149.72500610    4.90999985    1.76999998
   11.06722260  163.97999573    4.90999985    1.78999996
   11.07027817  166.74400330    4.90999985    1.78999996
   11.07361126  172.20700073    4.90999985    1.78999996
   11.07666683  155.24099731    4.90999985    1.78999996
   11.07999992  158.35499573    4.90999985    1.78999996
   11.08333302  148.37899780    4.90999985    1.78999996
   11.08361053  155.43099976    4.90999985    1.78999996
   11.08694458  163.66299438    4.90999985    1.80999994
   11.09027767  166.26899719    4.90999985    1.80999994
   11.09333324  151.91000366    4.90999985    1.80999994
   11.09666634  156.54699707    4.90999985    1.80999994
   11.10000038  149.33900452    4.90999985    1.83000004
   11.10305595  150.60600281    4.90999985    1.83000004
   11.10638905  135.74499512    4.90999985    1.85000002
   11.10944462  146.87800598    4.90999985    1.85000002
   11.11277771  154.69000244    4.90999985    1.85000002
   11.11611176  144.60600281    4.90999985    1.85000002
   11.11722279  146.25599670    4.90999985    1.86000001
   11.11972237  149.18099976    4.90999985    1.85000002
   11.12305546  159.97200012    4.90999985    1.85000002
   11.12611103  157.57099915    4.90999985    1.85000002
   11.12944412  146.86799622    4.90999985    1.86000001
   11.13277817  150.48399353    4.90999985    1.86000001
   11.13583279  143.49400330    4.90999985    1.86000001
   11.13916683  159.24400330    4.90999985    1.86000001
   11.14222240  160.12699890    4.90999985    1.88000000
   11.14555550  148.72300720    4.90999985    1.88000000
   11.14888859  145.81399536    4.90999985    1.88000000
   11.15055561  146.25399780    4.90999985    1.88000000
   11.15249920  146.59599304    4.90999985    1.88000000
   11.15583324  154.88200378    4.90999985    1.88000000
   11.15888882  149.64599609    4.90999985    1.88000000
   11.16222191  154.09500122    4.90999985    1.89999998
   11.16555500  144.67999268    4.90999985    1.88000000
   11.16861153  144.99200439    4.90999985    1.89999998
   11.17194462  150.47999573    4.90999985    1.89999998
   11.17500019  148.58299255    4.90999985    1.89999998
   11.17833328  154.46200562    4.90999985    1.91999996
   11.18166733  151.58399963    4.90999985    1.91999996
   11.18388939  146.36599731    4.90999985    1.91999996
   11.18527794  150.75500488    4.90999985    1.91999996
   11.18861103  156.71899414    4.90999985    1.91999996
   11.19166660  135.91700745    4.90999985    1.91999996
   11.19499969  146.06900024    4.90999985    1.91999996
   11.19833374  153.08500671    4.90999985    1.94000006
   11.20138836  126.72200012    4.90999985    1.94000006
   11.20472240  136.24200439    4.90999985    1.94000006
   11.20805550  132.86700439    4.90999985    1.94000006
   11.21111107  136.11099243    4.90999985    1.94000006
   11.21444416  143.32899475    4.90999985    1.96000004
   11.21722221  141.00999451    4.90999985    1.96000004
   11.21805477  151.72900391    4.90999985    1.96000004
   11.22138882  142.45899963    4.90999985    1.96000004
   11.22444439  136.46000671    4.90999985    1.96000004
   11.22777748  132.83999634    4.90999985    1.96000004
   11.23111057  137.37600708    4.90999985    1.96000004
   11.23416710  138.38499451    4.90999985    1.96000004
   11.23750019  142.36399841    4.90999985    1.96000004
   11.24083328  150.70500183    4.90999985    1.98000002
   11.24388885  131.61399841    4.90999985    1.98000002
   11.24722290  152.27200317    4.90999985    1.96000004
   11.25055599  136.61900330    4.90999985    1.98000002
   11.25083351  139.53599548    4.90999985    1.98000002
   11.25416660  145.18499756    4.90999985    1.98000002
   11.25722218  153.12399292    4.90999985    1.98000002
   11.26055527  146.00399780    4.90999985    1.98000002
   11.26388931  149.17799377    4.90999985    1.98000002
   11.26694393  140.72599792    4.90999985    2.00000000
   11.27027798  143.35499573    4.90999985    2.00000000
   11.27361107  151.52799988    4.90999985    2.00000000
   11.27666664  136.61000061    4.90999985    2.00000000
   11.27999973  146.45899963    4.90999985    2.01999998
   11.28333378  141.34300232    4.90999985    2.01999998
   11.28388977  132.03100586    4.90999985    2.01999998
   11.28666687  135.05299377    4.90999985    2.01999998
   11.29000092  129.32200623    4.90999985    2.01999998
   11.29305553  132.99600220    4.90999985    2.01999998
   11.29638958  133.65400696    4.90999985    2.03999996
   11.29972267  137.72500610    4.90999985    2.03999996
   11.30277824  145.99899292    4.90999985    2.03999996
   11.30611134  146.53100586    4.90999985    2.03999996
   11.30944443  133.16400146    4.90999985    2.03999996
   11.31250000  131.26499939    4.90999985    2.03999996
   11.31583309  130.70700073    4.90999985    2.03999996
   11.31722260  124.41300201    4.90999985    2.03999996
   11.31944466  131.76199341    4.90999985    2.05999994
   11.32277775  133.31399536    4.90999985    2.05999994
   11.32583332  130.91900635    4.90999985    2.05999994
   11.32916641  125.65699768    4.90999985    2.05999994
   11.33249950  135.37100220    4.90999985    2.05999994
   11.33555508  130.92300415    4.90999985    2.05999994
   11.33888817  124.10800171    4.90999985    2.07999992
   11.34222221  128.48300171    4.90999985    2.05999994
   11.34527779  133.37500000    4.90999985    2.07999992
   11.34861088  129.79100037    4.90999985    2.07999992
   11.35055637  132.32000732    4.90999985    2.07999992
   11.35222244  133.41999817    4.90999985    2.07999992
   11.35555553  127.87799835    4.90999985    2.07999992
   11.35861111  131.86500549    4.90999985    2.07999992
   11.36194515  136.52799988    4.90999985    2.07999992
   11.36527824  137.63299561    4.90999985    2.09999990
   11.36861134  140.47200012    4.90999985    2.07999992
   11.37166691  142.86900330    4.90999985    2.07999992
   11.37500000  138.45599365    4.90999985    2.09999990
   11.37833309  141.23500061    4.90999985    2.09999990
   11.38138866  136.38000488    4.90999985    2.09999990
   11.38388920  140.53900146    4.90999985    2.09999990
   11.38500023  137.33299255    4.90999985    2.09999990
   11.38833332  136.43899536    4.90999985    2.09999990
   11.39138889  128.00799561    4.90999985    2.09999990
   11.39472198  138.82400513    4.90999985    2.09999990
   11.39805508  150.16000366    4.90999985    2.09999990
   11.40111065  136.73599243    4.90999985    2.11999989
   11.40444374  134.33099365    4.90999985    2.11999989
   11.40777779  143.76199341    4.90999985    2.11999989
   11.41083336  141.34599304    4.90999985    2.11999989
   11.41416645  134.49400330    4.90999985    2.11999989
   11.41722298  142.60800171    4.90999985    2.11999989
   11.41777802  133.85699463    4.90999985    2.13000011
   11.42111111  129.45899963    4.90999985    2.13000011
   11.42416668  133.79499817    4.90999985    2.13000011
   11.42750072  141.76699829    4.90999985    2.13000011
   11.43083382  135.43400574    4.90999985    2.13000011
   11.43388939  137.54699707    4.90999985    2.13000011
   11.43722248  133.39100647    4.90999985    2.13000011
   11.44055557  140.55599976    4.90999985    2.13000011
   11.44361115  131.57699585    4.90999985    2.13000011
   11.44694424  131.71899414    4.90999985    2.13000011
   11.45055580  145.12500000    4.90999985    2.15000010
   11.45111084  132.94000244    4.90999985    2.15000010
   11.45416641  140.73800659    4.90999985    2.15000010
   11.45749950  142.32200623    4.90999985    2.15000010
   11.46083355  128.19900513    4.90999985    2.15000010
   11.46388912  145.79200745    4.90999985    2.15000010
   11.46722221  135.04899597    4.90999985    2.15000010
   11.47055531  124.03199768    4.90999985    2.15000010
   11.47361088  125.23899841    4.90999985    2.17000008
   11.47694397  127.62500000    4.90999985    2.17000008
   11.47999954  127.44899750    4.90999985    2.17000008
   11.48333359  126.94599915    4.90999985    2.17000008
   11.48444462  130.81599426    4.90999985    2.17000008
   11.48694515  129.16200256    4.90999985    2.17000008
   11.49027824  139.30599976    4.90999985    2.17000008
   11.49361134  132.10899353    4.90999985    2.17000008
   11.49666691  136.90800476    4.90999985    2.17000008
   11.50000000  122.65200043    4.90999985    2.17000008
   11.50333309  117.91100311    4.90999985    2.19000006
   11.50638866  132.40800476    4.90999985    2.17000008
   11.50972176  120.87999725    4.90999985    2.19000006
   11.51277733  122.62899780    4.90999985    2.19000006
   11.51611137  123.42600250    4.90999985    2.21000004
   11.51777744  124.94499969    4.90999985    2.19000006
   11.51999950  124.71299744    4.90999985    2.19000006
   11.52305508  127.34700012    4.90999985    2.19000006
   11.52638817  119.24299622    4.90999985    2.21000004
   11.52944374  140.72300720    4.90999985    2.21000004
   11.53277779  125.00499725    4.90999985    2.21000004
   11.53611183  122.92500305    4.90999985    2.19000006
   11.53916740  132.29699707    4.90999985    2.21000004
   11.54250050  133.28300476    4.90999985    2.21000004
   11.54583359  136.41200256    4.90999985    2.21000004
   11.54888916  125.74500275    4.90999985    2.21000004
   11.55111122  133.25900269    4.90999985    2.21000004
   11.55277824  127.71600342    4.90999985    2.21000004
   11.55583382  125.13800049    4.90999985    2.21000004
   11.55916691  128.42900085    4.90999985    2.21000004
   11.56222248  140.73199463    4.90999985    2.21000004
   11.56555557  127.33699799    4.90999985    2.23000002
   11.56888866  131.46299744    4.90999985    2.23000002
   11.57194424  128.70100403    4.90999985    2.23000002
   11.57527733  127.42500305    4.90999985    2.23000002
   11.57861137  122.39499664    4.90999985    2.23000002
   11.58166695  130.56799316    4.90999985    2.23000002
   11.58444405  121.21499634    4.90999985    2.23000002
   11.58555508  129.09599304    4.90999985    2.23000002
   11.58861065  120.94100189    4.90999985    2.23000002
   11.59194374  124.44000244    4.90999985    2.23000002
   11.59499931  119.69799805    4.90999985    2.25000000
   11.59833336  126.93800354    4.90999985    2.23000002
   11.60166740  128.61599731    4.90999985    2.25000000
   11.60472298  135.33999634    4.90999985    2.23000002
   11.60805607  134.38800049    4.90999985    2.25000000
   11.61111164  134.84199524    4.90999985    2.23000002
   11.61444473  129.16600037    4.90999985    2.25000000
   11.61777782  127.65000153    4.90999985    2.25000000
   11.61805534  129.67999268    4.90999985    2.25000000
   11.62138939  125.57900238    4.90999985    2.23000002
   11.62472248  132.05200195    4.90999985    2.25000000
   11.62777805  119.98899841    4.90999985    2.25000000
   11.63111115  123.20600128    4.90999985    2.26999998
   11.63444424  124.78399658    4.90999985    2.25000000
   11.63749981  124.54799652    4.90999985    2.26999998
   11.64083290  122.15599823    4.90999985    2.26999998
   11.64388847  120.50399780    4.90999985    2.26999998
   11.64722252  122.47399902    4.90999985    2.26999998
   11.65055561  117.53099823    4.90999985    2.26999998
   11.65111065  120.39900208    4.90999985    2.26999998
   11.65416622  118.04100037    4.90999985    2.26999998
   11.65722179  121.98500061    4.90999985    2.26999998
   11.66055489  122.97200012    4.90999985    2.26999998
   11.66361046  120.79299927    4.90999985    2.28999996
   11.66694450  120.63800049    4.90999985    2.28999996
   11.67027855  116.19400024    4.90999985    2.28999996
   11.67333412  133.49699402    4.90999985    2.28999996
   11.67666721  121.75599670    4.90999985    2.28999996
   11.68000031  122.92500305    4.90999985    2.28999996
   11.68305588  126.40899658    4.90999985    2.28999996
   11.68444443  122.91400146    4.90999985    2.26999998
   11.68694496  129.41900635    4.90999985    2.28999996
   11.69000053  123.87699890    4.90999985    2.28999996
   11.69333363  126.26899719    4.90999985    2.28999996
   11.69638920  120.08799744    4.90999985    2.28999996
   11.69972229  123.91300201    4.90999985    2.30999994
   11.70305538  124.04399872    4.90999985    2.30999994
   11.70638847  121.29499817    4.90999985    2.30999994
   11.70944405  128.49499512    4.90999985    2.30999994
   11.71277714  122.50199890    4.90999985    2.30999994
   11.71583271  127.67199707    4.90999985    2.30999994
   11.71777725  125.11599731    4.90999985    2.30999994
   11.71972179  118.91600037    4.90999985    2.30999994
   11.72277737  115.42099762    4.90999985    2.30999994
   11.72611046  117.29000092    4.90999985    2.30999994
   11.72916603  122.19599915    4.90999985    2.32999992
   11.73249912  122.53600311    4.90999985    2.30999994
   11.73583317  122.77700043    4.90999985    2.30999994
   11.73888874  124.72899628    4.90999985    2.32999992
   11.74222279  133.80900574    4.90999985    2.32999992
   11.74555588  127.89900208    4.90999985    2.32999992
   11.74861145  130.66799927    4.90999985    2.32999992
   11.75111103  122.55599976    4.90999985    2.32999992
   11.75249958  128.51400757    4.90999985    2.32999992
   11.75555515  123.51300049    4.90999985    2.32999992
   11.75888920  122.43499756    4.90999985    2.32999992
   11.76194477  124.62699890    4.90999985    2.32999992
   11.76527786  124.62699890    4.90999985    2.32999992
   11.76861095  123.06199646    4.90999985    2.32999992
   11.77166653  117.67299652    4.90999985    2.32999992
   11.77499962  119.40599823    4.90999985    2.32999992
   11.77833271  126.77600098    4.90999985    2.32999992
   11.78138828  125.90599823    4.90999985    2.32999992
   11.78444481  129.82000732    4.90999985    2.32999992
   11.78527832  125.82299805    4.90999985    2.34999990
   11.78833389  127.54599762    4.90999985    2.32999992
   11.79166698  119.47100067    4.90999985    2.32999992
   11.79472256  128.13600159    4.90999985    2.34999990
   11.79805565  128.79299927    4.90999985    2.34999990
   11.80138874  134.45100403    4.90999985    2.34999990
   11.80444431  121.12699890    4.90999985    2.34999990
   11.80777836  125.33699799    4.90999985    2.34999990
   11.81111145  126.68499756    4.90999985    2.34999990
   11.81416702  123.06800079    4.90999985    2.34999990
   11.81750011  119.75199890    4.90999985    2.34999990
   11.81805515  123.45200348    4.90999985    2.34999990
   11.82111073  124.93900299    4.90999985    2.34999990
   11.82444477  119.22000122    4.90999985    2.34999990
   11.82750034  121.24600220    4.90999985    2.34999990
   11.83083344  129.16999817    4.90999985    2.34999990
   11.83416653  122.03800201    4.90999985    2.34999990
   11.83722210  129.94400024    4.90999985    2.36999989
   11.84055519  113.39900208    4.90999985    2.34999990
   11.84388828  119.18499756    4.90999985    2.36999989
   11.84694386  121.95400238    4.90999985    2.34999990
   11.85027790  122.78299713    4.90999985    2.36999989
   11.85138893  118.38899994    4.90999985    2.34999990
   11.85361195  121.86399841    4.90999985    2.36999989
   11.85694504  120.31800079    4.90999985    2.36999989
   11.86000061  124.46099854    4.90999985    2.39000010
   11.86333370  114.96600342    4.90999985    2.36999989
   11.86666679  123.21700287    4.90999985    2.36999989
   11.86972237  117.08999634    4.90999985    2.36999989
   11.87305546  122.57700348    4.90999985    2.39000010
   11.87638855  124.80200195    4.90999985    2.36999989
   11.87944412  126.00099945    4.90999985    2.36999989
   11.88277817  117.81300354    4.90999985    2.36999989
   11.88472176  120.66899872    4.90999985    2.36999989
   11.88638878  120.46800232    4.90999985    2.39000010
   11.88972187  123.50299835    4.90999985    2.39000010
   11.89277744  114.19100189    4.90999985    2.39000010
   11.89611053  123.71700287    4.90999985    2.39000010
   11.89944458  125.34500122    4.90999985    2.39000010
   11.90249920  116.53399658    4.90999985    2.39000010
   11.90583324  123.55599976    4.90999985    2.39000010
   11.90916634  122.43399811    4.90999985    2.39000010
   11.91222191  126.64199829    4.90999985    2.39000010
   11.91555500  124.80699921    4.90999985    2.39000010
   11.91805553  139.12500000    4.90999985    2.39000010
   11.91916656  136.34899902    4.90999985    2.39000010
   11.92250061  130.22799683    4.90999985    2.39000010
   11.92555618  128.78999329    4.90999985    2.39000010
   11.92888927  135.20500183    4.90999985    2.40000010
   11.93222237  136.68800354    4.90999985    2.39000010
   11.93527794  143.45100403    4.90999985    2.39000010
   11.93861103  136.68200684    4.90999985    2.39000010
   11.94194412  137.41099548    4.90999985    2.39000010
   11.94499969  132.99000549    4.90999985    2.39000010
   11.94833374  136.19400024    4.90999985    2.40000010
   11.96694374  151.54800415    4.90999985    2.40000010
   11.96833324  132.00599670    4.90999985    2.40000010
   11.97138882  145.27200317    4.90999985    2.40000010
   11.97472191  145.92700195    4.90999985    2.40000010
   11.97777748  127.36699677    4.90999985    2.40000010
   11.98111057  131.90299988    4.90999985    2.40000010
   11.98444462  122.31600189    4.90999985    2.40000010
   11.98750019  134.25000000    4.90999985    2.42000008
   11.99083328  126.20300293    4.90999985    2.40000010
   11.99416733  132.50300598    4.90999985    2.42000008
   11.99722290  133.69000244    4.90999985    2.42000008
   12.00027752  131.14100647    4.90999985    2.42000008
   12.00083351  128.06700134    4.90999985    2.42000008
   12.00416660  126.88500214    4.90999985    2.42000008
   12.00722218  112.21700287    4.90999985    2.44000006
   12.01055527  131.82299805    4.90999985    2.42000008
   12.01388931  133.74600220    4.90999985    2.40000010
   12.01694393  136.54800415    4.90999985    2.42000008
   12.02027798  126.01399994    4.90999985    2.42000008
   12.02361107  116.99600220    4.90999985    2.42000008
   12.02666664  116.61299896    4.90999985    2.44000006
   12.02999973  113.66500092    4.90999985    2.44000006
   12.03305531  118.63700104    4.90999985    2.42000008
   12.03388977  120.17900085    4.90999985    2.42000008
   12.03694534  113.83200073    4.90999985    2.44000006
   12.04027843  122.53700256    4.90999985    2.44000006
   12.04333401  117.87300110    4.90999985    2.42000008
   12.04666710  113.06999969    4.90999985    2.42000008
   12.05000019  117.04599762    4.90999985    2.42000008
   12.05305576  117.05999756    4.90999985    2.44000006
   12.05638885  121.16300201    4.90999985    2.44000006
   12.05972195  118.15200043    4.90999985    2.44000006
   12.06277752  118.63099670    4.90999985    2.44000006
   12.06611156  121.01100159    4.90999985    2.44000006
   12.06694412  124.82199860    4.90999985    2.44000006
   12.06972218  123.71499634    4.90999985    2.46000004
   12.07305527  123.83799744    4.90999985    2.44000006
   12.07611084  113.13500214    4.90999985    2.46000004
   12.07944393  121.09799957    4.90999985    2.44000006
   12.08277798  109.89499664    4.90999985    2.46000004
   12.08583260  124.65299988    4.90999985    2.46000004
   12.08916664  113.62899780    4.90999985    2.46000004
   12.09249973  120.51599884    4.90999985    2.46000004
   12.09555531  123.51999664    4.90999985    2.46000004
   12.09888840  112.16699982    4.90999985    2.46000004
   12.10055637  112.81400299    4.90999985    2.46000004
   12.10249996  124.44499969    4.90999985    2.46000004
   12.10583401  117.68099976    4.90999985    2.46000004
   12.10888958  117.20400238    4.90999985    2.46000004
   12.11222267  114.60700226    4.90999985    2.46000004
   12.11555576  116.37100220    4.90999985    2.46000004
   12.11888885  114.91100311    4.90999985    2.46000004
   12.12194443  114.47699738    4.90999985    2.46000004
   12.12527752  118.92600250    4.90999985    2.46000004
   12.12861156  120.16500092    4.90999985    2.46000004
   12.13166714  123.58999634    4.90999985    2.46000004
   12.13388920  110.32499695    4.90999985    2.46000004
   12.13527775  117.17199707    4.90999985    2.46000004
   12.13861084  126.67900085    4.90999985    2.46000004
   12.14166641  114.90299988    4.90999985    2.46000004
   12.14499950  117.85299683    4.90999985    2.46000004
   12.14833355  115.00900269    4.90999985    2.48000002
   12.15138817  111.68000031    4.90999985    2.46000004
   12.15472221  114.29900360    4.90999985    2.46000004
   12.15805531  110.68199921    4.90999985    2.46000004
   12.16111088  112.00499725    4.90999985    2.48000002
   12.16444397  114.18599701    4.90999985    2.46000004
   12.16722298  111.83000183    4.90999985    2.46000004
   12.16805553  106.29799652    4.90999985    2.46000004
   12.17138958  112.72000122    4.90999985    2.46000004
   12.17444515  110.22299957    4.90999985    2.48000002
   12.17777824  121.16100311    4.90999985    2.48000002
   12.18111134  114.65899658    4.90999985    2.48000002
   12.18416691  113.89199829    4.90999985    2.48000002
   12.18750000  123.17400360    4.90999985    2.48000002
   12.19083309  116.06099701    4.90999985    2.48000002
   12.19388866  114.87799835    4.90999985    2.48000002
   12.19722271  119.48400116    4.90999985    2.48000002
   12.20055580  121.87899780    4.90999985    2.48000002
   12.20083332  111.54699707    4.90999985    2.46000004
   12.20416641  122.13500214    4.90999985    2.48000002
   12.20749950  123.29100037    4.90999985    2.48000002
   12.21055508  115.95500183    4.90999985    2.48000002
   12.21388912  120.63800049    4.90999985    2.48000002
   12.21722221  114.07099915    4.90999985    2.50000000
   12.22027779  113.71299744    4.90999985    2.50000000
   12.22361088  110.98600006    4.90999985    2.50000000
   12.22666645  105.90499878    4.90999985    2.48000002
   12.22999954  115.27600098    4.90999985    2.48000002
   12.23333359  110.55999756    4.90999985    2.50000000
   12.23388958  112.80100250    4.90999985    2.50000000
   12.23666668  112.75499725    4.90999985    2.48000002
   12.24000072  111.48300171    4.90999985    2.50000000
   12.24305534  116.86399841    4.90999985    2.50000000
   12.24638939  113.53199768    4.90999985    2.50000000
   12.24972248  114.13200378    4.90999985    2.48000002
   12.25277805  110.49500275    4.90999985    2.50000000
   12.25611115  112.54399872    4.90999985    2.50000000
   12.25944424  109.34700012    4.90999985    2.50000000
   12.26249981  110.25099945    4.90999985    2.50000000
   12.26583290  112.95800018    4.90999985    2.50000000
   12.26722240  113.90399933    4.90999985    2.50000000
   12.26944447  119.73300171    4.90999985    2.50000000
   12.27277756  113.91100311    4.90999985    2.50000000
   12.27583313  115.25099945    4.90999985    2.50000000
   12.27916622  111.06500244    4.90999985    2.51999998
   12.28249931  117.25499725    4.90999985    2.51999998
   12.28555584  116.93199921    4.90999985    2.51999998
   12.28888893  116.57399750    4.90999985    2.50000000
   12.29222298  114.03600311    4.90999985    2.51999998
   12.29527855  113.07599640    4.90999985    2.50000000
   12.29861164  109.05300140    4.90999985    2.50000000
   12.30055618  110.22599792    4.90999985    2.51999998
   12.30222225  113.16600037    4.90999985    2.50000000
   12.30555534  111.69599915    4.90999985    2.51999998
   12.30888939  117.92800140    4.90999985    2.50000000
   12.31194496  107.29799652    4.90999985    2.50000000
   12.31527805  112.87599945    4.90999985    2.51999998
   12.31833363  112.85600281    4.90999985    2.51999998
   12.32166672  106.68900299    4.90999985    2.51999998
   12.32499981  108.70200348    4.90999985    2.51999998
   12.32805538  111.86100006    4.90999985    2.50000000
   12.33138847  113.09100342    4.90999985    2.51999998
   12.33388901  114.99400330    4.90999985    2.51999998
   12.33500004  105.18000031    4.90999985    2.51999998
   12.33833313  110.05899811    4.90999985    2.51999998
   12.34166622  111.72200012    4.90999985    2.51999998
   12.34472179  106.18000031    4.90999985    2.51999998
   12.34805489  117.53600311    4.90999985    2.51999998
   12.35111141  121.46499634    4.90999985    2.51999998
   12.35444450  119.36000061    4.90999985    2.51999998
   12.35777855  109.93499756    4.90999985    2.51999998
   12.36083412  113.31999969    4.90999985    2.51999998
   12.36416721  116.68800354    4.90999985    2.53999996
   12.36722279  113.41699982    4.90999985    2.53999996
   12.36777782  114.66300201    4.90999985    2.53999996
   12.37111092  110.36000061    4.90999985    2.53999996
   12.37444496  107.07499695    4.90999985    2.51999998
   12.37750053  115.02600098    4.90999985    2.53999996
   12.38083363  111.59999847    4.90999985    2.53999996
   12.38388920  116.96499634    4.90999985    2.53999996
   12.38722229  122.51200104    4.90999985    2.53999996
   12.39055538  116.56300354    4.90999985    2.53999996
   12.39361095  115.21199799    4.90999985    2.53999996
   12.39694405  109.10099792    4.90999985    2.53999996
   12.40027714  108.38700104    4.90999985    2.53999996
   12.40055561  116.94899750    4.90999985    2.53999996
   12.40388870  114.61699677    4.90999985    2.53999996
   12.40722179  109.80300140    4.90999985    2.53999996
   12.41027737  108.14499664    4.90999985    2.53999996
   12.41361046  112.38899994    4.90999985    2.53999996
   12.41666698  106.80999756    4.90999985    2.53999996
   12.42000008  111.66100311    4.90999985    2.53999996
   12.42333412  114.94999695    4.90999985    2.53999996
   12.42638874  107.09600067    4.90999985    2.53999996
   12.42972279  114.28099823    4.90999985    2.53999996
   12.43305588  115.75000000    4.90999985    2.53999996
   12.43388939  116.88600159    4.90999985    2.55999994
   12.43638897  119.48300171    4.90999985    2.53999996
   12.43972206  116.32499695    4.90999985    2.53999996
   12.44277763  115.77799988    4.90999985    2.53999996
   12.44611073  111.14299774    4.90999985    2.55999994
   12.44944477  114.60500336    4.90999985    2.53999996
   12.45249939  108.52300262    4.90999985    2.55999994
   12.45583344  112.93900299    4.90999985    2.53999996
   12.45888901  106.21199799    4.90999985    2.55999994
   12.46222210  111.20400238    4.90999985    2.53999996
   12.46555519  105.93399811    4.90999985    2.53999996
   12.46722221  116.65499878    4.90999985    2.55999994
   12.46916580  102.40499878    4.90999985    2.55999994
   12.47249985  107.79599762    4.90999985    2.53999996
   12.47555542  111.48300171    4.90999985    2.55999994
   12.47888851  110.92400360    4.90999985    2.53999996
   12.48222160  110.76999664    4.90999985    2.53999996
   12.48527813  110.49700165    4.90999985    2.55999994
   12.48861122  108.62300110    4.90999985    2.55999994
   12.49166679  107.97299957    4.90999985    2.55999994
   12.49499989  114.83499908    4.90999985    2.55999994
   12.49833393  112.96099854    4.90999985    2.55999994
   12.50055599  104.29599762    4.90999985    2.55999994
   12.50194454  116.03600311    4.90999985    2.53999996
   12.50527763  110.85600281    4.90999985    2.55999994
   12.50833321  115.73400116    4.90999985    2.55999994
   12.51166630  113.10700226    4.90999985    2.55999994
   12.51472187  110.20300293    4.90999985    2.55999994
   12.51805496  112.13899994    4.90999985    2.55999994
   12.52138901  107.16500092    4.90999985    2.55999994
   12.52444458  110.99400330    4.90999985    2.55999994
   12.52777767  114.28199768    4.90999985    2.55999994
   12.53111076  107.58599854    4.90999985    2.55999994
   12.53388977  108.34100342    4.90999985    2.55999994
   12.53444481  109.86499786    4.90999985    2.55999994
   12.53777790  112.94400024    4.90999985    2.55999994
   12.54083347  113.07499695    4.90999985    2.55999994
   12.54416752  109.11799622    4.90999985    2.55999994
   12.54722309  113.26399994    4.90999985    2.55999994
   12.55055618  110.30300140    4.90999985    2.55999994
   12.55388927  113.81500244    4.90999985    2.55999994
   12.55694485  109.61199951    4.90999985    2.55999994
   12.56027794  112.65299988    4.90999985    2.57999992
   12.56361103  111.22299957    4.90999985    2.55999994
   12.56666660  110.16500092    4.90999985    2.55999994
   12.56722260  108.48300171    4.90999985    2.57999992
   12.57027817  108.19999695    4.90999985    2.55999994
   12.57361126  104.90000153    4.90999985    2.57999992
   12.57666683  109.89900208    4.90999985    2.55999994
   12.57999992  112.91699982    4.90999985    2.57999992
   12.58333302  116.13600159    4.90999985    2.57999992
   12.58638859  112.35500336    4.90999985    2.57999992
   12.58972168  116.45600128    4.90999985    2.55999994
   12.59277725  116.30899811    4.90999985    2.57999992
   12.59611034  114.32700348    4.90999985    2.57999992
   12.59944439  109.44599915    4.90999985    2.57999992
   12.60055637  113.37200165    4.90999985    2.55999994
   12.60305595  113.85500336    4.90999985    2.57999992
   12.60638905  111.26699829    4.90999985    2.57999992
   12.60944462  123.42400360    4.90999985    2.57999992
   12.61277771  115.08999634    4.90999985    2.57999992
   12.61611176  107.88700104    4.90999985    2.57999992
   12.61916637  112.42099762    4.90999985    2.59999990
   12.62250042  111.59300232    4.90999985    2.57999992
   12.62583351  109.04900360    4.90999985    2.57999992
   12.62888908  120.07199860    4.90999985    2.57999992
   12.63222218  114.75099945    4.90999985    2.59999990
   12.63388920  108.71299744    4.90999985    2.59999990
   12.63583279  110.23999786    4.90999985    2.57999992
   12.63916683  107.37300110    4.90999985    2.59999990
   12.64222240  111.69699860    4.90999985    2.59999990
   12.64555550  103.52500153    4.90999985    2.57999992
   12.64888859  108.90799713    4.90999985    2.57999992
   12.65194416  115.54199982    4.90999985    2.59999990
   12.65527725  120.28299713    4.90999985    2.59999990
   12.65833282  115.60800171    4.90999985    2.59999990
   12.66166592  108.83100128    4.90999985    2.57999992
   12.66499996  113.95300293    4.90999985    2.57999992
   12.66722298  111.71499634    4.90999985    2.57999992
   12.66861153  115.37400055    4.90999985    2.59999990
   12.67194462  110.87300110    4.90999985    2.59999990
   12.67500019  111.76499939    4.90999985    2.59999990
   12.67833328  114.60600281    4.90999985    2.57999992
   12.68166733  112.54000092    4.90999985    2.59999990
   12.68472195  113.47499847    4.90999985    2.59999990
   12.68805599  112.04199982    4.90999985    2.59999990
   12.69111156  116.06999969    4.90999985    2.57999992
   12.69444466  110.41999817    4.90999985    2.59999990
   12.69777775  119.27600098    4.90999985    2.59999990
   12.70055580  115.59799957    4.90999985    2.59999990
   12.70138836  109.87000275    4.90999985    2.59999990
   12.70472240  107.69899750    4.90999985    2.59999990
   12.70777798  110.65100098    4.90999985    2.59999990
   12.71111107  107.73899841    4.90999985    2.59999990
   12.71444416  116.49099731    4.90999985    2.59999990
   12.71749973  111.30000305    4.90999985    2.61999989
   12.72083282  114.85299683    4.90999985    2.59999990
   12.72388840  112.05799866    4.90999985    2.59999990
   12.72722149  119.73200226    4.90999985    2.59999990
   12.73055553  108.92900085    4.90999985    2.59999990
   12.73361111  105.62599945    4.90999985    2.59999990
   12.73416710  111.05599976    4.90999985    2.59999990
   12.73750019  104.08899689    4.90999985    2.59999990
   12.74055576  110.33799744    4.90999985    2.61999989
   12.74388885  110.82399750    4.90999985    2.59999990
   12.74722290  112.76999664    4.90999985    2.59999990
   12.75027752  108.52500153    4.90999985    2.59999990
   12.75361156  117.86399841    4.90999985    2.59999990
   12.75666714  117.80599976    4.90999985    2.59999990
   12.76000023  110.23600006    4.90999985    2.61999989
   12.76333332  108.05400085    4.90999985    2.59999990
   12.76638889  116.92500305    4.90999985    2.59999990
   12.76749992  119.23300171    4.90999985    2.61999989
   12.76999950  107.28199768    4.90999985    2.61999989
   12.77305508  108.33000183    4.90999985    2.61999989
   12.77638817  111.99099731    4.90999985    2.61999989
   12.77972221  117.26899719    4.90999985    2.59999990
   12.78277779  102.80500031    4.90999985    2.59999990
   12.78611183  106.89399719    4.90999985    2.59999990
   12.78944492  113.59899902    4.90999985    2.59999990
   12.79250050  107.63600159    4.90999985    2.61999989
   12.79583359  103.54900360    4.90999985    2.61999989
   12.79888916  107.16600037    4.90999985    2.61999989
   12.80083370  107.35600281    4.90999985    2.59999990
   12.80277824  103.92600250    4.90999985    2.61999989
   12.80583382  109.84799957    4.90999985    2.61999989
   12.80916691  108.64099884    4.90999985    2.61999989
   12.81250000  106.18699646    4.90999985    2.61999989
   12.81555557  104.80500031    4.90999985    2.59999990
   12.81888866  110.30500031    4.90999985    2.61999989
   12.82222176  116.34799957    4.90999985    2.64000010
   12.82527733  116.21800232    4.90999985    2.61999989
   12.82861137  108.45500183    4.90999985    2.64000010
   12.83166695  110.65000153    4.90999985    2.61999989
   12.83416653  103.48100281    4.90999985    2.61999989
   12.83555508  108.04599762    4.90999985    2.61999989
   12.83861065  109.10600281    4.90999985    2.64000010
   12.84194374  107.01399994    4.90999985    2.59999990
   12.84527779  114.75199890    4.90999985    2.61999989
   12.84833336  109.70700073    4.90999985    2.61999989
   12.85166740  106.12100220    4.90999985    2.61999989
   12.85500050  114.15000153    4.90999985    2.61999989
   12.85805607  107.64299774    4.90999985    2.61999989
   12.86138916  110.69499969    4.90999985    2.61999989
   12.86444473  109.46299744    4.90999985    2.64000010
   12.86750031  104.84899902    4.90999985    2.61999989
   12.86833382  103.03299713    4.90999985    2.61999989
   12.87138939  102.79699707    4.90999985    2.61999989
   12.87472248  104.95899963    4.90999985    2.61999989
   12.87805557  110.82199860    4.90999985    2.61999989
   12.88111115  106.80699921    4.90999985    2.64000010
   12.88444424  108.29199982    4.90999985    2.64000010
   12.88749981  108.29399872    4.90999985    2.61999989
   12.89083290  113.24800110    4.90999985    2.61999989
   12.89416695  108.34600067    4.90999985    2.61999989
   12.89722252  110.37100220    4.90999985    2.64000010
   12.90055561  108.51200104    4.90999985    2.64000010
   12.90111065  112.76100159    4.90999985    2.64000010
   12.90388870  117.61000061    4.90999985    2.64000010
   12.90722179  109.86799622    4.90999985    2.61999989
   12.91055489  115.38999939    4.90999985    2.61999989
   12.91361046  109.16400146    4.90999985    2.64000010
   12.91694450  103.99500275    4.90999985    2.64000010
   12.92000008  106.39399719    4.90999985    2.61999989
   12.92333412  105.01200104    4.90999985    2.64000010
   12.92666721  103.94799805    4.90999985    2.64000010
   12.92972279  107.68399811    4.90999985    2.64000010
   12.93305588  121.67500305    4.90999985    2.64000010
   12.93444443  110.28800201    4.90999985    2.64000010
   12.93666649   99.40619659    4.90999985    2.64000010
   12.94000053  108.37200165    4.90999985    2.64000010
   12.94333363  109.71600342    4.90999985    2.64000010
   12.94638920  108.07399750    4.90999985    2.64000010
   12.94972229  108.52500153    4.90999985    2.64000010
   12.95277786  112.32700348    4.90999985    2.64000010
   12.95611095  109.51499939    4.90999985    2.64000010
   12.95944405  112.51399994    4.90999985    2.64000010
   12.96249962  108.98200226    4.90999985    2.66000009
   12.96583271  106.62500000    4.90999985    2.64000010
   12.98361111  108.60600281    4.90999985    2.64000010
   12.98555565  102.80999756    4.90999985    2.66000009
   12.98888874  100.38800049    4.90999985    2.64000010
   12.99222279  102.75299835    4.90999985    2.64000010
   12.99527836  106.50399780    4.90999985    2.64000010
   12.99861145  104.72699738    4.90999985    2.64000010
   13.00166702  103.42199707    4.90999985    2.64000010
   13.00500011  104.29499817    4.90999985    2.66000009
   13.00833321  110.07199860    4.90999985    2.64000010
   13.01138878  109.51699829    4.90999985    2.64000010
   13.01472187  115.18699646    4.90999985    2.64000010
   13.01666641  108.36499786    4.90999985    2.64000010
   13.01833344  110.93199921    4.90999985    2.64000010
   13.02138901  109.69499969    4.90999985    2.64000010
   13.02472210  112.39299774    4.90999985    2.66000009
   13.02805519  113.99299622    4.90999985    2.64000010
   13.03111076  113.92900085    4.90999985    2.64000010
   13.03444481  108.41799927    4.90999985    2.64000010
   13.03777790  117.86399841    4.90999985    2.64000010
   13.04083347  104.19300079    4.90999985    2.64000010
   13.04416752  113.67299652    4.90999985    2.64000010
   13.04750061  115.19899750    4.90999985    2.64000010
   13.05027771  105.21600342    4.90999985    2.66000009
   13.05111122  111.50000000    4.90999985    2.66000009
   13.05444431  112.13099670    4.90999985    2.66000009
   13.05749989  110.87999725    4.90999985    2.66000009
   13.06083393  107.56500244    4.90999985    2.67000008
   13.06416702  106.45500183    4.90999985    2.64000010
   13.06722260  105.96800232    4.90999985    2.64000010
   13.07055569  104.88600159    4.90999985    2.64000010
   13.07388878  106.67700195    4.90999985    2.66000009
   13.07694435  111.07900238    4.90999985    2.66000009
   13.08027744  108.67199707    4.90999985    2.66000009
   13.08361053  113.36299896    4.90999985    2.66000009
   13.08388901  105.63200378    4.90999985    2.66000009
   13.08722210  109.92299652    4.90999985    2.66000009
   13.09027767  107.77200317    4.90999985    2.66000009
   13.09361076  109.39900208    4.90999985    2.66000009
   13.09694386  108.82700348    4.90999985    2.66000009
   13.10000038  110.94200134    4.90999985    2.66000009
   13.10333347  107.99800110    4.90999985    2.66000009
   13.10666752  109.62000275    4.90999985    2.66000009
   13.10972214  108.52300262    4.90999985    2.66000009
   13.11305618  109.04000092    4.90999985    2.66000009
   13.11611176  105.95800018    4.90999985    2.66000009
   13.11694431  106.16899872    4.90999985    2.66000009
   13.11972237  106.10700226    4.90999985    2.66000009
   13.12305546  108.69699860    4.90999985    2.66000009
   13.12611103  102.86499786    4.90999985    2.66000009
   13.12944412  106.26899719    4.90999985    2.66000009
   13.13277817  105.60600281    4.90999985    2.66000009
   13.13611126  103.62300110    4.90999985    2.66000009
   13.13916683  104.64800262    4.90999985    2.66000009
   13.14249992  110.56300354    4.90999985    2.66000009
   13.14555550  103.94400024    4.90999985    2.67000008
   13.14888859  103.29100037    4.90999985    2.66000009
   13.15027714  108.92700195    4.90999985    2.66000009
   13.15249920  104.63099670    4.90999985    2.67000008
   13.15583324  113.98899841    4.90999985    2.66000009
   13.15916634  109.74299622    4.90999985    2.66000009
   13.16222191  109.38899994    4.90999985    2.66000009
   13.16555500  105.15200043    4.90999985    2.66000009
   13.16861153  110.45099640    4.90999985    2.67000008
   13.17194462  108.78500366    4.90999985    2.67000008
   13.17527771  108.36599731    4.90999985    2.67000008
   13.17833328  103.27600098    4.90999985    2.66000009
   13.18166733  100.64900208    4.90999985    2.67000008
   13.18361092  102.50499725    4.90999985    2.67000008
   13.18527794  104.79900360    4.90999985    2.67000008
   13.18861103  104.55999756    4.90999985    2.67000008
   13.19194412  102.95500183    4.90999985    2.66000009
   13.19499969  110.20200348    4.90999985    2.66000009
   13.19833374  107.92199707    4.90999985    2.66000009
   13.20138836  112.28800201    4.90999985    2.67000008
   13.20472240  107.84200287    4.90999985    2.67000008
   13.20805550  105.16200256    4.90999985    2.67000008
   13.21111107  113.91400146    4.90999985    2.67000008
   13.21444416  109.24500275    4.90999985    2.67000008
   13.21694374  101.75399780    4.90999985    2.67000008
   13.21805477  108.15899658    4.90999985    2.66000009
   13.22138882  100.91400146    4.90999985    2.66000009
   13.22472191  104.81500244    4.90999985    2.67000008
   13.22777748  102.77300262    4.90999985    2.66000009
   13.23111057  109.08100128    4.90999985    2.67000008
   13.23416710  118.90699768    4.90999985    2.66000009
   13.23750019  108.80100250    4.90999985    2.67000008
   13.24083328  104.64900208    4.90999985    2.66000009
   13.24388885  106.29100037    4.90999985    2.67000008
   13.24722290  108.95999908    4.90999985    2.67000008
   13.25027752  107.65200043    4.90999985    2.67000008
   13.25083351  103.72799683    4.90999985    2.67000008
   13.25416660   98.83010101    4.90999985    2.67000008
   13.25749969  102.90000153    4.90999985    2.67000008
   13.26055527  100.85399628    4.90999985    2.67000008
   13.26388931  109.28500366    4.90999985    2.67000008
   13.26694393  106.26399994    4.90999985    2.67000008
   13.27027798   99.31839752    4.90999985    2.67000008
   13.27361107   97.76280212    4.90999985    2.67000008
   13.27666664   98.58039856    4.90999985    2.69000006
   13.27999973  100.89399719    4.90999985    2.67000008
   13.28333378  103.15799713    4.90999985    2.67000008
   13.28361130  105.42199707    4.90999985    2.67000008
   13.28694534   98.09500122    4.90999985    2.66000009
   13.29027843  101.82900238    4.90999985    2.67000008
   13.29333401   98.11409760    4.90999985    2.67000008
   13.29666710  104.05000305    4.90999985    2.67000008
   13.29972267  103.04699707    4.90999985    2.67000008
   13.30305576  108.82599640    4.90999985    2.67000008
   13.30638885  101.54699707    4.90999985    2.67000008
   13.30972195  111.25000000    4.90999985    2.67000008
   13.31277752  112.50399780    4.90999985    2.67000008
   13.31611156  105.10199738    4.90999985    2.67000008
   13.31694412  104.67800140    4.90999985    2.67000008
   13.31972218  117.50900269    4.90999985    2.67000008
   13.32277775  108.21099854    4.90999985    2.69000006
   13.32611084  112.25299835    4.90999985    2.67000008
   13.32944393  106.87200165    4.90999985    2.67000008
   13.33249950  110.31099701    4.90999985    2.69000006
   13.33583260  105.15799713    4.90999985    2.67000008
   13.33916664  106.86000061    4.90999985    2.69000006
   13.34222221  111.65399933    4.90999985    2.67000008
   13.34555531  105.98899841    4.90999985    2.69000006
   13.34861088   99.78700256    4.90999985    2.69000006
   13.35027790  100.94300079    4.90999985    2.67000008
   13.35249996  107.42299652    4.90999985    2.67000008
   13.35555553   94.80439758    4.90999985    2.69000006
   13.35888958  100.87100220    4.90999985    2.67000008
   13.36222267   97.16680145    4.90999985    2.69000006
   13.36527824  102.08399963    4.90999985    2.69000006
   13.36861134  105.23999786    4.90999985    2.69000006
   13.37194443  103.19899750    4.90999985    2.69000006
   13.37500000  103.57099915    4.90999985    2.69000006
   13.37833309   98.08300018    4.90999985    2.67000008
   13.38166714   95.76170349    4.90999985    2.69000006
   13.38361073  103.46199799    4.90999985    2.67000008
   13.38527775  103.34600067    4.90999985    2.69000006
   13.38861084  104.85199738    4.90999985    2.67000008
   13.39166641  100.29900360    4.90999985    2.67000008
   13.39499950   97.69719696    4.90999985    2.69000006
   13.39833355  109.80599976    4.90999985    2.69000006
   13.40138817  107.10500336    4.90999985    2.69000006
   13.40472221  109.68699646    4.90999985    2.69000006
   13.40777779  112.01200104    4.90999985    2.69000006
   13.41111088  105.24400330    4.90999985    2.69000006
   13.41444397  113.82900238    4.90999985    2.71000004
   13.41694450  105.31600189    4.90999985    2.67000008
   13.41805553  103.74400330    4.90999985    2.69000006
   13.42138958  106.87200165    4.90999985    2.69000006
   13.42444515  106.81900024    4.90999985    2.69000006
   13.42777824  105.77799988    4.90999985    2.69000006
   13.43083382  104.13899994    4.90999985    2.69000006
   13.43416691  102.62799835    4.90999985    2.69000006
   13.43750000   99.91719818    4.90999985    2.69000006
   13.44055557  104.68699646    4.90999985    2.71000004
   13.44388866   98.08450317    4.90999985    2.69000006
   13.44722271  102.80500031    4.90999985    2.69000006
   13.45027733  104.85900116    4.90999985    2.69000006
   13.45083332  100.13400269    4.90999985    2.69000006
   13.45416641  101.39700317    4.90999985    2.69000006
   13.56555557   -1.00000000   -1.00000000   -1.00000000
   13.66527748   -1.00000000   -1.00000000   -1.00000000
   13.76638889   -1.00000000   -1.00000000   -1.00000000
   13.83277798   73.99009705    4.90999985    2.73000002
   13.83611107  104.51499939    4.90999985    2.73000002
   13.83944416  114.96399689    4.90999985    2.73000002
   13.84277725  104.23300171    4.90999985    2.73000002
   13.84583282  104.22799683    4.90999985    2.75000000
   13.84916592  101.57800293    4.90999985    2.73000002
   13.85333347  101.57800293    4.90999985    2.73000002
   13.85722256  108.46900177    4.90999985    2.75000000
   13.86055565  108.54399872    4.90999985    2.73000002
   13.86388969  107.41500092    4.90999985    2.73000002
   13.86611176  111.83100128    4.90999985    2.73000002
   13.86750031  118.72899628    4.90999985    2.73000002
   13.87055588  113.29100037    4.90999985    2.73000002
   13.87388897  114.05200195    4.90999985    2.73000002
   13.87722206  109.31099701    4.90999985    2.73000002
   13.88027763  112.77100372    4.90999985    2.75000000
   13.88361073  109.74900055    4.90999985    2.75000000
   13.88666630  114.38899994    4.90999985    2.73000002
   13.89000034  103.44000244    4.90999985    2.73000002
   13.89611053  103.44000244    4.90999985    2.73000002
   13.90027714  112.14800262    4.90999985    2.73000002
   13.90333271  109.94000244    4.90999985    2.75000000
   13.90666676  114.56199646    4.90999985    2.73000002
   13.90999985  109.43699646    4.90999985    2.75000000
   13.91305542  108.07599640    4.90999985    2.73000002
   13.91638851  107.64399719    4.90999985    2.73000002
   13.91944504  113.20099640    4.90999985    2.73000002
   13.92277813  107.56999969    4.90999985    2.73000002
   13.92611122  109.81900024    4.90999985    2.73000002
   13.92944431  101.30200195    4.90999985    2.75000000
   13.93249989  107.85399628    4.90999985    2.73000002
   13.93305588  109.50800323    4.90999985    2.75000000
   13.93888855  109.50800323    4.90999985    2.73000002
   13.94305515  107.35700226    4.90999985    2.75000000
   13.94638920  112.52200317    4.90999985    2.73000002
   13.94944477  106.87999725    4.90999985    2.75000000
   13.95277786  111.69699860    4.90999985    2.75000000
   13.95583344  112.97100067    4.90999985    2.75000000
   13.95916653  106.82900238    4.90999985    2.75000000
   13.96249962  102.68599701    4.90999985    2.75000000
   13.96555519  109.58599854    4.90999985    2.73000002
   13.96638870  105.50099945    4.90999985    2.75000000
   13.96944427  115.67500305    4.90999985    2.75000000
   13.97249985  115.31099701    4.90999985    2.73000002
   13.97583294  110.70500183    4.90999985    2.73000002
   13.98166656  110.70500183    4.90999985    2.73000002
   13.98583317  111.94799805    4.90999985    2.73000002
   13.98916721  111.34899902    4.90999985    2.75000000
   13.99222279  112.01999664    4.90999985    2.75000000
   13.99555588  103.40200043    4.90999985    2.73000002
   13.99888897  113.51699829    4.90999985    2.75000000
   13.99972248  107.35199738    4.90999985    2.75000000
   14.00249958  110.95800018    4.90999985    2.75000000
   14.00555515  108.66999817    4.90999985    2.75000000
   14.00888920  109.49099731    4.90999985    2.73000002
   14.01194477  105.91899872    4.90999985    2.75000000
   14.01527786  106.50499725    4.90999985    2.75000000
   14.01861095  111.16999817    4.90999985    2.75000000
   14.02472210  111.16999817    4.90999985    2.73000002
   14.02861118  109.51399994    4.90999985    2.75000000
   14.03194427  112.76100159    4.90999985    2.75000000
   14.03305531  109.72399902    4.90999985    2.73000002
   14.03555584  111.80400085    4.90999985    2.75000000
   14.03861141  111.24299622    4.90999985    2.75000000
   14.04194450  109.06600189    4.90999985    2.75000000
   14.04500008  107.59899902    4.90999985    2.75000000
   14.04833412  101.91999817    4.90999985    2.75000000
   14.05166721  105.49199677    4.90999985    2.75000000
   14.05472279  114.10800171    4.90999985    2.75000000
   14.05805588  114.21499634    4.90999985    2.75000000
   14.06138897  103.51799774    4.90999985    2.75000000
   14.06750011  103.51799774    4.90999985    2.75000000
   14.07166672  104.87699890    4.90999985    2.75000000
   14.07472229  104.77100372    4.90999985    2.73000002
   14.07805538  100.11799622    4.90999985    2.75000000
   14.08138847  107.98899841    4.90999985    2.75000000
   14.08444405  106.67400360    4.90999985    2.75000000
   14.08777714  106.84600067    4.90999985    2.75000000
   14.09111118  107.58000183    4.90999985    2.75000000
   14.09416676  112.16300201    4.90999985    2.75000000
   14.09749985  106.17900085    4.90999985    2.76999998
   14.09972191  108.32299805    4.90999985    2.76999998
   14.10111141  108.73500061    4.90999985    2.75000000
   14.10416698   94.01809692    4.90999985    2.75000000
   14.11027813   94.01809692    4.90999985    2.75000000
   14.11444473  110.14399719    4.90999985    2.75000000
   14.11777782  109.22000122    4.90999985    2.75000000
   14.12083340  106.11799622    4.90999985    2.75000000
   14.12416649  107.48999786    4.90999985    2.75000000
   14.12722206  111.90399933    4.90999985    2.75000000
   14.13055611  108.12899780    4.90999985    2.75000000
   14.13305569  105.98999786    4.90999985    2.75000000
   14.13416672  108.48999786    4.90999985    2.76999998
   14.13722229   98.41780090    4.90999985    2.75000000
   14.14055538  104.83200073    4.90999985    2.75000000
   14.14388847  109.31900024    4.90999985    2.75000000
   14.14694405  112.50199890    4.90999985    2.75000000
   14.15305519  112.50199890    4.90999985    2.76999998
   14.15722179  113.39700317    4.90999985    2.75000000
   14.16055489  103.94400024    4.90999985    2.75000000
   14.16361046  112.45999908    4.90999985    2.75000000
   14.16638851  112.86599731    4.90999985    2.75000000
   14.16750050  107.75299835    4.90999985    2.76999998
   14.17055607  106.67199707    4.90999985    2.75000000
   14.17388916  111.04599762    4.90999985    2.75000000
   14.17722225  103.61100006    4.90999985    2.75000000
   14.18027782  110.43399811    4.90999985    2.76999998
   14.18361092  108.01699829    4.90999985    2.75000000
   14.18694496  113.44200134    4.90999985    2.76999998
   14.19000053  110.38600159    4.90999985    2.76999998
   14.19611073  110.38600159    4.90999985    2.76999998
   14.19999981  108.54000092    4.90999985    2.75000000
   14.20333290  106.14199829    4.90999985    2.76999998
   14.20666695  104.08300018    4.90999985    2.75000000
   14.20972157  105.96499634    4.90999985    2.75000000
   14.21305561   99.09020233    4.90999985    2.76999998
   14.21638870  103.01999664    4.90999985    2.76999998
   14.21944427  103.39499664    4.90999985    2.76999998
   14.22277737  101.37000275    4.90999985    2.75000000
   14.22583294  107.48000336    4.90999985    2.75000000
   14.22916603  110.13400269    4.90999985    2.78999996
   14.23249912  108.81099701    4.90999985    2.76999998
   14.23305511  107.62300110    4.90999985    2.76999998
   14.23888874  107.62300110    4.90999985    2.76999998
   14.24305534  103.41899872    4.90999985    2.76999998
   14.24611092  112.66799927    4.90999985    2.75000000
   14.24944496  109.50900269    4.90999985    2.75000000
   14.25277805  106.00700378    4.90999985    2.76999998
   14.25583363  105.55500031    4.90999985    2.75000000
   14.25916672  107.86000061    4.90999985    2.75000000
   14.26249981  103.63500214    4.90999985    2.76999998
   14.26555538  107.08899689    4.90999985    2.76999998
   14.26638889  101.91500092    4.90999985    2.76999998
   14.26944447  108.14900208    4.90999985    2.76999998
   14.27250004  102.06900024    4.90999985    2.76999998
   14.27583313  101.56800079    4.90999985    2.75000000
   14.28166676  101.56800079    4.90999985    2.76999998
   14.28583336  106.79000092    4.90999985    2.76999998
   14.28916740  105.26799774    4.90999985    2.76999998
   14.29222298  109.52799988    4.90999985    2.76999998
   14.29555607  106.13700104    4.90999985    2.75000000
   14.29861164  112.89199829    4.90999985    2.76999998
   14.29972267  107.00700378    4.90999985    2.76999998
   14.30249977  105.40499878    4.90999985    2.76999998
   14.30555534  109.89900208    4.90999985    2.76999998
   14.30888939  107.54599762    4.90999985    2.78999996
   14.31222248  107.39499664    4.90999985    2.75000000
   14.31527805  107.30200195    4.90999985    2.76999998
   14.31861115  107.41400146    4.90999985    2.76999998
   14.32444477  107.41400146    4.90999985    2.76999998
   14.32861137  108.97599792    4.90999985    2.76999998
   14.33194447  110.37100220    4.90999985    2.76999998
   14.33305550  102.88099670    4.90999985    2.76999998
   14.33555508  104.60800171    4.90999985    2.76999998
   14.33861065  107.78500366    4.90999985    2.76999998
   14.34194374  101.83999634    4.90999985    2.76999998
   14.34527779  101.36299896    4.90999985    2.76999998
   14.34833336  106.39199829    4.90999985    2.78999996
   14.35166740  104.72599792    4.90999985    2.76999998
   14.35500050  104.08200073    4.90999985    2.76999998
   14.35805607  105.60399628    4.90999985    2.76999998
   14.36138916  111.32800293    4.90999985    2.76999998
   14.36750031  111.32800293    4.90999985    2.76999998
   14.37138939  109.86900330    4.90999985    2.78999996
   14.37472248  111.48400116    4.90999985    2.76999998
   14.37805557  111.69499969    4.90999985    2.76999998
   14.38111115  110.72399902    4.90999985    2.76999998
   14.38444424  103.69100189    4.90999985    2.76999998
   14.38749981  108.44200134    4.90999985    2.76999998
   14.39083290  109.78199768    4.90999985    2.76999998
   14.39416695  108.88999939    4.90999985    2.76999998
   14.39722252  104.09700012    4.90999985    2.76999998
   14.39972210  106.17299652    4.90999985    2.75000000
   14.40083313  107.46299744    4.90999985    2.76999998
   14.40388870  102.74400330    4.90999985    2.78999996
   14.41027737  102.74400330    4.90999985    2.78999996
   14.41444397  109.74099731    4.90999985    2.78999996
   14.41750050  103.99299622    4.90999985    2.76999998
   14.42083359  103.25900269    4.90999985    2.76999998
   14.42388916  107.03600311    4.90999985    2.76999998
   14.42722225  104.48600006    4.90999985    2.76999998
   14.43055630  112.52300262    4.90999985    2.78999996
   14.43305588  105.75800323    4.90999985    2.76999998
   14.43416691  111.11199951    4.90999985    2.78999996
   14.43722248  105.74500275    4.90999985    2.76999998
   14.44055557  111.76999664    4.90999985    2.76999998
   14.44388866  107.43499756    4.90999985    2.76999998
   14.44694424  108.04499817    4.90999985    2.78999996
   14.45305538  108.04499817    4.90999985    2.76999998
   14.45722198  107.68699646    4.90999985    2.76999998
   14.46055508  108.50800323    4.90999985    2.76999998
   14.46361065  110.61199951    4.90999985    2.76999998
   14.46638870  109.96499634    4.90999985    2.78999996
   14.46722221  111.10900116    4.90999985    2.76999998
   14.47027779  105.46299744    4.90999985    2.78999996
   14.47361088  112.92900085    4.90999985    2.78999996
   14.47694397  110.23300171    4.90999985    2.78999996
   14.47999954  107.48600006    4.90999985    2.78999996
   14.48333359  104.08200073    4.90999985    2.76999998
   14.48666668  105.77100372    4.90999985    2.76999998
   14.48972225  109.03199768    4.90999985    2.78999996
   14.49583340  109.03199768    4.90999985    2.78999996
   14.50000000  108.93000031    4.90999985    2.76999998
   14.50333309  106.66899872    4.90999985    2.78999996
   14.50638866  110.91300201    4.90999985    2.78999996
   14.50972176  110.24600220    4.90999985    2.78999996
   14.51305580  106.72899628    4.90999985    2.76999998
   14.51638889  108.51999664    4.90999985    2.78999996
   14.51944447  106.17199707    4.90999985    2.76999998
   14.52277756  113.20600128    4.90999985    2.76999998
   14.52583313  110.13800049    4.90999985    2.76999998
   14.52916622  112.42900085    4.90999985    2.76999998
   14.53249931  108.89399719    4.90999985    2.78999996
   14.53305531  111.81300354    4.90999985    2.78999996
   14.53888893  111.81300354    4.90999985    2.78999996
   14.54277802  108.46700287    4.90999985    2.78999996
   14.54611111  106.15799713    4.90999985    2.78999996
   14.54944515  101.77600098    4.90999985    2.78999996
   14.55249977  106.79900360    4.90999985    2.78999996
   14.55583382  111.47200012    4.90999985    2.76999998
   14.55916691  109.45500183    4.90999985    2.78999996
   14.56222248  107.89800262    4.90999985    2.78999996
   14.56555557  104.38999939    4.90999985    2.76999998
   14.56638908  108.48000336    4.90999985    2.78999996
   14.56916618  110.10700226    4.90999985    2.76999998
   14.57250023  108.15100098    4.90999985    2.76999998
   14.57555580  107.58100128    4.90999985    2.78999996
   14.58166695  107.58100128    4.90999985    2.78999996
   14.58583260  110.37100220    4.90999985    2.78999996
   14.58888817  107.93900299    4.90999985    2.78999996
   14.59222221  102.99400330    4.90999985    2.76999998
   14.59527779  102.42400360    4.90999985    2.78999996
   14.59861088  109.35600281    4.90999985    2.78999996
   14.59972191  106.81300354    4.90999985    2.78999996
   14.60222244  108.17199707    4.90999985    2.78999996
   14.60527802  104.09999847    4.90999985    2.76999998
   14.60861111  104.92900085    4.90999985    2.78999996
   14.61194515  111.10399628    4.90999985    2.78999996
   14.61500072  114.90399933    4.90999985    2.78999996
   14.61833382  113.99800110    4.90999985    2.78999996
   14.62444496  113.99800110    4.90999985    2.78999996
   14.62861156  108.92400360    4.90999985    2.78999996
   14.63194466  112.57599640    4.90999985    2.78999996
   14.63305569  107.11100006    4.90999985    2.78999996
   14.63555527  102.32900238    4.90999985    2.78999996
   14.63888836  104.18900299    4.90999985    2.78999996
   14.64194393  110.96600342    4.90999985    2.78999996
   14.64527798  108.15499878    4.90999985    2.78999996
   14.64833355  106.62000275    4.90999985    2.78999996
   14.65166664  106.35299683    4.90999985    2.80999994
   14.65499973  104.39800262    4.90999985    2.78999996
   14.65805531  104.58200073    4.90999985    2.80999994
   14.66138840  107.01399994    4.90999985    2.78999996
   14.66722298  107.01399994    4.90999985    2.78999996
   14.67138958  118.02500153    4.90999985    2.80999994
   14.67472267  111.55999756    4.90999985    2.78999996
   14.67805576  112.21399689    4.90999985    2.78999996
   14.68111134  101.78600311    4.90999985    2.78999996
   14.68444443  107.47799683    4.90999985    2.78999996
   14.68777752  109.45999908    4.90999985    2.78999996
   14.69083309  106.09500122    4.90999985    2.78999996
   14.69416714  105.32499695    4.90999985    2.78999996
   14.69722271  108.70700073    4.90999985    2.78999996
   14.69972229  110.44799805    4.90999985    2.78999996
   14.70083332  107.98799896    4.90999985    2.78999996
   14.70416641  109.90000153    4.90999985    2.78999996
   14.71027756  109.90000153    4.90999985    2.78999996
   14.71416664  109.67299652    4.90999985    2.80999994
   14.71749973  103.91500092    4.90999985    2.78999996
   14.72083282  111.37200165    4.90999985    2.78999996
   14.72388840  103.81999969    4.90999985    2.78999996
   14.72722149  107.11399841    4.90999985    2.80999994
   14.73055553  111.88099670    4.90999985    2.78999996
   14.73305511  110.78700256    4.90999985    2.78999996
   14.73416710  111.53800201    4.90999985    2.78999996
   14.73750019  114.90000153    4.90999985    2.78999996
   14.74055576  106.86499786    4.90999985    2.78999996
   14.74388885  111.18099976    4.90999985    2.78999996
   14.74694443  111.25800323    4.90999985    2.78999996
   14.75305557  111.25800323    4.90999985    2.78999996
   14.75722218  107.48500061    4.90999985    2.78999996
   14.76027775  109.66400146    4.90999985    2.78999996
   14.76361084  105.00099945    4.90999985    2.78999996
   14.76638889  103.16000366    4.90999985    2.78999996
   14.76722240  107.45899963    4.90999985    2.78999996
   14.77055550  104.30300140    4.90999985    2.80999994
   14.77361107  108.06800079    4.90999985    2.80999994
   14.77694416  104.00399780    4.90999985    2.80999994
   14.77999973  106.09300232    4.90999985    2.78999996
   14.78333378  108.40599823    4.90999985    2.80999994
   14.78666687  104.59200287    4.90999985    2.78999996
   14.78972244  107.14700317    4.90999985    2.78999996
   14.79583359  107.14700317    4.90999985    2.80999994
   14.80000019  108.10600281    4.90999985    2.78999996
   14.80333328  110.75399780    4.90999985    2.80999994
   14.80638885  112.52899933    4.90999985    2.78999996
   14.80972195  110.22699738    4.90999985    2.78999996
   14.81277752  112.57399750    4.90999985    2.80999994
   14.81611156  114.92500305    4.90999985    2.80999994
   14.81944466  111.98799896    4.90999985    2.80999994
   14.82250023  110.24900055    4.90999985    2.80999994
   14.82583332  112.63899994    4.90999985    2.78999996
   14.82916641  107.77899933    4.90999985    2.78999996
   14.83222198  106.63200378    4.90999985    2.80999994
   14.83305550  110.97899628    4.90999985    2.80999994
   14.85388947  110.97899628    4.90999985    2.80999994
   14.85805607  109.82299805    4.90999985    2.78999996
   14.86111164  109.17099762    4.90999985    2.78999996
   14.86444473  106.06999969    4.90999985    2.80999994
   14.86638927  104.57700348    4.90999985    2.78999996
   14.86805534  108.57800293    4.90999985    2.80999994
   14.87138939  104.40200043    4.90999985    2.80999994
   14.87444496  107.15200043    4.90999985    2.80999994
   14.87777805  106.55200195    4.90999985    2.80999994
   14.88111115  109.34500122    4.90999985    2.80999994
   14.88416672  112.08200073    4.90999985    2.78999996
   14.88749981  107.05100250    4.90999985    2.78999996
   14.89055538  108.43599701    4.90999985    2.80999994
   14.89666653  108.43599701    4.90999985    2.80999994
   14.90083313  110.58100128    4.90999985    2.78999996
   14.90388870  112.65299988    4.90999985    2.80999994
   14.90722179  113.70600128    4.90999985    2.80999994
   14.91027737  110.54599762    4.90999985    2.78999996
   14.91361046  110.41100311    4.90999985    2.78999996
   14.91694450  107.92400360    4.90999985    2.78999996
   14.92000008  111.91300201    4.90999985    2.78999996
   14.92333412  112.40299988    4.90999985    2.80999994
   14.92666721  106.87999725    4.90999985    2.80999994
   14.92972279  109.47299957    4.90999985    2.80999994
   14.93305588  112.22100067    4.90999985    2.80999994
   14.93361092  109.69799805    4.90999985    2.80999994
   14.93944454  109.69799805    4.90999985    2.80999994
   14.94361115  109.03099823    4.90999985    2.80999994
   14.94666672  108.71900177    4.90999985    2.80999994
   14.94999981  108.39499664    4.90999985    2.80999994
   14.95333290  108.13300323    4.90999985    2.80999994
   14.95638847  109.21199799    4.90999985    2.80999994
   14.95972157  111.92900085    4.90999985    2.80999994
   14.96305561  115.73799896    4.90999985    2.80999994
   14.96611118  111.58599854    4.90999985    2.80999994
   14.96694374  122.69899750    4.90999985    2.80999994
   14.96972179  106.62300110    4.90999985    2.80999994
   14.97305489  109.75499725    4.90999985    2.80999994
   14.97611046  112.12300110    4.90999985    2.80999994
   14.98222160  112.12300110    4.90999985    2.80999994
   14.98638916  107.98799896    4.90999985    2.80999994
   14.98972225  110.62500000    4.90999985    2.80999994
   14.99277782  113.97100067    4.90999985    2.80999994
   14.99611092  111.17800140    4.90999985    2.80999994
   14.99944496  106.85700226    4.90999985    2.80999994
   15.00027752  108.33000183    4.90999985    2.80999994
   15.00277805  105.05599976    4.90999985    2.78999996
   15.00611115  104.42600250    4.90999985    2.80999994
   15.00916672  109.02100372    4.90999985    2.80999994
   15.01249981  102.90200043    4.90999985    2.80999994
   15.01583290  115.63200378    4.90999985    2.80999994
   15.01888847  112.87400055    4.90999985    2.80999994
   15.02499962  112.87400055    4.90999985    2.80999994
   15.02916622  109.30599976    4.90999985    2.80999994
   15.03249931  108.47499847    4.90999985    2.80999994
   15.03361130  112.05100250    4.90999985    2.80999994
   15.03611183  109.55999756    4.90999985    2.80999994
   15.03944492  112.32900238    4.90999985    2.80999994
   15.04277802  105.90599823    4.90999985    2.80999994
   15.04583359  110.16200256    4.90999985    2.80999994
   15.04916668  109.16999817    4.90999985    2.80999994
   15.05222225  106.96299744    4.90999985    2.80999994
   15.05555534  107.72200012    4.90999985    2.80999994
   15.05888939  112.10399628    4.90999985    2.80999994
   15.06194496  110.26100159    4.90999985    2.80999994
   15.06805515  110.26100159    4.90999985    2.80999994
   15.07222176  108.07800293    4.90999985    2.80999994
   15.07527733  115.32199860    4.90999985    2.80999994
   15.07861137  114.81300354    4.90999985    2.80999994
   15.08166695  111.18699646    4.90999985    2.80999994
   15.08500004  109.86799622    4.90999985    2.80999994
   15.08833313  107.33699799    4.90999985    2.80999994
   15.09138870  112.51899719    4.90999985    2.82999992
   15.09472179  107.97699738    4.90999985    2.80999994
   15.09805489  110.73200226    4.90999985    2.80999994
   15.10027790  106.57700348    4.90999985    2.80999994
   15.10138893  109.36499786    4.90999985    2.80999994
   15.10472298  106.09899902    4.90999985    2.80999994
   15.11083412  106.09899902    4.90999985    2.80999994
   15.11500072  111.40299988    4.90999985    2.80999994
   15.11805534  110.94999695    4.90999985    2.80999994
   15.12138939  109.63099670    4.90999985    2.82999992
   15.12472248  108.85500336    4.90999985    2.80999994
   15.12777805  108.01100159    4.90999985    2.80999994
   15.13111115  116.43099976    4.90999985    2.82999992
   15.13361073  111.95999908    4.90999985    2.80999994
   15.13472176  112.76599884    4.90999985    2.80999994
   15.13805580  115.05899811    4.90999985    2.80999994
   15.14138889  105.51399994    4.90999985    2.80999994
   15.14444447  112.72499847    4.90999985    2.80999994
   15.14777756  114.50700378    4.90999985    2.80999994
   15.15361118  114.50700378    4.90999985    2.80999994
   15.15777779  108.06500244    4.90999985    2.82999992
   15.16111088  109.00599670    4.90999985    2.82999992
   15.16416645  111.39900208    4.90999985    2.82999992
   15.16694450  106.68099976    4.90999985    2.80999994
   15.16777802  108.31500244    4.90999985    2.82999992
   15.17111111  107.97499847    4.90999985    2.80999994
   15.17444515  109.79100037    4.90999985    2.80999994
   15.17750072  105.22499847    4.90999985    2.80999994
   15.18083382  112.24500275    4.90999985    2.80999994
   15.18388939  111.45099640    4.90999985    2.80999994
   15.18722248  111.59799957    4.90999985    2.80999994
   15.19055557  112.40000153    4.90999985    2.80999994
   15.19638920  112.40000153    4.90999985    2.80999994
   15.20055580  116.27600098    4.90999985    2.80999994
   15.20388889  112.39499664    4.90999985    2.80999994
   15.20722198  113.12500000    4.90999985    2.80999994
   15.21027756  115.58899689    4.90999985    2.80999994
   15.21361065  110.35700226    4.90999985    2.80999994
   15.21666622  109.66500092    4.90999985    2.80999994
   15.21999931  108.13899994    4.90999985    2.80999994
   15.22333336  111.40100098    4.90999985    2.82999992
   15.22638798  113.35199738    4.90999985    2.82999992
   15.22972202  110.00000000    4.90999985    2.82999992
   15.23305511  111.66699982    4.90999985    2.82999992
   15.23361111  106.78900146    4.90999985    2.80999994
   15.23944473  106.78900146    4.90999985    2.82999992
   15.24361134  121.39800262    4.90999985    2.80999994
   15.24666691  116.90100098    4.90999985    2.82999992
   15.25000000  108.11599731    4.90999985    2.82999992
   15.25333309  118.20999908    4.90999985    2.82999992
   15.25638866  109.26999664    4.90999985    2.82999992
   15.25972176  110.36199951    4.90999985    2.80999994
   15.26277733  112.18699646    4.90999985    2.82999992
   15.26611137  113.15799713    4.90999985    2.82999992
   15.26694393  107.14399719    4.90999985    2.82999992
   15.26972198  113.40000153    4.90999985    2.82999992
   15.27305508  110.66300201    4.90999985    2.80999994
   15.27638817  113.15200043    4.90999985    2.80999994
   15.28222179  113.15200043    4.90999985    2.80999994
   15.28638935  110.23899841    4.90999985    2.82999992
   15.28944492  105.05599976    4.90999985    2.80999994
   15.29277802  104.32800293    4.90999985    2.80999994
   15.29611111  113.21700287    4.90999985    2.80999994
   15.29916668  106.35299683    4.90999985    2.82999992
   15.30027771  106.57900238    4.90999985    2.80999994
   15.30277824  110.68199921    4.90999985    2.82999992
   15.30611134  117.39499664    4.90999985    2.80999994
   15.30944443  112.54599762    4.90999985    2.80999994
   15.31250000  113.76899719    4.90999985    2.80999994
   15.31583309  114.20500183    4.90999985    2.80999994
   15.31916618  112.37699890    4.90999985    2.82999992
   15.32499981  112.37699890    4.90999985    2.80999994
   15.32916641  113.41200256    4.90999985    2.82999992
   15.33249950  111.14199829    4.90999985    2.82999992
   15.33361053  113.90299988    4.90999985    2.82999992
   15.33583260  109.04100037    4.90999985    2.82999992
   15.33916664  110.66999817    4.90999985    2.82999992
   15.34249973  108.57399750    4.90999985    2.80999994
   15.34555531  107.09300232    4.90999985    2.82999992
   15.34888840  108.24600220    4.90999985    2.80999994
   15.35194492  112.32299805    4.90999985    2.82999992
   15.35527802  109.05000305    4.90999985    2.80999994
   15.35861111  112.54100037    4.90999985    2.80999994
   15.36166668  108.67500305    4.90999985    2.82999992
   15.36777782  108.67500305    4.90999985    2.82999992
   15.37194443  118.10600281    4.90999985    2.82999992
   15.37527752  118.25199890    4.90999985    2.82999992
   15.37861156  115.24400330    4.90999985    2.80999994
   15.38166714  114.60099792    4.90999985    2.82999992
   15.38500023  109.63200378    4.90999985    2.80999994
   15.38805580  113.35700226    4.90999985    2.80999994
   15.39138889  111.23600006    4.90999985    2.82999992
   15.39472198  110.78900146    4.90999985    2.80999994
   15.39777756  112.21700287    4.90999985    2.80999994
   15.40027714  111.76399994    4.90999985    2.82999992
   15.40138817  111.45700073    4.90999985    2.82999992
   15.40472221  110.99199677    4.90999985    2.82999992
   15.41083336  110.99199677    4.90999985    2.80999994
   15.41499996  111.12999725    4.90999985    2.80999994
   15.41805553  107.51399994    4.90999985    2.82999992
   15.42138958  110.10399628    4.90999985    2.82999992
   15.42444515  112.22299957    4.90999985    2.80999994
   15.42777824  110.07499695    4.90999985    2.82999992
   15.43111134  107.15599823    4.90999985    2.82999992
   15.43361092  105.29499817    4.90999985    2.82999992
   15.43444443  111.12799835    4.90999985    2.80999994
   15.43777752  116.39700317    4.90999985    2.82999992
   15.44111156  116.26100159    4.90999985    2.82999992
   15.44416714  113.25299835    4.90999985    2.82999992
   15.44750023  104.04000092    4.90999985    2.80999994
   15.45361137  104.04000092    4.90999985    2.82999992
   15.45777798  112.16100311    4.90999985    2.80999994
   15.46083355  115.73400116    4.90999985    2.82999992
   15.46416664  105.24600220    4.90999985    2.82999992
   15.46694374  109.63500214    4.90999985    2.82999992
   15.46777725  113.05300140    4.90999985    2.82999992
   15.47111034  111.04399872    4.90999985    2.82999992
   15.47444439  110.53199768    4.90999985    2.82999992
   15.47749996  111.10500336    4.90999985    2.80999994
   15.48083305  109.74299622    4.90999985    2.82999992
   15.48416710  111.48300171    4.90999985    2.82999992
   15.48722267  103.69599915    4.90999985    2.80999994
   15.49055576  112.74400330    4.90999985    2.82999992
   15.49638939  112.74400330    4.90999985    2.82999992
   15.50055599  115.27200317    4.90999985    2.80999994
   15.50388908  112.59799957    4.90999985    2.80999994
   15.50694466  113.65499878    4.90999985    2.82999992
   15.51027775  111.10900116    4.90999985    2.82999992
   15.51361084  109.87200165    4.90999985    2.82999992
   15.51666641  112.61599731    4.90999985    2.82999992
   15.51999950  112.91699982    4.90999985    2.82999992
   15.52333355  112.99900055    4.90999985    2.82999992
   15.52638817  112.31900024    4.90999985    2.82999992
   15.52972221  112.95899963    4.90999985    2.82999992
   15.53277779  111.37400055    4.90999985    2.80999994
   15.53361130  114.39399719    4.90999985    2.82999992
   15.53916740  114.39399719    4.90999985    2.80999994
   15.54333401  111.49199677    4.90999985    2.82999992
   15.54666710  109.66999817    4.90999985    2.80999994
   15.55000019  111.17700195    4.90999985    2.82999992
   15.55305576  111.86000061    4.90999985    2.82999992
   15.55638885  111.23100281    4.90999985    2.82999992
   15.55944443  110.75099945    4.90999985    2.82999992
   15.56277752  110.80100250    4.90999985    2.80999994
   15.56611156  106.36199951    4.90999985    2.82999992
   15.56694412  110.45300293    4.90999985    2.82999992
   15.56944466  109.86199951    4.90999985    2.82999992
   15.57277775  116.31199646    4.90999985    2.82999992
   15.57611084  115.60199738    4.90999985    2.82999992
   15.58222198  115.60199738    4.90999985    2.82999992
   15.58638859  117.41799927    4.90999985    2.80999994
   15.58944416  115.93499756    4.90999985    2.82999992
   15.59277725  117.69499969    4.90999985    2.82999992
   15.59583282  116.80599976    4.90999985    2.82999992
   15.59916592  109.96199799    4.90999985    2.82999992
   15.60027790  106.76599884    4.90999985    2.82999992
   15.60277843  112.51200104    4.90999985    2.80999994
   15.60583401  112.26699829    4.90999985    2.80999994
   15.60916710  113.99800110    4.90999985    2.82999992
   15.61222267  109.81300354    4.90999985    2.82999992
   15.61555576  112.41200256    4.90999985    2.82999992
   15.61888885  110.07099915    4.90999985    2.82999992
   15.62500000  110.07099915    4.90999985    2.82999992
   15.62916660  110.87999725    4.90999985    2.82999992
   15.63222218  109.72200012    4.90999985    2.82999992
   15.63361073  109.39800262    4.90999985    2.82999992
   15.63611126  110.46800232    4.90999985    2.80999994
   15.63916683  115.40899658    4.90999985    2.82999992
   15.64249992  110.43299866    4.90999985    2.82999992
   15.64555550  113.00000000    4.90999985    2.82999992
   15.64888859  119.61000061    4.90999985    2.84999990
   15.65222168  115.19499969    4.90999985    2.82999992
   15.65527725  113.74700165    4.90999985    2.82999992
   15.65861034  117.20800018    4.90999985    2.82999992
   15.66194439  112.94799805    4.90999985    2.82999992
   15.66777802  112.94799805    4.90999985    2.82999992
   15.67194462  116.73300171    4.90999985    2.82999992
   15.67527771  113.68299866    4.90999985    2.82999992
   15.67833328  106.58599854    4.90999985    2.82999992
   15.68166733  114.46299744    4.90999985    2.84999990
   15.68500042  115.18299866    4.90999985    2.82999992
   15.68805599  112.49500275    4.90999985    2.82999992
   15.69138908  113.16799927    4.90999985    2.82999992
   15.69472218  110.44300079    4.90999985    2.84999990
   15.69777775  111.46399689    4.90999985    2.82999992
   15.70027733  108.63600159    4.90999985    2.82999992
   15.70166683  116.89299774    4.90999985    2.82999992
   15.70472240  109.57700348    4.90999985    2.82999992
   15.71055508  109.57700348    4.90999985    2.82999992
   15.71472168  115.91500092    4.90999985    2.84999990
   15.71805477  116.73999786    4.90999985    2.82999992
   15.72138882  117.96700287    4.90999985    2.82999992
   15.72444439  121.54100037    4.90999985    2.82999992
   15.72777748  113.20899963    4.90999985    2.84999990
   15.73083305  122.70200348    4.90999985    2.82999992
   15.73361111  118.06900024    4.90999985    2.80999994
   15.73472214  122.85700226    4.90999985    2.82999992
   15.73777771  116.89199829    4.90999985    2.82999992
   15.74111176  117.35900116    4.90999985    2.82999992
   15.74416733  109.87899780    4.90999985    2.82999992
   15.74750042  118.47499847    4.90999985    2.82999992
   15.75361156  118.47499847    4.90999985    2.82999992
   15.75777817  113.28199768    4.90999985    2.82999992
   15.76083374  122.02400208    4.90999985    2.82999992
   15.76416683  111.25900269    4.90999985    2.82999992
   15.76694393  109.72100067    4.90999985    2.82999992
   15.76777744  119.64700317    4.90999985    2.82999992
   15.77083302  113.60500336    4.90999985    2.82999992
   15.77416611  119.08499908    4.90999985    2.82999992
   15.77722168  112.52400208    4.90999985    2.82999992
   15.78055573  117.15699768    4.90999985    2.82999992
   15.78388977  115.73400116    4.90999985    2.82999992
   15.78694534  114.92900085    4.90999985    2.82999992
   15.79027843  120.77700043    4.90999985    2.82999992
   15.79638958  120.77700043    4.90999985    2.82999992
   15.80055618  116.68199921    4.90999985    2.82999992
   15.80361176  111.51499939    4.90999985    2.82999992
   15.80694485  113.53700256    4.90999985    2.82999992
   15.81027794  117.21299744    4.90999985    2.82999992
   15.81333351  111.96499634    4.90999985    2.82999992
   15.81666660  128.00399780    4.90999985    2.82999992
   15.81999969  119.14600372    4.90999985    2.82999992
   15.82305527  113.48999786    4.90999985    2.82999992
   15.82638836  107.73899841    4.90999985    2.82999992
   15.82944393  116.06800079    4.90999985    2.82999992
   15.83277798  109.72200012    4.90999985    2.82999992
   15.83361053  111.58499908    4.90999985    2.82999992
   15.83916664  111.58499908    4.90999985    2.82999992
   15.84333324  112.66000366    4.90999985    2.82999992
   15.84666634  121.75800323    4.90999985    2.82999992
   15.84972191  120.68299866    4.90999985    2.82999992
   15.86750031  141.63299561    4.90999985    2.84999990
   15.86972237  125.51000214    4.90999985    2.82999992
   15.87305546  121.81199646    4.90999985    2.82999992
   15.87611103  127.83000183    4.90999985    2.82999992
   15.88222218  127.83000183    4.90999985    2.84999990
   15.88638878  103.68800354    4.90999985    2.82999992
   15.89000034  120.16799927    4.90999985    2.82999992
   15.89305496  127.75399780    4.90999985    2.84999990
   15.89638901  121.12300110    4.90999985    2.82999992
   15.89944458  128.19799805    4.90999985    2.80999994
   15.90055561  132.41200256    4.90999985    2.82999992
   15.90305519  118.58100128    4.90999985    2.82999992
   15.90638828  125.44699860    4.90999985    2.82999992
   15.90944386  109.89700317    4.90999985    2.84999990
   15.91277695  134.29499817    4.90999985    2.84999990
   15.91583252  127.08300018    4.90999985    2.82999992
   15.91916656  121.54000092    4.90999985    2.82999992
   15.92500019  121.54000092    4.90999985    2.82999992
   15.92916679  127.18199921    4.90999985    2.84999990
   15.93249989  121.47399902    4.90999985    2.84999990
   15.93388939  133.36099243    4.90999985    2.82999992
   15.93611145  118.81800079    4.90999985    2.84999990
   15.93944454  128.90800476    4.90999985    2.84999990
   15.94250011  118.23600006    4.90999985    2.82999992
   15.94583321  116.94699860    4.90999985    2.82999992
   15.94888878  127.33399963    4.90999985    2.82999992
   15.95222187  111.64600372    4.90999985    2.82999992
   15.95555496  114.52300262    4.90999985    2.84999990
   15.95861053  113.71199799    4.90999985    2.82999992
   15.96194458  112.55500031    4.90999985    2.82999992
   15.96777725  112.55500031    4.90999985    2.84999990
   15.97194386  127.07800293    4.90999985    2.84999990
   15.97527695  117.58699799    4.90999985    2.82999992
   15.97861099  114.68399811    4.90999985    2.84999990
   15.98166656  114.96099854    4.90999985    2.82999992
   15.98500061  112.81600189    4.90999985    2.84999990
   15.98805618  115.80300140    4.90999985    2.84999990
   15.99138927  114.31800079    4.90999985    2.82999992
   15.99472237  120.35500336    4.90999985    2.84999990
   15.99777794  113.40699768    4.90999985    2.84999990
   16.00055504  116.29299927    4.90999985    2.84999990
   16.00138855  114.51599884    4.90999985    2.84999990
   16.00472260  118.27200317    4.90999985    2.82999992
   16.01083374  118.27200317    4.90999985    2.84999990
   16.01499939  112.94799805    4.90999985    2.82999992
   16.01805496  111.10600281    4.90999985    2.82999992
   16.02138901  110.73100281    4.90999985    2.82999992
   16.02444458  112.24600220    4.90999985    2.84999990
   16.02777672  111.50299835    4.90999985    2.82999992
   16.03111076  114.48000336    4.90999985    2.82999992
   16.03388786  125.52600098    4.90999985    2.84999990
   16.03472137  114.93299866    4.90999985    2.82999992
   16.03805542  114.51599884    4.90999985    2.82999992
   16.04111099  112.44999695    4.90999985    2.84999990
   16.04444313  119.90200043    4.90999985    2.84999990
   16.04777718  111.65699768    4.90999985    2.82999992
   16.05360985  111.65699768    4.90999985    2.84999990
   16.05777740  112.63999939    4.90999985    2.84999990
   16.06083298  113.52500153    4.90999985    2.82999992
   16.06416512  111.14900208    4.90999985    2.84999990
   16.06722260  115.80999756    4.90999985    2.82999992
   16.06777954  114.57900238    4.90999985    2.82999992
   16.07111168  115.58499908    4.90999985    2.82999992
   16.07416725  115.27300262    4.90999985    2.82999992
   16.07750130  115.25000000    4.90999985    2.82999992
   16.08055687  115.06800079    4.90999985    2.82999992
   16.08388901  111.53600311    4.90999985    2.82999992
   16.08722305  109.40000153    4.90999985    2.82999992
   16.09027863  120.52899933    4.90999985    2.82999992
   16.09638977  120.52899933    4.90999985    2.82999992
   16.10055542  119.21800232    4.90999985    2.82999992
   16.10111237  115.50499725    4.90999985    2.82999992
   16.10416794  116.38800049    4.90999985    2.84999990
   16.10805511  117.82900238    4.90999985    2.84999990
   16.11138916  115.59400177    4.90999985    2.84999990
   16.11472321  110.58899689    4.90999985    2.84999990
   16.11777878  107.99400330    4.90999985    2.84999990
   16.12111092  110.79699707    4.90999985    2.84999990
   16.12444496  111.36699677    4.90999985    2.82999992
   16.12750053  108.91600037    4.90999985    2.82999992
   16.13083267  112.48100281    4.90999985    2.82999992
   16.13416672  111.18800354    4.90999985    2.80999994
   16.13444519  107.98000336    4.90999985    2.84999990
   16.13916588  107.98000336    4.90999985    2.84999990
   16.14333344  109.49800110    4.90999985    2.84999990
   16.14666748  107.39099884    4.90999985    2.84999990
   16.14999962  114.62300110    4.90999985    2.84999990
   16.15305519  107.20099640    4.90999985    2.84999990
   16.15638924  117.34600067    4.90999985    2.82999992
   16.15944481  118.81900024    4.90999985    2.84999990
   16.16277695  117.03600311    4.90999985    2.82999992
   16.16611099  113.49500275    4.90999985    2.84999990
   16.16777802  109.15000153    4.90999985    2.82999992
   16.16972160  115.55599976    4.90999985    2.82999992
   16.17305565  113.95800018    4.90999985    2.84999990
   16.17611122  111.05999756    4.90999985    2.84999990
   16.18222237  111.05999756    4.90999985    2.84999990
   16.18638802  112.04599762    4.90999985    2.84999990
   16.18944359  109.98999786    4.90999985    2.84999990
   16.19277763  111.78800201    4.90999985    2.84999990
   16.19583321  110.89900208    4.90999985    2.84999990
   16.19916534  113.62799835    4.90999985    2.84999990
   16.20111275  113.88899994    4.90999985    2.84999990
   16.20277786  111.02600098    4.90999985    2.84999990
   16.20611191  109.29000092    4.90999985    2.84999990
   16.20916748  112.68599701    4.90999985    2.82999992
   16.21250153  114.19999695    4.90999985    2.82999992
   16.21583366  114.99099731    4.90999985    2.84999990
   16.21888924  118.62699890    4.90999985    2.82999992
   16.22500038  118.62699890    4.90999985    2.84999990
   16.22916794  113.93599701    4.90999985    2.84999990
   16.23222351  117.65499878    4.90999985    2.84999990
   16.23444557  114.12300110    4.90999985    2.84999990
   16.23583412  113.60299683    4.90999985    2.84999990
   16.23916626  109.22100067    4.90999985    2.82999992
   16.24222183  114.01100159    4.90999985    2.84999990
   16.24555588  113.40699768    4.90999985    2.84999990
   16.24888992  111.31199646    4.90999985    2.84999990
   16.25194359  108.88300323    4.90999985    2.84999990
   16.25527763  110.70600128    4.90999985    2.84999990
   16.25833321  105.81300354    4.90999985    2.82999992
   16.26166725  113.55300140    4.90999985    2.82999992
   16.26777840  113.55300140    4.90999985    2.84999990
   16.27194405  117.52400208    4.90999985    2.82999992
   16.27527809  110.30899811    4.90999985    2.84999990
   16.27833366  113.74199677    4.90999985    2.84999990
   16.28166580  112.50299835    4.90999985    2.82999992
   16.28472137  110.86599731    4.90999985    2.84999990
   16.28805542  112.07199860    4.90999985    2.84999990
   16.29138756  114.08100128    4.90999985    2.82999992
   16.29472160  115.76100159    4.90999985    2.82999992
   16.29777718  112.84500122    4.90999985    2.82999992
   16.30111122  106.82900238    4.90999985    2.84999990
   16.30277634  110.01200104    4.90999985    2.84999990
   16.30472183  109.77100372    4.90999985    2.82999992
   16.31055450  109.77100372    4.90999985    2.84999990
   16.31472206  115.62000275    4.90999985    2.84999990
   16.31805611  112.40299988    4.90999985    2.84999990
   16.32111168  111.96099854    4.90999985    2.84999990
   16.32444572  114.59999847    4.90999985    2.82999992
   16.32777786  117.75099945    4.90999985    2.84999990
   16.33083344  110.58699799    4.90999985    2.84999990
   16.33416748  116.57099915    4.90999985    2.84999990
   16.33611107  115.04199982    4.90999985    2.82999992
   16.33777809  113.84999847    4.90999985    2.84999990
   16.34083366  113.87100220    4.90999985    2.84999990
   16.34416771  116.39199829    4.90999985    2.84999990
   16.34749985  111.12799835    4.90999985    2.84999990
   16.35361099  111.12799835    4.90999985    2.84999990
   16.35777855  113.61900330    4.90999985    2.82999992
   16.36083412  111.40599823    4.90999985    2.84999990
   16.36416626  114.93000031    4.90999985    2.84999990
   16.36722183  106.66100311    4.90999985    2.84999990
   16.36972237  112.76300049    4.90999985    2.84999990
   16.37111092  114.13099670    4.90999985    2.84999990
   16.37444496  109.93900299    4.90999985    2.84999990
   16.37750053  111.10099792    4.90999985    2.82999992
   16.38083267  117.39399719    4.90999985    2.84999990
   16.38388824  113.50399780    4.90999985    2.84999990
   16.38722229  117.16400146    4.90999985    2.84999990
   16.39055634  117.44899750    4.90999985    2.84999990
   16.39638901  117.44899750    4.90999985    2.84999990
   16.40055466  110.65399933    4.90999985    2.86999989
   16.40305519  120.13200378    4.90999985    2.84999990
   16.40416718  110.55999756    4.90999985    2.84999990
   16.40722275  112.86299896    4.90999985    2.84999990
   16.41055489  112.33499908    4.90999985    2.84999990
   16.41361046  111.92600250    4.90999985    2.84999990
   16.41694450  114.32599640    4.90999985    2.84999990
   16.42027664  114.39299774    4.90999985    2.84999990
   16.42333221  110.52500153    4.90999985    2.84999990
   16.42666626  105.55200195    4.90999985    2.84999990
   16.43000031  113.29699707    4.90999985    2.84999990
   16.43305397  113.65100098    4.90999985    2.84999990
   16.43916512  113.65100098    4.90999985    2.84999990
   16.44333267  115.58899689    4.90999985    2.84999990
   16.44666672  116.78399658    4.90999985    2.84999990
   16.44972038  119.21299744    4.90999985    2.84999990
   16.45305634  115.75499725    4.90999985    2.84999990
   16.45639038  117.99600220    4.90999985    2.84999990
   16.45944595  115.83699799    4.90999985    2.84999990
   16.46277809  113.79499817    4.90999985    2.84999990
   16.46611214  116.69100189    4.90999985    2.82999992
   16.46916771  113.96700287    4.90999985    2.84999990
   16.47000122  112.05400085    4.90999985    2.84999990
   16.47277832  111.21299744    4.90999985    2.84999990
   16.47611237  114.74600220    4.90999985    2.84999990
   16.48194504  114.74600220    4.90999985    2.84999990
   16.48611069  118.45899963    4.90999985    2.82999992
   16.48944473  109.77400208    4.90999985    2.84999990
   16.49277878  105.87599945    4.90999985    2.84999990
   16.49583435  116.66400146    4.90999985    2.84999990
   16.49916649  117.54900360    4.90999985    2.84999990
   16.50222206  111.28700256    4.90999985    2.84999990
   16.50333405  111.36799622    4.90999985    2.84999990
   16.50583267  115.50099945    4.90999985    2.84999990
   16.50916672  115.32900238    4.90999985    2.86999989
   16.51222229  115.21099854    4.90999985    2.82999992
   16.51555634  115.01599884    4.90999985    2.84999990
   16.51888847  111.22100067    4.90999985    2.84999990
   16.52499962  111.22100067    4.90999985    2.84999990
   16.52916718  115.46800232    4.90999985    2.84999990
   16.53222275  115.57299805    4.90999985    2.84999990
   16.53555489  114.83899689    4.90999985    2.84999990
   16.53694344  110.50299835    4.90999985    2.84999990
   16.53916550  113.73100281    4.90999985    2.84999990
   16.54249954  111.57800293    4.90999985    2.84999990
   16.54555511  115.65299988    4.90999985    2.84999990
   16.54888916  114.66799927    4.90999985    2.82999992
   16.55222130  116.82099915    4.90999985    2.84999990
   16.55527687  110.60700226    4.90999985    2.84999990
   16.55861092  112.63700104    4.90999985    2.82999992
   16.56166649  110.10299683    4.90999985    2.84999990
   16.56777954  110.10299683    4.90999985    2.84999990
   16.57194519  107.21499634    4.90999985    2.84999990
   16.57500076  114.88999939    4.90999985    2.86999989
   16.57833481  113.65200043    4.90999985    2.84999990
   16.58166695  112.07399750    4.90999985    2.84999990
   16.58472252  111.84400177    4.90999985    2.84999990
   16.58805656  110.69499969    4.90999985    2.84999990
   16.59111214  111.38400269    4.90999985    2.84999990
   16.59444427  112.59300232    4.90999985    2.84999990
   16.59777832  112.62699890    4.90999985    2.84999990
   16.60083389  112.98600006    4.90999985    2.82999992
   16.60361099  113.99900055    4.90999985    2.84999990
   16.60472298  111.35900116    4.90999985    2.84999990
   16.61055565  111.35900116    4.90999985    2.84999990
   16.61472321  114.19799805    4.90999985    2.84999990
   16.61805534  117.05799866    4.90999985    2.84999990
   16.62111092  117.09999847    4.90999985    2.84999990
   16.62444496  107.60299683    4.90999985    2.84999990
   16.62777710  117.16500092    4.90999985    2.82999992
   16.63083267  114.42900085    4.90999985    2.84999990
   16.63416672  116.45400238    4.90999985    2.84999990
   16.63694382  112.49800110    4.90999985    2.84999990
   16.63777733  111.37300110    4.90999985    2.84999990
   16.64083290  114.37400055    4.90999985    2.82999992
   16.64416695  113.14299774    4.90999985    2.84999990
   16.64749908  118.43299866    4.90999985    2.84999990
   16.65333366  118.43299866    4.90999985    2.84999990
   16.65749931  111.87799835    4.90999985    2.84999990
   16.66083336  110.07599640    4.90999985    2.82999992
   16.66388893  108.55100250    4.90999985    2.84999990
   16.66722107  108.64399719    4.90999985    2.84999990
   16.67027664  112.18599701    4.90999985    2.84999990
   16.67083359  111.67400360    4.90999985    2.84999990
   16.67388916  107.52500153    4.90999985    2.84999990
   16.67722130  113.60099792    4.90999985    2.84999990
   16.68055534  114.30100250    4.90999985    2.84999990
   16.68361092  116.99600220    4.90999985    2.84999990
   16.68694305  118.71600342    4.90999985    2.84999990
   16.68999863  110.20899963    4.90999985    2.82999992
   16.69638824  110.20899963    4.90999985    2.82999992
   16.70027924  114.35700226    4.90999985    2.84999990
   16.70361137  113.55300140    4.90999985    2.82999992
   16.70416832  112.97100067    4.90999985    2.82999992
   16.70750046  113.21299744    4.90999985    2.82999992
   16.71055603  114.12899780    4.90999985    2.84999990
   16.71389008  109.66400146    4.90999985    2.84999990
   16.71694565  113.22299957    4.90999985    2.84999990
   16.72027779  109.82399750    4.90999985    2.84999990
   16.72361183  114.37400055    4.90999985    2.84999990
   16.72666740  108.65499878    4.90999985    2.84999990
   16.73000145  112.71299744    4.90999985    2.84999990
   16.73333359  109.61399841    4.90999985    2.84999990
   16.73916626  109.61399841    4.90999985    2.82999992
   16.74333382  118.09600067    4.90999985    2.84999990
   16.74638939  116.17700195    4.90999985    2.84999990
   16.74972153  114.95700073    4.90999985    2.84999990
   16.75305557  118.86599731    4.90999985    2.84999990
   16.75611115  116.44599915    4.90999985    2.84999990
   16.75944519  116.32900238    4.90999985    2.82999992
   16.76250076  116.11900330    4.90999985    2.84999990
   16.76583290  113.84500122    4.90999985    2.84999990
   16.76916695  112.36599731    4.90999985    2.82999992
   16.77027702  115.99099731    4.90999985    2.84999990
   16.77277756  110.59400177    4.90999985    2.84999990
   16.77583313  108.35800171    4.90999985    2.82999992
   16.78194427  108.35800171    4.90999985    2.84999990
   16.78610992  113.69899750    4.90999985    2.86999989
   16.78916550  112.44300079    4.90999985    2.84999990
   16.79249954  113.30100250    4.90999985    2.84999990
   16.79583359  115.48999786    4.90999985    2.84999990
   16.79888916  121.33399963    4.90999985    2.84999990
   16.80222130  116.38600159    4.90999985    2.84999990
   16.80360985  111.70300293    4.90999985    2.84999990
   16.80583191  118.25900269    4.90999985    2.84999990
   16.80888748  107.45099640    4.90999985    2.84999990
   16.81222153  110.50299835    4.90999985    2.84999990
   16.81555557  111.89800262    4.90999985    2.84999990
   16.81861115  110.50099945    4.90999985    2.84999990
   16.82472229  110.50099945    4.90999985    2.84999990
   16.82888985  113.47599792    4.90999985    2.84999990
   16.83222389  118.56199646    4.90999985    2.84999990
   16.83555603  112.38999939    4.90999985    2.84999990
   16.83722305  120.50900269    4.90999985    2.84999990
   16.83916664  117.97799683    4.90999985    2.84999990
   16.84222221  120.54000092    4.90999985    2.84999990
   16.84555626  117.31700134    4.90999985    2.84999990
   16.84889030  117.18099976    4.90999985    2.84999990
   16.85194397  120.53700256    4.90999985    2.86999989
   16.85527802  114.17700195    4.90999985    2.86999989
   16.85833359  114.88300323    4.90999985    2.84999990
   16.86166763  116.13999939    4.90999985    2.82999992
   16.86777878  116.13999939    4.90999985    2.82999992
   16.88611031  113.80599976    4.90999985    2.82999992
   16.88916588  110.80899811    0.40000001    2.67000008
   16.89249992  115.64800262    0.09000000    0.47999999
   16.89583397  114.09999847    0.05000000    0.20999999
   16.89888954  113.67199707    0.05000000    0.07000000
   16.90222168  115.06300354    0.05000000    0.07000000
   16.90555573  114.25800323    0.05000000    0.07000000
   16.91083336  114.25800323    0.05000000    0.07000000
   16.91472244  115.21800232    0.05000000    0.07000000
   16.91805458  114.41899872    0.05000000    0.07000000
   16.91916656  116.41600037    0.05000000    0.07000000
   16.92166519  118.29399872    0.05000000    0.07000000
   16.92499924  113.15399933    0.05000000    0.07000000
   16.92833328  109.70200348    0.05000000    0.07000000
   16.93138885  114.60199738    0.05000000    0.07000000
   16.93472099  112.00399780    0.05000000    0.07000000
   16.93777657  112.82499695    0.05000000    0.07000000
   16.94111061  115.48400116    0.05000000    0.07000000
   16.94444275  115.54799652    0.05000000    0.07000000
   16.94749832  115.14800262    0.05000000    0.07000000
   16.95361137  115.14800262    0.05000000    0.07000000
   16.95777893  113.08999634    0.05000000    0.07000000
   16.96083450  114.23500061    0.05000000    0.07000000
   16.96416664  111.01300049    0.05000000    0.07000000
   16.96750069  114.64399719    0.05000000    0.07000000
   16.97055626  120.19599915    0.05000000    0.07000000
   16.97389030  116.36799622    0.05000000    0.07000000
   16.97722244  114.10500336    0.05000000    0.07000000
   16.98027802  118.07800293    0.05000000    0.07000000
   16.98361206  119.20800018    0.05000000    0.07000000
   16.98583412  115.09899902    0.05000000    0.07000000
   16.98694420  120.76699829    0.05000000    0.07000000
   16.99027824  113.94000244    0.05000000    0.07000000
   16.99638939  113.94000244    0.05000000    0.07000000
   17.00055504  117.02400208    0.05000000    0.07000000
   17.00388908  116.06500244    0.05000000    0.07000000
   17.00694466  118.04000092    0.05000000    0.07000000
   17.01027870  111.08499908    0.05000000    0.07000000
   17.01361084  115.85800171    0.05000000    0.07000000
   17.01666641  116.78199768    0.05000000    0.07000000
   17.01916695  114.14199829    0.05000000    0.07000000
   17.02027702  120.83100128    0.05000000    0.07000000
   17.02361107  121.66100311    0.05000000    0.07000000
   17.02694511  120.51399994    0.05000000    0.07000000
   17.03000069  113.91200256    0.05000000    0.07000000
   17.03333282  118.73100281    0.05000000    0.07000000
   17.03916550  118.73100281    0.05000000    0.07000000
   17.04333305  115.04100037    0.05000000    0.07000000
   17.04666710  115.42199707    0.05000000    0.07000000
   17.04999924  114.89199829    0.05000000    0.07000000
   17.05249977  115.94599915    0.05000000    0.07000000
   17.05333328  112.47200012    0.05000000    0.07000000
   17.05666542  113.05000305    0.05000000    0.07000000
   17.05999947  111.35700226    0.05000000    0.07000000
   17.06333351  116.11299896    0.05000000    0.07000000
   17.06638718  117.80999756    0.05000000    0.07000000
   17.06972313  119.77899933    0.05000000    0.07000000
   17.07277870  116.79900360    0.05000000    0.07000000
   17.07611275  116.37200165    0.05000000    0.07000000
   17.08222389  116.37200165    0.05000000    0.07000000
   17.08611107  115.83100128    0.05000000    0.07000000
   17.08944511  115.61599731    0.05000000    0.07000000
   17.09277916  115.08899689    0.05000000    0.07000000
   17.09583473  115.09700012    0.05000000    0.07000000
   17.09916687  114.34200287    0.05000000    0.07000000
   17.10250092  116.41899872    0.05000000    0.07000000
   17.10555649  113.73699951    0.05000000    0.07000000
   17.10888863  110.51799774    0.05000000    0.07000000
   17.11194420  120.77700043    0.05000000    0.07000000
   17.11527824  121.49800110    0.05000000    0.07000000
   17.11861038  115.11000061    0.05000000    0.07000000
   17.11916733  117.69599915    0.05000000    0.07000000
   17.12500000  117.69599915    0.05000000    0.07000000
   17.12916756  118.53900146    0.05000000    0.07000000
   17.13222313  115.66100311    0.05000000    0.07000000
   17.13555527  117.30200195    0.05000000    0.07000000
   17.13888931  115.36199951    0.05000000    0.07000000
   17.14194489  115.94799805    0.05000000    0.07000000
   17.14527702  116.95400238    0.05000000    0.07000000
   17.14833260  117.33100128    0.05000000    0.07000000
   17.15166664  113.22200012    0.05000000    0.07000000
   17.15250015  111.76799774    0.05000000    0.07000000
   17.15527725  121.82499695    0.05000000    0.07000000
   17.15861130  121.25000000    0.05000000    0.07000000
   17.16194344  121.71299744    0.05000000    0.07000000
   17.16777802  121.71299744    0.05000000    0.07000000
   17.17194366  120.42900085    0.05000000    0.07000000
   17.17499924  118.65100098    0.05000000    0.07000000
   17.17833328  118.06400299    0.05000000    0.07000000
   17.18166542  121.31500244    0.05000000    0.07000000
   17.18472099  112.78900146    0.05000000    0.07000000
   17.18583298  119.68199921    0.05000000    0.07000000
   17.18833160  118.19699860    0.05000000    0.07000000
   17.19166565  114.75199890    0.05000000    0.07000000
   17.19499969  114.27700043    0.05000000    0.07000000
   17.19805527  121.88099670    0.05000000    0.07000000
   17.20138931  113.31099701    0.05000000    0.07000000
   17.20472336  112.24199677    0.05000000    0.07000000
   17.21055603  112.24199677    0.05000000    0.07000000
   17.21472359  118.11799622    0.05000000    0.07000000
   17.21805573  118.26999664    0.05000000    0.07000000
   17.21916771  119.17700195    0.05000000    0.07000000
   17.22138977  117.73200226    0.05000000    0.07000000
   17.22472191  114.39199829    0.05000000    0.07000000
   17.22805595  112.44200134    0.05000000    0.07000000
   17.23111153  114.94200134    0.05000000    0.07000000
   17.23444557  115.77300262    0.05000000    0.07000000
   17.23777771  123.62599945    0.05000000    0.07000000
   17.24083328  122.37500000    0.05000000    0.07000000
   17.24416733  117.22599792    0.05000000    0.07000000
   17.24722290  126.22100067    0.05000000    0.07000000
   17.25361061  126.22100067    0.05000000    0.07000000
   17.25749969  118.40399933    0.05000000    0.07000000
   17.26083374  116.14099884    0.05000000    0.07000000
   17.26416588  114.20700073    0.05000000    0.07000000
   17.26722145  113.62799835    0.05000000    0.07000000
   17.27055550  119.18099976    0.05000000    0.07000000
   17.27388954  120.51399994    0.05000000    0.07000000
   17.27694511  122.83200073    0.05000000    0.07000000
   17.28027725  115.11399841    0.05000000    0.07000000
   17.28333282  120.22000122    0.05000000    0.07000000
   17.28583336  119.28600311    0.05000000    0.07000000
   17.28694344  118.23799896    0.05000000    0.07000000
   17.29027748  122.51000214    0.05000000    0.07000000
   17.29638863  122.51000214    0.05000000    0.07000000
   17.30055428  114.31400299    0.05000000    0.07000000
   17.30360985  110.30699921    0.05000000    0.07000000
   17.30694389  115.97599792    0.05000000    0.07000000
   17.31027794  111.74199677    0.05000000    0.07000000
   17.31333351  115.16500092    0.05000000    0.07000000
   17.31666756  120.19799805    0.05000000    0.07000000
   17.31916809  120.28500366    0.05000000    0.07000000
   17.32027817  123.12500000    0.05000000    0.07000000
   17.32333374  121.40799713    0.05000000    0.07000000
   17.32666779  115.84300232    0.05000000    0.07000000
   17.32972336  117.23699951    0.05000000    0.07000000
   17.33305550  119.45200348    0.05000000    0.07000000
   17.33916664  119.45200348    0.05000000    0.07000000
   17.34333420  117.81500244    0.05000000    0.07000000
   17.34666824  117.19899750    0.05000000    0.07000000
   17.34972191  115.19699860    0.05000000    0.07000000
   17.35250092  119.80899811    0.05000000    0.07000000
   17.35361099  118.83000183    0.05000000    0.07000000
   17.35666656  114.34200287    0.05000000    0.07000000
   17.36000061  114.54499817    0.05000000    0.07000000
   17.36305618  112.76599884    0.05000000    0.07000000
   17.36638832  110.64299774    0.05000000    0.07000000
   17.36972237  110.51300049    0.05000000    0.07000000
   17.37277794  121.21800232    0.05000000    0.07000000
   17.37611198  119.38300323    0.05000000    0.07000000
   17.38194466  119.38300323    0.05000000    0.07000000
   17.38611031  116.52100372    0.05000000    0.07000000
   17.38944435  119.16600037    0.05000000    0.07000000
   17.39277840  117.76599884    0.05000000    0.07000000
   17.39583397  118.09100342    0.05000000    0.07000000
   17.39916611  115.66400146    0.05000000    0.07000000
   17.40250015  118.79100037    0.05000000    0.07000000
   17.40555573  120.73899841    0.05000000    0.07000000
   17.40888786  117.04100037    0.05000000    0.07000000
   17.41194344  118.58000183    0.05000000    0.07000000
   17.41527748  113.16799927    0.05000000    0.07000000
   17.41860962  112.92500305    0.05000000    0.07000000
   17.41916656  115.85199738    0.05000000    0.07000000
   17.42499924  115.85199738    0.05000000    0.07000000
   17.42888832  118.02600098    0.05000000    0.07000000
   17.43222237  120.68399811    0.05000000    0.07000000
   17.43555450  120.73400116    0.05000000    0.07000000
   17.43861008  117.26699829    0.05000000    0.07000000
   17.44194412  114.15200043    0.05000000    0.07000000
   17.44499969  119.80500031    0.05000000    0.07000000
   17.44833183  114.61199951    0.05000000    0.07000000
   17.45166779  112.69200134    0.05000000    0.07000000
   17.45250130  116.72399902    0.05000000    0.07000000
   17.45527840  122.52500153    0.05000000    0.07000000
   17.45833397  121.16400146    0.05000000    0.07000000
   17.46166801  121.97499847    0.05000000    0.07000000
   17.46777916  121.97499847    0.05000000    0.07000000
   17.47194481  120.52600098    0.05000000    0.07000000
   17.47500038  118.73300171    0.05000000    0.07000000
   17.47833443  114.02100372    0.05000000    0.07000000
   17.48166656  118.93299866    0.05000000    0.07000000
   17.48472214  121.68199921    0.05000000    0.07000000
   17.48583412  115.99800110    0.05000000    0.07000000
   17.48861122  116.95999908    0.05000000    0.07000000
   17.49166679  114.28600311    0.05000000    0.07000000
   17.49500084  113.14199829    0.05000000    0.07000000
   17.49805641  112.66699982    0.05000000    0.07000000
   17.50138855  120.20400238    0.05000000    0.07000000
   17.50472260  112.42099762    0.05000000    0.07000000
   17.51055527  112.42099762    0.05000000    0.07000000
   17.51472282  116.25099945    0.05000000    0.07000000
   17.51805496  121.81099701    0.05000000    0.07000000
   17.51916695  118.09300232    0.05000000    0.07000000
   17.52166557  118.60099792    0.05000000    0.07000000
   17.52472115  116.48699951    0.05000000    0.07000000
   17.52805519  119.23799896    0.05000000    0.07000000
   17.53111076  113.82700348    0.05000000    0.07000000
   17.53444481  112.73500061    0.05000000    0.07000000
   17.53777695  115.98400116    0.05000000    0.07000000
   17.54083252  113.47599792    0.05000000    0.07000000
   17.54416656  112.33000183    0.05000000    0.07000000
   17.54749870  116.59100342    0.05000000    0.07000000
   17.55333328  116.59100342    0.05000000    0.07000000
   17.55749893  123.78299713    0.05000000    0.07000000
   17.56083298  120.98799896    0.05000000    0.07000000
   17.56416512  112.89299774    0.05000000    0.07000000
   17.56722260  121.46399689    0.05000000    0.07000000
   17.57055664  116.49500275    0.05000000    0.07000000
   17.57361221  114.43299866    0.05000000    0.07000000
   17.57694626  118.89199829    0.05000000    0.07000000
   17.58027840  124.20700073    0.05000000    0.07000000
   17.58333397  124.06900024    0.05000000    0.07000000
   17.58583450  122.99400330    0.05000000    0.07000000
   17.58722305  125.07399750    0.05000000    0.07000000
   17.59027863  124.97399902    0.05000000    0.07000000
   17.59638977  124.97399902    0.05000000    0.07000000
   17.60055542  125.11199951    0.05000000    0.07000000
   17.60361099  123.33499908    0.05000000    0.07000000
   17.60694504  118.09200287    0.05000000    0.07000000
   17.61000061  121.88800049    0.05000000    0.07000000
   17.61333466  117.76999664    0.05000000    0.07000000
   17.61666679  125.10900116    0.05000000    0.07000000
   17.61916733  120.79599762    0.05000000    0.07000000
   17.62027740  124.27999878    0.05000000    0.07000000
   17.62333298  124.76300049    0.05000000    0.07000000
   17.62666702  122.71199799    0.05000000    0.07000000
   17.63000107  125.80899811    0.05000000    0.07000000
   17.63305473  118.56700134    0.05000000    0.07000000
   17.63916588  118.56700134    0.05000000    0.07000000
   17.64333344  123.16300201    0.05000000    0.07000000
   17.64638901  120.50499725    0.05000000    0.07000000
   17.64972115  124.78700256    0.05000000    0.07000000
   17.65250015  123.20899963    0.05000000    0.07000000
   17.65333366  122.89299774    0.05000000    0.07000000
   17.65638924  124.12400055    0.05000000    0.07000000
   17.65972137  121.95300293    0.05000000    0.07000000
   17.66305542  125.95300293    0.05000000    0.07000000
   17.66611099  119.98899841    0.05000000    0.07000000
   17.66944313  118.52700043    0.05000000    0.07000000
   17.67249870  113.79000092    0.05000000    0.07000000
   17.67583275  119.80899811    0.05000000    0.07000000
   17.68194389  119.80899811    0.05000000    0.07000000
   17.68610954  122.75399780    0.05000000    0.07000000
   17.68944359  121.23200226    0.05000000    0.07000000
   17.69249916  123.53199768    0.05000000    0.07000000
   17.69583321  121.06099701    0.05000000    0.07000000
   17.69888878  120.23899841    0.05000000    0.07000000
   17.70222282  117.28399658    0.05000000    0.07000000
   17.70555687  118.93499756    0.05000000    0.07000000
   17.70861244  117.55599976    0.05000000    0.07000000
   17.71194458  115.48999786    0.05000000    0.07000000
   17.71527863  120.73100281    0.05000000    0.07000000
   17.71833420  120.87300110    0.05000000    0.07000000
   17.71916771  119.92400360    0.05000000    0.07000000
   17.72472191  119.92400360    0.05000000    0.07000000
   17.72888947  124.20899963    0.05000000    0.07000000
   17.73222351  122.47799683    0.05000000    0.07000000
   17.73527718  119.03900146    0.05000000    0.07000000
   17.73861122  124.05699921    0.05000000    0.07000000
   17.74194527  122.92700195    0.05000000    0.07000000
   17.74500084  120.71900177    0.05000000    0.07000000
   17.74833298  121.15399933    0.05000000    0.07000000
   17.75166702  116.40100098    0.05000000    0.07000000
   17.75250053  115.57099915    0.05000000    0.07000000
   17.75527763  113.06700134    0.05000000    0.07000000
   17.75833321  117.08000183    0.05000000    0.07000000
   17.76166725  120.23899841    0.05000000    0.07000000
   17.76777840  120.23899841    0.05000000    0.07000000
   17.77194405  119.59899902    0.05000000    0.07000000
   17.77499962  121.19300079    0.05000000    0.07000000
   17.77833366  118.97799683    0.05000000    0.07000000
   17.78138924  116.39199829    0.05000000    0.07000000
   17.78472137  116.80999756    0.05000000    0.07000000
   17.78583336  116.88700104    0.05000000    0.07000000
   17.78833199  121.29699707    0.05000000    0.07000000
   17.79138756  116.97499847    0.05000000    0.07000000
   17.79472160  118.63600159    0.05000000    0.07000000
   17.79805565  120.94599915    0.05000000    0.07000000
   17.80111122  122.14399719    0.05000000    0.07000000
   17.80444336  124.14499664    0.05000000    0.07000000
   17.81055450  124.14499664    0.05000000    0.07000000
   17.81472206  119.37100220    0.05000000    0.07000000
   17.81777954  121.17099762    0.05000000    0.07000000
   17.81916809  124.68900299    0.05000000    0.07000000
   17.82166672  115.56400299    0.05000000    0.07000000
   17.82472229  121.22399902    0.05000000    0.07000000
   17.82805634  121.81600189    0.05000000    0.07000000
   17.83139038  118.44100189    0.05000000    0.07000000
   17.83444595  120.95700073    0.05000000    0.07000000
   17.83777809  119.01000214    0.05000000    0.07000000
   17.84083366  118.04299927    0.05000000    0.07000000
   17.84416771  116.12799835    0.05000000    0.07000000
   17.84749985  123.07099915    0.05000000    0.07000000
   17.85333443  123.07099915    0.05000000    0.07000000
   17.85750008  117.72399902    0.05000000    0.07000000
   17.86083412  121.58300018    0.05000000    0.07000000
   17.86388969  125.75000000    0.05000000    0.07000000
   17.86722183  123.40899658    0.05000000    0.07000000
   17.87027740  118.29199982    0.05000000    0.07000000
   17.87361145  118.78500366    0.05000000    0.07000000
   17.87694550  118.60500336    0.05000000    0.07000000
   17.88000107  116.98200226    0.05000000    0.07000000
   17.88333321  124.19899750    0.05000000    0.07000000
   17.88583374  121.82800293    0.05000000    0.07000000
   17.90638924  121.82800293    0.05000000    0.07000000
   17.91055489  116.74600220    0.05000000    0.07000000
   17.91388893  113.82700348    0.05000000    0.07000000
   17.91694450  115.18499756    0.05000000    0.07000000
   17.91916656  121.15699768    0.05000000    0.07000000
   17.92055511  123.49600220    0.05000000    0.07000000
   17.92388916  125.62200165    0.05000000    0.07000000
   17.92694473  120.15799713    0.05000000    0.07000000
   17.93027687  118.31099701    0.05000000    0.07000000
   17.93333244  117.96900177    0.05000000    0.07000000
   17.93666649  122.08599854    0.05000000    0.07000000
   17.93999863  123.88700104    0.05000000    0.07000000
   17.94305420  116.52300262    0.05000000    0.07000000
   17.94916534  116.52300262    0.05000000    0.07000000
   17.95333481  120.38600159    0.05000000    0.07000000
   17.95666695  119.01000214    0.05000000    0.07000000
   17.95972252  119.77999878    0.05000000    0.07000000
   17.96305656  121.40799713    0.05000000    0.07000000
   17.96611214  120.39199829    0.05000000    0.07000000
   17.96944427  122.42299652    0.05000000    0.07000000
   17.97277832  119.59600067    0.05000000    0.07000000
   17.97583389  124.26799774    0.05000000    0.07000000
   17.97916794  123.32499695    0.05000000    0.07000000
   17.98250008  119.56199646    0.05000000    0.07000000
   17.98555565  118.06099701    0.05000000    0.07000000
   17.98611069  125.68299866    0.05000000    0.07000000
   17.99194527  125.68299866    0.05000000    0.07000000
   17.99611092  117.04000092    0.05000000    0.07000000
   17.99944496  125.43299866    0.05000000    0.07000000
   18.00250053  123.09899902    0.05000000    0.07000000
   18.00583267  121.67299652    0.05000000    0.07000000
   18.00916672  120.50199890    0.05000000    0.07000000
   18.01222229  124.76499939    0.05000000    0.07000000
   18.01555634  118.40100098    0.05000000    0.07000000
   18.01888847  119.03299713    0.05000000    0.07000000
   18.01944351  117.68900299    0.05000000    0.07000000
   18.02249908  120.81500244    0.05000000    0.07000000
   18.02555466  122.84899902    0.05000000    0.07000000
   18.02888870  119.44499969    0.05000000    0.07000000
   18.03499985  119.44499969    0.05000000    0.07000000
   18.03888893  123.17700195    0.05000000    0.07000000
   18.04222107  118.52200317    0.05000000    0.07000000
   18.04555511  116.79599762    0.05000000    0.07000000
   18.04861069  116.68499756    0.05000000    0.07000000
   18.05194283  122.15299988    0.05000000    0.07000000
   18.05277634  121.78099823    0.05000000    0.07000000
   18.05555534  123.44100189    0.05000000    0.07000000
   18.05861092  124.88099670    0.05000000    0.07000000
   18.06194305  125.57700348    0.05000000    0.07000000
   18.06527710  121.09999847    0.05000000    0.07000000
   18.06833458  123.01899719    0.05000000    0.07000000
   18.07166672  121.70700073    0.05000000    0.07000000
   18.07777786  121.70700073    0.05000000    0.07000000
   18.08194542  117.39700317    0.05000000    0.07000000
   18.08500099  117.90699768    0.05000000    0.07000000
   18.08611107  118.97000122    0.05000000    0.07000000
   18.08889008  119.75900269    0.05000000    0.07000000
   18.09194565  119.68099976    0.05000000    0.07000000
   18.09527779  124.28800201    0.05000000    0.07000000
   18.09861183  124.96600342    0.05000000    0.07000000
   18.10166740  123.16500092    0.05000000    0.07000000
   18.10499954  123.41999817    0.05000000    0.07000000
   18.10805511  119.05000305    0.05000000    0.07000000
   18.11138916  116.37300110    0.05000000    0.07000000
   18.11472321  118.34100342    0.05000000    0.07000000
   18.12055588  118.34100342    0.05000000    0.07000000
   18.12472153  122.13700104    0.05000000    0.07000000
   18.12805557  122.56099701    0.05000000    0.07000000
   18.13111115  125.93699646    0.05000000    0.07000000
   18.13444519  118.97100067    0.05000000    0.07000000
   18.13750076  122.84999847    0.05000000    0.07000000
   18.14083290  121.43000031    0.05000000    0.07000000
   18.14416695  123.56700134    0.05000000    0.07000000
   18.14722252  119.62500000    0.05000000    0.07000000
   18.15055466  121.54900360    0.05000000    0.07000000
   18.15277672  125.03500366    0.05000000    0.07000000
   18.15416718  123.51100159    0.05000000    0.07000000
   18.15722275  121.47100067    0.05000000    0.07000000
   18.16333389  121.47100067    0.05000000    0.07000000
   18.16749954  123.69100189    0.05000000    0.07000000
   18.17083359  121.59899902    0.05000000    0.07000000
   18.17388916  118.94899750    0.05000000    0.07000000
   18.17722130  120.54299927    0.05000000    0.07000000
   18.18055534  118.63200378    0.05000000    0.07000000
   18.18361092  120.05200195    0.05000000    0.07000000
   18.18610954  118.71499634    0.05000000    0.07000000
   18.18750000  118.01399994    0.05000000    0.07000000
   18.19055557  122.83599854    0.05000000    0.07000000
   18.19388771  116.26300049    0.05000000    0.07000000
   18.19722176  126.81099701    0.05000000    0.07000000
   18.20027924  119.09700012    0.05000000    0.07000000
   18.20639038  119.09700012    0.05000000    0.07000000
   18.21027946  120.85800171    0.05000000    0.07000000
   18.21361160  120.97299957    0.05000000    0.07000000
   18.21694565  120.53299713    0.05000000    0.07000000
   18.21944427  117.91899872    0.05000000    0.07000000
   18.22055626  112.84600067    0.05000000    0.07000000
   18.22361183  118.55799866    0.05000000    0.07000000
   18.22694588  117.33999634    0.05000000    0.07000000
   18.23027802  117.32900238    0.05000000    0.07000000
   18.23333359  119.37699890    0.05000000    0.07000000
   18.23666763  117.78199768    0.05000000    0.07000000
   18.23972321  116.60800171    0.05000000    0.07000000
   18.24305534  120.92099762    0.05000000    0.07000000
   18.24916649  120.92099762    0.05000000    0.07000000
   18.25333405  123.35700226    0.05000000    0.07000000
   18.25638962  121.14499664    0.05000000    0.07000000
   18.25972176  120.70800018    0.05000000    0.07000000
   18.26305580  122.77999878    0.05000000    0.07000000
   18.26611137  116.19499969    0.05000000    0.07000000
   18.26944351  117.61900330    0.05000000    0.07000000
   18.27249908  121.60600281    0.05000000    0.07000000
   18.27583313   95.41300201    0.05000000    0.07000000
   18.27916718   91.74880219    0.05000000    0.07000000
   18.28222275  120.21600342    0.05000000    0.07000000
   18.28555489  126.37799835    0.05000000    0.07000000
   18.28610992  122.92900085    0.05000000    0.07000000
   18.29194450  122.92900085    0.05000000    0.07000000
   18.29611015  118.80000305    0.05000000    0.07000000
   18.29944420  117.53900146    0.05000000    0.07000000
   18.30249977  120.39399719    0.05000000    0.07000000
   18.30583191  120.08100128    0.05000000    0.07000000
   18.30888748  120.94899750    0.05000000    0.07000000
   18.31222153  122.00099945    0.05000000    0.07000000
   18.31555557  118.35199738    0.05000000    0.07000000
   18.31861115  124.86900330    0.05000000    0.07000000
   18.31944466  122.04599762    0.05000000    0.07000000
   18.32222366  125.51100159    0.05000000    0.07000000
   18.32527924  121.35199738    0.05000000    0.07000000
   18.32861137  111.24900055    0.05000000    0.07000000
   18.33472252  111.24900055    0.05000000    0.07000000
   18.33889008  120.97499847    0.05000000    0.07000000
   18.34222221  118.14700317    0.05000000    0.07000000
   18.34527779  117.43499756    0.05000000    0.07000000
   18.34861183  116.66100311    0.05000000    0.07000000
   18.35194397  114.80899811    0.05000000    0.07000000
   18.35277748  116.21700287    0.05000000    0.07000000
   18.35555649  116.73999786    0.05000000    0.07000000
   18.35861206  115.24800110    0.05000000    0.07000000
   18.36194420  116.59300232    0.05000000    0.07000000
   18.36527824  113.09899902    0.05000000    0.07000000
   18.36833382  120.71600342    0.05000000    0.07000000
   18.37166595  121.26499939    0.05000000    0.07000000
   18.37777710  121.26499939    0.05000000    0.07000000
   18.38166618  122.92199707    0.05000000    0.07000000
   18.38500023  121.76000214    0.05000000    0.07000000
   18.38611031  119.71700287    0.05000000    0.07000000
   18.38861084  120.06999969    0.05000000    0.07000000
   18.39166641  122.38400269    0.05000000    0.07000000
   18.39500046  122.91500092    0.05000000    0.07000000
   18.39833260  122.89299774    0.05000000    0.07000000
   18.40138817  122.15000153    0.05000000    0.07000000
   18.40472221  119.54199982    0.05000000    0.07000000
   18.40805435  118.63500214    0.05000000    0.07000000
   18.41110992  119.04199982    0.05000000    0.07000000
   18.41444397  118.46800232    0.05000000    0.07000000
   18.42055511  118.46800232    0.05000000    0.07000000
   18.42472076  120.75000000    0.05000000    0.07000000
   18.42777634  117.18800354    0.05000000    0.07000000
   18.43111038  119.01200104    0.05000000    0.07000000
   18.43444443  117.52100372    0.05000000    0.07000000
   18.43750000  119.03600311    0.05000000    0.07000000
   18.44083214  120.26499939    0.05000000    0.07000000
   18.44388771  112.83999634    0.05000000    0.07000000
   18.44722176  121.34100342    0.05000000    0.07000000
   18.45055580  120.93099976    0.05000000    0.07000000
   18.45277786  123.18699646    0.05000000    0.07000000
   18.45416832  120.06900024    0.05000000    0.07000000
   18.45722389  123.85800171    0.05000000    0.07000000
   18.46333504  123.85800171    0.05000000    0.07000000
   18.46750069  119.84100342    0.05000000    0.07000000
   18.47083473  118.19400024    0.05000000    0.07000000
   18.47389030  118.76899719    0.05000000    0.07000000
   18.47722244  115.44100189    0.05000000    0.07000000
   18.48027802  121.60199738    0.05000000    0.07000000
   18.48361206  119.28900146    0.05000000    0.07000000
   18.48611069  117.16600037    0.05000000    0.07000000
   18.48722267  122.75900269    0.05000000    0.07000000
   18.49027824  123.84700012    0.05000000    0.07000000
   18.49361229  122.45200348    0.05000000    0.07000000
   18.49694443  120.97000122    0.05000000    0.07000000
   18.50000000  120.90399933    0.05000000    0.07000000
   18.50611115  120.90399933    0.05000000    0.07000000
   18.51027870  125.52100372    0.05000000    0.07000000
   18.51361084  122.32299805    0.05000000    0.07000000
   18.51666641  117.74299622    0.05000000    0.07000000
   18.51944351  115.23400116    0.05000000    0.07000000
   18.52055550  121.93199921    0.05000000    0.07000000
   18.52361107  119.91999817    0.05000000    0.07000000
   18.52694511  121.67199707    0.05000000    0.07000000
   18.53027725  122.93399811    0.05000000    0.07000000
   18.53333282  125.13899994    0.05000000    0.07000000
   18.53666687  125.83799744    0.05000000    0.07000000
   18.53999901  126.46099854    0.05000000    0.07000000
   18.54305458  124.81199646    0.05000000    0.07000000
   18.54916573  124.81199646    0.05000000    0.07000000
   18.55305481  124.37400055    0.05000000    0.07000000
   18.55638885  120.91799927    0.05000000    0.07000000
   18.55972099  124.78199768    0.05000000    0.07000000
   18.56277657  119.78500366    0.05000000    0.07000000
   18.56611061  122.49099731    0.05000000    0.07000000
   18.56944466  125.08899689    0.05000000    0.07000000
   18.57250023  120.83799744    0.05000000    0.07000000
   18.57583427  121.12200165    0.05000000    0.07000000
   18.57888985  124.17099762    0.05000000    0.07000000
   18.58222389  123.87999725    0.05000000    0.07000000
   18.58555603  124.36799622    0.05000000    0.07000000
   18.58611107  127.58200073    0.05000000    0.07000000
   18.59194565  127.58200073    0.05000000    0.07000000
   18.59611130  122.12500000    0.05000000    0.07000000
   18.59916687  126.25800323    0.05000000    0.07000000
   18.60250092  119.13700104    0.05000000    0.07000000
   18.60583305  121.35900116    0.05000000    0.07000000
   18.60888863  123.29299927    0.05000000    0.07000000
   18.61222267  121.02700043    0.05000000    0.07000000
   18.61555672  114.05400085    0.05000000    0.07000000
   18.61861038  118.08699799    0.05000000    0.07000000
   18.61944389  124.04399872    0.05000000    0.07000000
   18.62222290  119.67800140    0.05000000    0.07000000
   18.62527847  124.58300018    0.05000000    0.07000000
   18.62861061  119.96700287    0.05000000    0.07000000
   18.63472176  119.96700287    0.05000000    0.07000000
   18.63888931  122.03500366    0.05000000    0.07000000
   18.64222145  127.56700134    0.05000000    0.07000000
   18.64527702  128.27499390    0.05000000    0.07000000
   18.64861107  131.14799500    0.05000000    0.07000000
   18.65166664  124.60900116    0.05000000    0.07000000
   18.65277672  115.99299622    0.05000000    0.07000000
   18.65527725  123.04699707    0.05000000    0.07000000
   18.65861130  121.40299988    0.05000000    0.07000000
   18.66166687  120.28399658    0.05000000    0.07000000
   18.66499901  121.52999878    0.05000000    0.07000000
   18.66805458  119.12100220    0.05000000    0.07000000
   18.67138863  117.96600342    0.05000000    0.07000000
   18.67749977  117.96600342    0.05000000    0.07000000
   18.68166542  118.17400360    0.05000000    0.07000000
   18.68499947  120.81999969    0.05000000    0.07000000
   18.68610954  119.38899994    0.05000000    0.07000000
   18.68861008  122.55400085    0.05000000    0.07000000
   18.69194412  121.49600220    0.05000000    0.07000000
   18.69499969  124.11399841    0.05000000    0.07000000
   18.69833183  125.72499847    0.05000000    0.07000000
   18.70166779  124.09600067    0.05000000    0.07000000
   18.70472336  126.62400055    0.05000000    0.07000000
   18.70805550  126.96299744    0.05000000    0.07000000
   18.71138954  126.14800262    0.05000000    0.07000000
   18.71444511  126.58799744    0.05000000    0.07000000
   18.72055626  126.58799744    0.05000000    0.07000000
   18.72444534  130.16099548    0.05000000    0.07000000
   18.72777748  127.28600311    0.05000000    0.07000000
   18.73111153  126.00499725    0.05000000    0.07000000
   18.73416710  123.41899872    0.05000000    0.07000000
   18.73750114  125.84500122    0.05000000    0.07000000
   18.74083328  119.98699951    0.05000000    0.07000000
   18.74388885  121.88400269    0.05000000    0.07000000
   18.74722290  122.11799622    0.05000000    0.07000000
   18.75027847  125.27300262    0.05000000    0.07000000
   18.75277710  119.76599884    0.05000000    0.07000000
   18.75388908  118.84999847    0.05000000    0.07000000
   18.75722313  122.61799622    0.05000000    0.07000000
   18.76333427  122.61799622    0.05000000    0.07000000
   18.76749992  122.17900085    0.05000000    0.07000000
   18.77055550  126.10500336    0.05000000    0.07000000
   18.77388954  123.66300201    0.05000000    0.07000000
   18.77722168  121.18800354    0.05000000    0.07000000
   18.78027725  128.33500671    0.05000000    0.07000000
   18.78361130  124.05599976    0.05000000    0.07000000
   18.78610992  126.07299805    0.05000000    0.07000000
   18.78722191  124.22799683    0.05000000    0.07000000
   18.79055595  124.98999786    0.05000000    0.07000000
   18.79361153  121.89600372    0.05000000    0.07000000
   18.79694366  121.68800354    0.05000000    0.07000000
   18.79999924  121.66000366    0.05000000    0.07000000
   18.80611038  121.66000366    0.05000000    0.07000000
   18.81027794  121.97699738    0.05000000    0.07000000
   18.81361008  121.74099731    0.05000000    0.07000000
   18.81666756  119.74500275    0.05000000    0.07000000
   18.81944466  115.18299866    0.05000000    0.07000000
   18.82027817  114.86399841    0.05000000    0.07000000
   18.82361221  119.94899750    0.05000000    0.07000000
   18.82666779  116.14199829    0.05000000    0.07000000
   18.83000183  116.15200043    0.05000000    0.07000000
   18.83305550  119.37200165    0.05000000    0.07000000
   18.83638954  120.04199982    0.05000000    0.07000000
   18.83972359  124.98000336    0.05000000    0.07000000
   18.84277916  124.62200165    0.05000000    0.07000000
   18.84889030  124.62200165    0.05000000    0.07000000
   18.85305595  121.86799622    0.05000000    0.07000000
   18.85639000  121.72599792    0.05000000    0.07000000
   18.85944557  120.83300018    0.05000000    0.07000000
   18.86277771  119.72599792    0.05000000    0.07000000
   18.86611176  121.10600281    0.05000000    0.07000000
   18.86916733  123.70999908    0.05000000    0.07000000
   18.87249947  119.22200012    0.05000000    0.07000000
   18.87583351  120.09999847    0.05000000    0.07000000
   18.87888908  117.46900177    0.05000000    0.07000000
   18.88222313  116.18900299    0.05000000    0.07000000
   18.88527679  116.81199646    0.05000000    0.07000000
   18.88611031  119.64600372    0.05000000    0.07000000
   18.89194489  119.64600372    0.05000000    0.07000000
   18.89583397  118.44000244    0.05000000    0.07000000
   18.89916611  127.74099731    0.05000000    0.07000000
   18.90250015  131.55999756    0.05000000    0.07000000
   18.92000008  120.77400208    0.05000000    0.07000000
   18.92222214  119.90699768    0.05000000    0.07000000
   18.92555428  119.60800171    0.05000000    0.07000000
   18.92888832  116.30000305    0.05000000    0.07000000
   18.93472099  116.30000305    0.05000000    0.07000000
   18.93888855  122.42500305    0.05000000    0.07000000
   18.94222069  121.46199799    0.05000000    0.07000000
   18.94527626  121.49099731    0.05000000    0.07000000
   18.94861031  120.57700348    0.05000000    0.07000000
   18.95194435  119.82299805    0.05000000    0.07000000
   18.95333481  116.12200165    0.05000000    0.07000000
   18.95527840  121.35700226    0.05000000    0.07000000
   18.95861244  122.80200195    0.05000000    0.07000000
   18.96194458  120.01399994    0.05000000    0.07000000
   18.96500015  120.87799835    0.05000000    0.07000000
   18.96833420  123.34600067    0.05000000    0.07000000
   18.97138977  130.37500000    0.05000000    0.07000000
   18.97777748  130.37500000    0.05000000    0.07000000
   18.98166656  128.93499756    0.05000000    0.07000000
   18.98500061  125.11399841    0.05000000    0.07000000
   18.98666763  128.95899963    0.05000000    0.07000000
   18.98861122  126.52300262    0.05000000    0.07000000
   18.99194527  123.12799835    0.05000000    0.07000000
   18.99527740  124.69300079    0.05000000    0.07000000
   18.99833298  123.06999969    0.05000000    0.07000000
   19.00166702  120.29299927    0.05000000    0.07000000
   19.00472260  117.67900085    0.05000000    0.07000000
   19.00805473  122.12899780    0.05000000    0.07000000
   19.01138878  124.24500275    0.05000000    0.07000000
   19.01444435  122.60299683    0.05000000    0.07000000
   19.02055550  122.60299683    0.05000000    0.07000000
   19.02472115  129.10499573    0.05000000    0.07000000
   19.02777672  120.05599976    0.05000000    0.07000000
   19.03111076  123.73200226    0.05000000    0.07000000
   19.03444481  125.32800293    0.05000000    0.07000000
   19.03750038  129.12899780    0.05000000    0.07000000
   19.04083252  128.27900696    0.05000000    0.07000000
   19.04388809  127.51100159    0.05000000    0.07000000
   19.04722214  127.86799622    0.05000000    0.07000000
   19.05055428  124.68800354    0.05000000    0.07000000
   19.05333328  127.82399750    0.05000000    0.07000000
   19.05388832  124.78099823    0.05000000    0.07000000
   19.05722237  128.62300110    0.05000000    0.07000000
   19.06333351  128.62300110    0.05000000    0.07000000
   19.06750107  122.98000336    0.05000000    0.07000000
   19.07055664  124.71700287    0.05000000    0.07000000
   19.07389069  123.64900208    0.05000000    0.07000000
   19.07722282  124.43099976    0.05000000    0.07000000
   19.08027840  122.89499664    0.05000000    0.07000000
   19.08361244  123.85199738    0.05000000    0.07000000
   19.08666801  120.01999664    0.05000000    0.07000000
   19.08722305  120.32599640    0.05000000    0.07000000
   19.09055710  122.82800293    0.05000000    0.07000000
   19.09388924  126.36499786    0.05000000    0.07000000
   19.09694481  123.13500214    0.05000000    0.07000000
   19.10027885  126.36000061    0.05000000    0.07000000
   19.10611153  126.36000061    0.05000000    0.07000000
   19.11027908  129.98199463    0.05000000    0.07000000
   19.11361122  128.92100525    0.05000000    0.07000000
   19.11666679  126.52999878    0.05000000    0.07000000
   19.12000084  125.54900360    0.05000000    0.07000000
   19.12027740  128.28100586    0.05000000    0.07000000
   19.12361145  124.70300293    0.05000000    0.07000000
   19.12694550  126.59200287    0.05000000    0.07000000
   19.13027763  123.45800018    0.05000000    0.07000000
   19.13333321  122.71800232    0.05000000    0.07000000
   19.13666725  123.92500305    0.05000000    0.07000000
   19.13972282  120.05000305    0.05000000    0.07000000
   19.14305496  121.85500336    0.05000000    0.07000000
   19.14916611  121.85500336    0.05000000    0.07000000
   19.15305519  122.27799988    0.05000000    0.07000000
   19.15361023  118.60700226    0.05000000    0.07000000
   19.15694427  124.60800171    0.05000000    0.07000000
   19.15999985  119.99099731    0.05000000    0.07000000
   19.16333389  119.09999847    0.05000000    0.07000000
   19.16666603  124.58599854    0.05000000    0.07000000
   19.16972160  123.94300079    0.05000000    0.07000000
   19.17305565  125.73200226    0.05000000    0.07000000
   19.17638779  121.24900055    0.05000000    0.07000000
   19.17944336  125.46399689    0.05000000    0.07000000
   19.18277740  128.78199768    0.05000000    0.07000000
   19.18583298  121.19000244    0.05000000    0.07000000
   19.18694305  128.02499390    0.05000000    0.07000000
   19.19194412  128.02499390    0.05000000    0.07000000
   19.19610977  121.57599640    0.05000000    0.07000000
   19.19916534  130.07699585    0.05000000    0.07000000
   19.20250130  126.42400360    0.05000000    0.07000000
   19.20583344  120.97499847    0.05000000    0.07000000
   19.20888901  124.05400085    0.05000000    0.07000000
   19.21222305  126.41000366    0.05000000    0.07000000
   19.21527863  120.89199829    0.05000000    0.07000000
   19.21861076  120.41699982    0.05000000    0.07000000
   19.22027779  115.50599670    0.05000000    0.07000000
   19.22222328  121.90399933    0.05000000    0.07000000
   19.22527885  128.12199402    0.05000000    0.07000000
   19.22861099  124.96800232    0.05000000    0.07000000
   19.23472214  124.96800232    0.05000000    0.07000000
   19.23888969  120.62699890    0.05000000    0.07000000
   19.24194527  126.31199646    0.05000000    0.07000000
   19.24527740  130.17799377    0.05000000    0.07000000
   19.24861145  126.72000122    0.05000000    0.07000000
   19.25166702  132.08099365    0.05000000    0.07000000
   19.25361061  125.55899811    0.05000000    0.07000000
   19.25527763  127.79299927    0.05000000    0.07000000
   19.25833321  126.76799774    0.05000000    0.07000000
   19.26166725  125.91300201    0.05000000    0.07000000
   19.26499939  127.99500275    0.05000000    0.07000000
   19.26805496  127.55999756    0.05000000    0.07000000
   19.27166557  126.99299622    0.05000000    0.07000000
   19.27750015  126.99299622    0.05000000    0.07000000
   19.28166580  123.19000244    0.05000000    0.07000000
   19.28499985  128.64100647    0.05000000    0.07000000
   19.28694344  122.83100128    0.05000000    0.07000000
   19.28861046  123.55500031    0.05000000    0.07000000
   19.29166603  128.49600220    0.05000000    0.07000000
   19.29500008  122.79499817    0.05000000    0.07000000
   19.29833221  121.92299652    0.05000000    0.07000000
   19.30138779  127.18199921    0.05000000    0.07000000
   19.30472183  125.38300323    0.05000000    0.07000000
   19.30777740  131.74600220    0.05000000    0.07000000
   19.31110954  129.96400452    0.05000000    0.07000000
   19.31444359  130.02000427    0.05000000    0.07000000
   19.32055664  130.02000427    0.05000000    0.07000000
   19.32444572  123.26399994    0.05000000    0.07000000
   19.32777786  121.17600250    0.05000000    0.07000000
   19.33111191  130.31700134    0.05000000    0.07000000
   19.33416748  128.46299744    0.05000000    0.07000000
   19.33750153  124.06099701    0.05000000    0.07000000
   19.34055710  120.84899902    0.05000000    0.07000000
   19.34388924  127.29599762    0.05000000    0.07000000
   19.34722328  122.55799866    0.05000000    0.07000000
   19.35027885  125.87300110    0.05000000    0.07000000
   19.35361099  122.94599915    0.05000000    0.07000000
   19.35388947  123.24299622    0.05000000    0.07000000
   19.35722351  132.55999756    0.05000000    0.07000000
   19.36333466  132.55999756    0.05000000    0.07000000
   19.36750031  125.70099640    0.05000000    0.07000000
   19.37055588  128.24099731    0.05000000    0.07000000
   19.37388992  126.18599701    0.05000000    0.07000000
   19.37722206  130.36599731    0.05000000    0.07000000
   19.38027763  127.76499939    0.05000000    0.07000000
   19.38361168  126.05799866    0.05000000    0.07000000
   19.38666725  127.10500336    0.05000000    0.07000000
   19.38750076  125.28700256    0.05000000    0.07000000
   19.39027786  126.47799683    0.05000000    0.07000000
   19.39361191  131.70599365    0.05000000    0.07000000
   19.39666748  126.04900360    0.05000000    0.07000000
   19.39999962  126.64399719    0.05000000    0.07000000
   19.40611076  126.64399719    0.05000000    0.07000000
   19.41027832  128.11900330    0.05000000    0.07000000
   19.41361046  132.70899963    0.05000000    0.07000000
   19.41666603  128.16600037    0.05000000    0.07000000
   19.42000008  126.75000000    0.05000000    0.07000000
   19.42055511  128.19799805    0.05000000    0.07000000
   19.42333221  127.67500305    0.05000000    0.07000000
   19.42666626  127.67400360    0.05000000    0.07000000
   19.42972183  125.33599854    0.05000000    0.07000000
   19.43305397  127.50800323    0.05000000    0.07000000
   19.43610954  130.29100037    0.05000000    0.07000000
   19.43944359  127.65899658    0.05000000    0.07000000
   19.44277763  128.34300232    0.05000000    0.07000000
   19.44888878  128.34300232    0.05000000    0.07000000
   19.45305634  129.96899414    0.05000000    0.07000000
   19.45388985  125.17600250    0.05000000    0.07000000
   19.45666695  124.60900116    0.05000000    0.07000000
   19.46000099  122.78900146    0.05000000    0.07000000
   19.46305656  125.27600098    0.05000000    0.07000000
   19.46638870  122.32199860    0.05000000    0.07000000
   19.46944427  118.54299927    0.05000000    0.07000000
   19.47277832  123.02899933    0.05000000    0.07000000
   19.47611237  120.80500031    0.05000000    0.07000000
   19.47916794  128.56300354    0.05000000    0.07000000
   19.48250008  126.17299652    0.05000000    0.07000000
   19.48555565  126.53199768    0.05000000    0.07000000
   19.48750114  128.97599792    0.05000000    0.07000000
   19.49194527  128.97599792    0.05000000    0.07000000
   19.49583435  126.09200287    0.05000000    0.07000000
   19.49916649  127.00299835    0.05000000    0.07000000
   19.50250053  123.12799835    0.05000000    0.07000000
   19.50555611  118.81400299    0.05000000    0.07000000
   19.50888824  123.53900146    0.05000000    0.07000000
   19.51194382  122.65599823    0.05000000    0.07000000
   19.51527786  121.23000336    0.05000000    0.07000000
   19.51833344  121.26499939    0.05000000    0.07000000
   19.52083397  121.53199768    0.05000000    0.07000000
   19.52194405  119.93800354    0.05000000    0.07000000
   19.52527809  119.86000061    0.05000000    0.07000000
   19.52833366  118.24600220    0.05000000    0.07000000
   19.53472137  118.24600220    0.05000000    0.07000000
   19.53888893  125.83100128    0.05000000    0.07000000
   19.54194450  131.32299805    0.05000000    0.07000000
   19.54527664  129.48500061    0.05000000    0.07000000
   19.54833221  131.40899658    0.05000000    0.07000000
   19.55166626  130.61599731    0.05000000    0.07000000
   19.55416679  123.58799744    0.05000000    0.07000000
   19.55527687  126.63800049    0.05000000    0.07000000
   19.55861092  127.45200348    0.05000000    0.07000000
   19.56166649  126.97899628    0.05000000    0.07000000
   19.56499863  125.72599792    0.05000000    0.07000000
   19.56833458  127.04100037    0.05000000    0.07000000
   19.57139015  126.93499756    0.05000000    0.07000000
   19.57750130  126.93499756    0.05000000    0.07000000
   19.58166695  123.79900360    0.05000000    0.07000000
   19.58500099  129.33999634    0.05000000    0.07000000
   19.58750153  133.74699402    0.05000000    0.07000000
   19.58833313  131.77799988    0.05000000    0.07000000
   19.59166718  135.72900391    0.05000000    0.07000000
   19.59472275  131.96899414    0.05000000    0.07000000
   19.59805679  131.21899414    0.05000000    0.07000000
   19.60138893  129.36099243    0.05000000    0.07000000
   19.60444450  125.84700012    0.05000000    0.07000000
   19.60777855  130.25399780    0.05000000    0.07000000
   19.61083412  124.19300079    0.05000000    0.07000000
   19.61416626  124.17400360    0.05000000    0.07000000
   19.62027740  124.17400360    0.05000000    0.07000000
   19.62444496  123.72200012    0.05000000    0.07000000
   19.62777710  123.68199921    0.05000000    0.07000000
   19.63083267  123.36299896    0.05000000    0.07000000
   19.63416672  124.56900024    0.05000000    0.07000000
   19.63750076  121.11599731    0.05000000    0.07000000
   19.64055634  131.80299377    0.05000000    0.07000000
   19.64388847  129.50100708    0.05000000    0.07000000
   19.64694405  133.05499268    0.05000000    0.07000000
   19.65027809  134.08700562    0.05000000    0.07000000
   19.65333366  130.94200134    0.05000000    0.07000000
   19.65527725  127.94100189    0.05000000    0.07000000
   19.65694427  130.86500549    0.05000000    0.07000000
   19.66333389  130.86500549    0.05000000    0.07000000
   19.66749954  130.45599365    0.05000000    0.07000000
   19.67055511  128.04499817    0.05000000    0.07000000
   19.67388916  130.95199585    0.05000000    0.07000000
   19.67694473  127.11399841    0.05000000    0.07000000
   19.68027687  134.67900085    0.05000000    0.07000000
   19.68333244  128.84300232    0.05000000    0.07000000
   19.68666649  126.97399902    0.05000000    0.07000000
   19.68861008  127.19300079    0.05000000    0.07000000
   19.69027710  129.75799561    0.05000000    0.07000000
   19.69361115  123.81500244    0.05000000    0.07000000
   19.69666672  129.93299866    0.05000000    0.07000000
   19.70000076  125.02700043    0.05000000    0.07000000
   19.70611191  125.02700043    0.05000000    0.07000000
   19.71027946  128.26600647    0.05000000    0.07000000
   19.71333504  133.95300293    0.05000000    0.07000000
   19.71666718  128.39999390    0.05000000    0.07000000
   19.72000122  123.74400330    0.05000000    0.07000000
   19.72222328  127.17500305    0.05000000    0.07000000
   19.72361183  128.02099609    0.05000000    0.07000000
   19.72694588  129.61500549    0.05000000    0.07000000
   19.73000145  131.49699402    0.05000000    0.07000000
   19.73333359  132.51199341    0.05000000    0.07000000
   19.73638916  131.87800598    0.05000000    0.07000000
   19.73972321  128.65800476    0.05000000    0.07000000
   19.74305534  127.94999695    0.05000000    0.07000000
   19.74888992  127.94999695    0.05000000    0.07000000
   19.75305557  129.27699280    0.05000000    0.07000000
   19.75555611  127.08000183    0.05000000    0.07000000
   19.75666618  127.47899628    0.05000000    0.07000000
   19.75972176  131.62300110    0.05000000    0.07000000
   19.76305580  128.37399292    0.05000000    0.07000000
   19.76638794  125.39399719    0.05000000    0.07000000
   19.76944351  129.04200745    0.05000000    0.07000000
   19.77277756  128.23500061    0.05000000    0.07000000
   19.77611160  131.43200684    0.05000000    0.07000000
   19.77916718  131.65699768    0.05000000    0.07000000
   19.78249931  130.67599487    0.05000000    0.07000000
   19.78555489  129.42100525    0.05000000    0.07000000
   19.79166603  129.42100525    0.05000000    0.07000000
   19.79583359  127.43299866    0.05000000    0.07000000
