    HOUR (UT)   FLARE FACTOR    SKY TESTER    SUN TESTER
   11.95388889   -1.00000000   -1.00000000   -1.00000000
   11.97472191  215.05599976    1.46000004    1.73000002
   11.97972202   -1.00000000    1.46000004    1.73000002
   11.98277760  220.76499939    1.46000004    1.73000002
   11.98611164  223.42900085    1.46000004    1.75000000
   11.98944473  251.32400513    1.46000004    1.75000000
   11.99250031  252.98300171    1.46000004    1.76999998
   11.99583340  212.00000000    1.46000004    1.76999998
   11.99916649  184.66700745    1.46000004    1.75000000
   12.00222206  247.70300293    1.46000004    1.76999998
   12.00555515  185.65100098    1.46000004    1.76999998
   12.00805569  224.19799805    1.46000004    1.76999998
   12.00944424  208.64199829    1.46000004    1.76999998
   12.01249981  184.09800720    1.46000004    1.76999998
   12.01583290  160.43800354    1.46000004    1.76999998
   12.01916599  248.08900452    1.46000004    1.78999996
   12.02222157  213.34199524    1.46000004    1.78999996
   12.02555561  221.78900146    1.46000004    1.78999996
   12.02861118  230.78900146    1.44000006    1.78999996
   12.03194427  202.93600464    1.46000004    1.78999996
   12.03527832  202.56500244    1.46000004    1.78999996
   12.03833389  202.55799866    1.44000006    1.78999996
   12.04138947  221.24299622    1.44000006    1.80999994
   12.04222298  203.04600525    1.44000006    1.80999994
   12.04527855  218.01600647    1.44000006    1.80999994
   12.04861164  219.50900269    1.44000006    1.80999994
   12.05194473  184.32600403    1.44000006    1.80999994
   12.05500031  202.42999268    1.44000006    1.80999994
   12.05833340  208.32200623    1.46000004    1.83000004
   12.06166649  204.51499939    1.44000006    1.83000004
   12.06472206  207.98300171    1.44000006    1.83000004
   12.06805515  215.73899841    1.46000004    1.83000004
   12.07111073  226.68400574    1.44000006    1.85000002
   12.07444477  200.24899292    1.44000006    1.85000002
   12.07499981  224.14999390    1.44000006    1.85000002
   12.07833290  200.94599915    1.41999996    1.85000002
   12.08138847  251.94200134    1.41999996    1.85000002
   12.08472157  186.46699524    1.41999996    1.85000002
   12.08805561  206.78700256    1.41999996    1.86000001
   12.09111118  240.36599731    1.41999996    1.85000002
   12.09444427  215.47700500    1.41999996    1.86000001
   12.09749985  208.49400330    1.39999998    1.86000001
   12.10083389  198.12399292    1.39999998    1.86000001
   12.10416698  215.51400757    1.39999998    1.86000001
   12.10722256  199.76400757    1.39999998    1.86000001
   12.10833359  199.68899536    1.38000000    1.86000001
   12.11111164  221.24000549    1.38000000    1.86000001
   12.11416721  205.75100708    1.38000000    1.86000001
   12.11750031  206.02900696    1.38000000    1.88000000
   12.12083340  222.47599792    1.36000001    1.89999998
   12.12388897  194.67700195    1.36000001    1.88000000
   12.12722206  228.10299683    1.36000001    1.89999998
   12.13027763  204.15600586    1.34000003    1.89999998
   12.13361073  219.30599976    1.36000001    1.88000000
   12.13694477  210.88400269    1.34000003    1.89999998
   12.14000034  244.43400574    1.34000003    1.89999998
   12.14166641  223.84800720    1.34000003    1.88000000
   12.14388847  216.39100647    1.34000003    1.88000000
   12.14694405  217.94500732    1.33000004    1.89999998
   12.15027714  224.01899719    1.33000004    1.89999998
   12.15361118  214.22000122    1.33000004    1.89999998
   12.15666676  220.35200500    1.33000004    1.89999998
   12.15999985  213.13800049    1.33000004    1.91999996
   12.16333294  218.30799866    1.33000004    1.91999996
   12.16638851  203.20700073    1.33000004    1.91999996
   12.16972256  187.15199280    1.30999994    1.91999996
   12.17277813  183.72000122    1.30999994    1.91999996
   12.17500019  182.74099731    1.28999996    1.94000006
   12.17666721  184.92199707    1.28999996    1.94000006
   12.17972279  175.16099548    1.28999996    1.91999996
   12.18305588  215.59899902    1.28999996    1.91999996
   12.18638897  178.12399292    1.28999996    1.94000006
   12.18944454  186.69099426    1.28999996    1.94000006
   12.19277763  189.44500732    1.26999998    1.94000006
   12.19611073  188.79800415    1.26999998    1.94000006
   12.19916630  176.07000732    1.26999998    1.94000006
   12.20249939  183.68400574    1.26999998    1.94000006
   12.20555496  204.38600159    1.26999998    1.94000006
   12.20833302  187.74000549    1.25000000    1.96000004
   12.20944405  200.44200134    1.25000000    1.96000004
   12.21249962  172.07800293    1.26999998    1.96000004
   12.21583271  173.04100037    1.25000000    1.96000004
   12.21916580  185.73300171    1.25000000    1.96000004
   12.22222137  190.75000000    1.25000000    1.96000004
   12.22555542  180.08500671    1.25000000    1.96000004
   12.22861099  176.17399597    1.25000000    1.98000002
   12.23194408  186.20500183    1.25000000    1.98000002
   12.23527813  203.96899414    1.25000000    1.98000002
   12.23833370  189.26199341    1.23000002    1.96000004
   12.24166679  185.28999329    1.23000002    1.98000002
   12.24222279  190.78100586    1.23000002    1.98000002
   12.24527836  183.67100525    1.25000000    1.98000002
   12.24861145  177.18099976    1.23000002    1.98000002
   12.25194454  161.87500000    1.23000002    1.98000002
   12.25500011  176.06100464    1.23000002    1.98000002
   12.25833321  171.06900024    1.21000004    2.00000000
   12.26138878  184.44799805    1.21000004    2.00000000
   12.26472187  180.49099731    1.21000004    2.00000000
   12.26805496  185.83700562    1.23000002    2.01999998
   12.27111053  176.56300354    1.21000004    2.00000000
   12.27444458  166.05799866    1.21000004    2.00000000
   12.27499962  169.32400513    1.21000004    2.00000000
   12.27805519  184.49000549    1.21000004    2.00000000
   12.28111076  166.38099670    1.21000004    2.01999998
   12.28444481  184.85800171    1.19000006    2.01999998
   12.28777790  189.66000366    1.21000004    2.01999998
   12.29083347  169.91400146    1.19000006    2.01999998
   12.29416752  172.38900757    1.19000006    2.01999998
   12.29722309  171.14900208    1.19000006    2.01999998
   12.30055618  178.01400757    1.19000006    2.01999998
   12.30388927  161.60600281    1.16999996    2.01999998
   12.30694485  175.99800110    1.16999996    2.01999998
   12.30833340  173.24099731    1.16999996    2.01999998
   12.31083393  170.92799377    1.16999996    2.01999998
   12.31388950  156.33599854    1.16999996    2.01999998
   12.31722260  161.64900208    1.16999996    2.03999996
   12.32055569  170.49400330    1.16999996    2.03999996
   12.32361126  167.05700684    1.16999996    2.03999996
   12.32694435  177.91900635    1.16999996    2.05999994
   12.33027744  168.66600037    1.16999996    2.05999994
   12.33333302  169.49099731    1.14999998    2.05999994
   12.33666611  178.50799561    1.14999998    2.05999994
   12.33972168  168.58799744    1.14999998    2.05999994
   12.34166622  166.13999939    1.14999998    2.05999994
   12.34361076  174.94500732    1.13000000    2.05999994
   12.34666634  165.41299438    1.13000000    2.05999994
   12.35000038  156.69000244    1.14999998    2.05999994
   12.35333347  155.89700317    1.14999998    2.05999994
   12.35638905  158.23699951    1.14999998    2.05999994
   12.35972214  158.46200562    1.14999998    2.05999994
   12.36305618  153.35499573    1.13000000    2.07999992
   12.36611176  162.17199707    1.13000000    2.07999992
   12.36944485  161.15800476    1.13000000    2.07999992
   12.37250042  155.29200745    1.13000000    2.07999992
   12.37500000  177.15800476    1.13000000    2.07999992
   12.37638855  158.92599487    1.13000000    2.07999992
   12.37944412  157.11000061    1.11000001    2.07999992
   12.38277817  157.69200134    1.11000001    2.07999992
   12.38611126  163.47099304    1.11000001    2.07999992
   12.38916683  165.13499451    1.11000001    2.07999992
   12.39249992  157.77299500    1.11000001    2.07999992
   12.39583302  163.39300537    1.11000001    2.07999992
   12.39888859  169.66999817    1.11000001    2.07999992
   12.40222168  162.34500122    1.09000003    2.09999990
   12.40555477  175.33000183    1.09000003    2.09999990
   12.40833282  160.05599976    1.09000003    2.09999990
   12.40916634  163.47399902    1.09000003    2.09999990
   12.41222191  174.33399963    1.09000003    2.09999990
   12.41555500  174.37300110    1.09000003    2.09999990
   12.41888905  171.85600281    1.07000005    2.09999990
   12.42194462  147.72700500    1.07000005    2.09999990
   12.42527771  185.55900574    1.07000005    2.09999990
   12.42861176  173.19700623    1.07000005    2.09999990
   12.43166733  163.27000427    1.07000005    2.09999990
   12.43500042  178.68600464    1.07000005    2.09999990
   12.43805599  167.28199768    1.07000005    2.11999989
   12.44138908  171.69900513    1.07000005    2.11999989
   12.44194412  157.03100586    1.07000005    2.11999989
   12.44527817  169.32000732    1.07000005    2.11999989
   12.44833374  147.52299500    1.07000005    2.11999989
   12.45166683  162.74899292    1.07000005    2.11999989
   12.45499992  171.03300476    1.07000005    2.11999989
   12.45805550  164.71600342    1.05999994    2.11999989
   12.46138859  153.72999573    1.05999994    2.11999989
   12.46444416  165.06300354    1.05999994    2.11999989
   12.46777725  150.50999451    1.05999994    2.11999989
   12.47111034  156.83500671    1.05999994    2.11999989
   12.47416592  164.50799561    1.05999994    2.13000011
   12.47527695  141.35600281    1.05999994    2.13000011
   12.47805500  146.63200378    1.03999996    2.13000011
   12.48111057  157.79600525    1.03999996    2.13000011
   12.48444462  152.67999268    1.03999996    2.13000011
   12.48777771  147.50799561    1.03999996    2.13000011
   12.49083328  150.60400391    1.03999996    2.13000011
   12.49416733  150.80900574    1.03999996    2.13000011
   12.49722290  150.58399963    1.03999996    2.15000010
   12.50055599  152.13999939    1.03999996    2.15000010
   12.50388908  153.28100586    1.03999996    2.15000010
   12.50694466  147.34700012    1.03999996    2.15000010
   12.50861073  158.04600525    1.03999996    2.15000010
   12.51083374  157.07899475    1.03999996    2.15000010
   12.51388931  154.99499512    1.03999996    2.15000010
   12.51722240  164.01800537    1.01999998    2.15000010
   12.52055550  158.78399658    1.01999998    2.15000010
   12.52361107  153.28999329    1.01999998    2.15000010
   12.52694416  164.57099915    1.01999998    2.15000010
   12.52999973  147.46000671    1.01999998    2.15000010
   12.53333378  167.73599243    1.01999998    2.15000010
   12.53666687  158.33900452    1.01999998    2.15000010
   12.53972244  150.77200317    1.01999998    2.17000008
   12.54194450  157.79200745    1.01999998    2.17000008
   12.54361153  157.80299377    1.01999998    2.17000008
   12.54666710  151.73300171    1.01999998    2.15000010
   12.55000019  161.02900696    1.01999998    2.17000008
   12.55333328  155.63900757    1.01999998    2.17000008
   12.55638885  157.61700439    1.01999998    2.17000008
   12.55972195  158.82000732    1.00000000    2.17000008
   12.56277752  165.51600647    1.00000000    2.17000008
   12.56611156  168.36799622    1.00000000    2.17000008
   12.56944466  170.90899658    1.00000000    2.17000008
   12.57250023  160.72000122    1.00000000    2.17000008
   12.57527733  155.47999573    1.00000000    2.17000008
   12.57638836  170.89100647    1.00000000    2.17000008
   12.57944393  161.90100098    1.00000000    2.19000006
   12.58277798  164.54699707    0.98000002    2.19000006
   12.58611107  165.05299377    0.98000002    2.19000006
   12.58916664  173.91000366    1.00000000    2.19000006
   12.59249973  147.86799622    1.00000000    2.19000006
   12.59555531  171.22399902    1.00000000    2.19000006
   12.59888840  157.13099670    0.98000002    2.19000006
   12.60222244  152.99800110    1.00000000    2.19000006
   12.60527802  160.10699463    1.00000000    2.19000006
   12.60888958  148.77099609    0.98000002    2.21000004
   12.60916710  154.34899902    0.98000002    2.21000004
   12.61250019  154.55900574    0.98000002    2.19000006
   12.61583328  148.58500671    0.98000002    2.19000006
   12.61888885  166.51199341    0.98000002    2.19000006
   12.62222195  156.24400330    0.95999998    2.19000006
   12.62527752  159.12100220    0.98000002    2.21000004
   12.62861156  163.63299561    0.95999998    2.21000004
   12.63194466  163.42500305    0.95999998    2.21000004
   12.63500023  150.37600708    0.95999998    2.21000004
   12.63833332  149.00100708    0.95999998    2.21000004
   12.64166641  158.78300476    0.95999998    2.21000004
   12.64222240  148.35899353    0.95999998    2.21000004
   12.64499950  165.81399536    0.95999998    2.21000004
   12.64833355  156.34399414    0.95999998    2.21000004
   12.65166664  157.79800415    0.95999998    2.21000004
   12.65472221  143.86599731    0.95999998    2.21000004
   12.65805531  155.34700012    0.95999998    2.21000004
   12.66111088  154.17700195    0.94000000    2.23000002
   12.66444397  154.12699890    0.94000000    2.23000002
   12.66777802  146.96000671    0.94000000    2.23000002
   12.67083359  148.28999329    0.94000000    2.23000002
   12.67416668  152.22999573    0.94000000    2.23000002
   12.67555618  148.57000732    0.94000000    2.23000002
   12.67777824  149.52699280    0.94000000    2.23000002
   12.68111134  161.01400757    0.94000000    2.23000002
   12.68444443  151.82400513    0.94000000    2.23000002
   12.68750000  153.98199463    0.94000000    2.23000002
   12.69083309  142.95599365    0.94000000    2.23000002
   12.69388866  156.32499695    0.94000000    2.23000002
   12.69722271  147.58399963    0.94000000    2.23000002
   12.70055580  150.03300476    0.92000002    2.23000002
   12.70361137  152.65800476    0.92000002    2.23000002
   12.70694447  141.55400085    0.92000002    2.25000000
   12.70888901  157.98800659    0.92000002    2.25000000
   12.71055508  154.03999329    0.92000002    2.25000000
   12.71388912  156.45799255    0.92000002    2.25000000
   12.71722221  149.67300415    0.92000002    2.25000000
   12.72027779  155.01100159    0.92000002    2.25000000
   12.72361088  162.35899353    0.92000002    2.25000000
   12.72694397  170.08399963    0.92000002    2.25000000
   12.72999954  154.07499695    0.92000002    2.25000000
   12.73333359  151.93600464    0.89999998    2.25000000
   12.73666668  157.30599976    0.89999998    2.25000000
   12.73972225  155.48899841    0.89999998    2.25000000
   12.74222279  150.64599609    0.89999998    2.26999998
   12.74333382  142.60400391    0.89999998    2.26999998
   12.74666691  153.65199280    0.92000002    2.25000000
   12.75000000  132.07800293    0.89999998    2.25000000
   12.75305557  147.57499695    0.89999998    2.25000000
   12.75638866  153.30700684    0.89999998    2.26999998
   12.75944424  161.35699463    0.89999998    2.26999998
   12.76277733  145.67199707    0.89999998    2.25000000
   12.76611137  150.82800293    0.89999998    2.25000000
   12.76916599  149.21200562    0.89999998    2.26999998
   12.77250004  157.77900696    0.89999998    2.26999998
   12.77555561  163.59700012    0.89999998    2.26999998
   12.77611065  163.00100708    0.88000000    2.26999998
   12.77944374  159.93200684    0.88000000    2.28999996
   12.78277779  152.26800537    0.88000000    2.26999998
   12.78583336  150.85699463    0.88000000    2.28999996
   12.78916740  151.91900635    0.88000000    2.28999996
   12.79222298  161.91700745    0.88000000    2.28999996
   12.79555607  163.32400513    0.88000000    2.26999998
   12.79888916  170.01800537    0.88000000    2.26999998
   12.80194473  153.33900452    0.88000000    2.28999996
   12.80527782  160.52999878    0.88000000    2.28999996
   12.80861092  146.67999268    0.88000000    2.28999996
   12.80916691  157.75599670    0.88000000    2.28999996
   12.81222248  161.67599487    0.88000000    2.28999996
   12.81555557  151.11099243    0.88000000    2.28999996
   12.81888866  157.53700256    0.86000001    2.28999996
   12.82194424  152.06399536    0.86000001    2.28999996
   12.82527733  160.61999512    0.86000001    2.28999996
   12.82861137  158.68600464    0.88000000    2.28999996
   12.83166695  163.83099365    0.88000000    2.28999996
   12.83500004  141.22599792    0.86000001    2.28999996
   12.83805561  153.77400208    0.86000001    2.28999996
   12.84138870  146.80499268    0.86000001    2.28999996
   12.84249973  162.25300598    0.86000001    2.28999996
   12.84499931  159.36999512    0.86000001    2.28999996
   12.84833336  163.51899719    0.86000001    2.30999994
   12.85166740  146.46299744    0.86000001    2.30999994
   12.85472298  145.44099426    0.86000001    2.30999994
   12.85805607  145.41299438    0.86000001    2.30999994
   12.86138916  148.68200684    0.86000001    2.30999994
   12.86444473  153.24600220    0.86000001    2.30999994
   12.86777782  153.78799438    0.83999997    2.30999994
   12.87083340  161.78700256    0.83999997    2.30999994
   12.87416649  152.76600647    0.83999997    2.30999994
   12.87583351  147.24899292    0.83999997    2.30999994
   12.87777805  155.47799683    0.83999997    2.30999994
   12.88111115  147.31799316    0.83999997    2.30999994
   12.88444424  155.47399902    0.83999997    2.30999994
   12.88749981  153.39599609    0.83999997    2.30999994
   12.89083290  156.29400635    0.83999997    2.30999994
   12.89416695  163.36500549    0.81999999    2.30999994
   12.89722252  152.31300354    0.81999999    2.32999992
   12.90055561  176.47099304    0.81999999    2.30999994
   12.90388870  168.69700623    0.83999997    2.32999992
   12.90694427  170.32499695    0.83999997    2.32999992
   12.90916634  167.30299377    0.81999999    2.32999992
   12.91055489  171.20799255    0.81999999    2.32999992
   12.91388893  159.85000610    0.83999997    2.30999994
   12.91722298  160.37600708    0.81999999    2.32999992
   12.92027855  160.52999878    0.81999999    2.30999994
   12.92361164  154.31300354    0.81999999    2.32999992
   12.92694473  162.96099854    0.81999999    2.32999992
   12.93027782  159.29200745    0.81999999    2.32999992
   12.93333340  155.94999695    0.81999999    2.32999992
   12.93666649  158.42700195    0.81999999    2.32999992
   12.94000053  174.55700684    0.81999999    2.32999992
   12.94250011  165.77999878    0.81999999    2.32999992
   12.94333363  164.34500122    0.81999999    2.32999992
   12.94666672  160.01199341    0.81999999    2.32999992
   12.94999981  168.67199707    0.81999999    2.32999992
   12.95305538  171.66999817    0.80000001    2.32999992
   12.95638847  178.92199707    0.80000001    2.32999992
   12.95972157  173.25900269    0.81999999    2.32999992
   12.96277714  158.83999634    0.80000001    2.32999992
   12.96611118  177.84399414    0.80000001    2.32999992
   12.96916580  172.85699463    0.80000001    2.32999992
   12.97249985  165.99200439    0.80000001    2.32999992
   12.99111176  176.36599731    0.80000001    2.34999990
   12.99250031  178.46200562    0.80000001    2.34999990
   12.99583340  175.67500305    0.79000002    2.34999990
   12.99888897  166.29499817    0.79000002    2.36999989
   13.00222206  164.42900085    0.79000002    2.34999990
   13.00555515  173.90899658    0.79000002    2.34999990
   13.00861073  157.78300476    0.79000002    2.34999990
   13.01194477  160.56199646    0.79000002    2.34999990
   13.01527786  174.30000305    0.79000002    2.34999990
   13.01833344  182.27699280    0.79000002    2.34999990
   13.02166653  162.06799316    0.79000002    2.36999989
   13.02444458  158.43400574    0.79000002    2.36999989
   13.02527714  164.48500061    0.79000002    2.36999989
   13.02833271  170.58999634    0.79000002    2.36999989
   13.03166676  157.33399963    0.79000002    2.36999989
   13.03500080  155.16299438    0.79000002    2.34999990
   13.03805637  154.19299316    0.79000002    2.36999989
   13.04138947  158.25100708    0.79000002    2.36999989
   13.04444504  163.71200562    0.76999998    2.36999989
   13.04777813  154.96600342    0.76999998    2.36999989
   13.05111122  164.45100403    0.76999998    2.36999989
   13.05416679  161.08799744    0.76999998    2.36999989
   13.05749989  165.75599670    0.76999998    2.36999989
   13.05805588  167.35600281    0.76999998    2.36999989
   13.06138897  168.19099426    0.76999998    2.36999989
   13.06444454  162.52799988    0.76999998    2.36999989
   13.06777763  176.85000610    0.76999998    2.36999989
   13.07111073  166.04499817    0.79000002    2.36999989
   13.07416630  169.62899780    0.76999998    2.36999989
   13.07750034  174.49699402    0.76999998    2.39000010
   13.08055592  161.09500122    0.76999998    2.39000010
   13.08388901  158.52999878    0.76999998    2.39000010
   13.08722210  156.71600342    0.76999998    2.36999989
   13.09027767  171.86900330    0.76999998    2.36999989
   13.09138870  183.50100708    0.76999998    2.36999989
   13.09416676  164.00300598    0.76999998    2.36999989
   13.09722233  167.31399536    0.79000002    2.39000010
   13.10055637  168.45500183    0.79000002    2.39000010
   13.10388947  172.89900208    0.76999998    2.39000010
   13.10694504  176.65699768    0.76999998    2.39000010
   13.11027813  172.70799255    0.76999998    2.39000010
   13.11333370  163.11500549    0.76999998    2.39000010
   13.11666679  161.05799866    0.76999998    2.39000010
   13.11999989  170.39300537    0.75000000    2.39000010
   13.12305546  166.07699585    0.75000000    2.39000010
   13.12472248  169.46699524    0.75000000    2.39000010
   13.12694454  159.66999817    0.75000000    2.39000010
   13.13000011  160.12899780    0.75000000    2.39000010
   13.13333321  165.75799561    0.75000000    2.39000010
   13.13666630  169.80900574    0.75000000    2.39000010
   13.13972187  159.43400574    0.75000000    2.39000010
   13.14305496  168.43899536    0.75000000    2.39000010
   13.14638901  207.03300476    0.75000000    2.39000010
   13.14944458  209.79800415    0.75000000    2.39000010
   13.15277767  196.58500671    0.75000000    2.39000010
   13.15611076  190.37399292    0.75000000    2.39000010
   13.15805531  183.20399475    0.75000000    2.39000010
   13.15972137  185.58099365    0.75000000    2.39000010
   13.27472210   -1.00000000   -1.00000000   -1.00000000
   13.37277794   -1.00000000   -1.00000000   -1.00000000
   13.47166634   -1.00000000   -1.00000000   -1.00000000
   13.50305557   78.33070374    0.64999998    2.46000004
   13.50638866  153.19599915    0.64999998    2.46000004
   13.51138878  145.84800720    0.63000000    2.46000004
   13.51444435  161.14799500    0.64999998    2.46000004
   13.51833344  145.63900757    0.63000000    2.48000002
   13.52138901  144.44700623    0.63000000    2.48000002
   13.52472210  165.07400513    0.64999998    2.48000002
   13.52805519  160.87899780    0.63000000    2.48000002
   13.53111076  175.10099792    0.63000000    2.48000002
   13.53444481  187.63999939    0.63000000    2.48000002
   13.53638935  165.55000305    0.63000000    2.48000002
   13.53805637  160.89900208    0.63000000    2.48000002
   13.54138947  153.94799805    0.63000000    2.48000002
   13.54472256  164.71800232    0.63000000    2.48000002
   13.54777813  168.59500122    0.63000000    2.46000004
   13.55111122  183.65899658    0.63000000    2.48000002
   13.55416679  197.07499695    0.63000000    2.48000002
   13.55749989  183.77799988    0.61000001    2.48000002
   13.56083393  199.93299866    0.63000000    2.48000002
   13.56388950  181.39300537    0.63000000    2.48000002
   13.56722260  187.40699768    0.61000001    2.48000002
   13.56972218  174.52699280    0.61000001    2.48000002
   13.57083321  179.93800354    0.61000001    2.48000002
   13.57416630  182.90600586    0.61000001    2.48000002
   13.57750034  174.44500732    0.61000001    2.48000002
   13.58055592  192.02699280    0.61000001    2.48000002
   13.58388901  187.44999695    0.61000001    2.48000002
   13.58694458  192.83799744    0.61000001    2.48000002
   13.59027767  164.48199463    0.61000001    2.48000002
   13.59361076  190.96800232    0.61000001    2.48000002
   13.59694386  153.53100586    0.61000001    2.48000002
   13.60000038  162.58299255    0.61000001    2.48000002
   13.60305595  167.44299316    0.61000001    2.48000002
   13.60361195  169.19599915    0.61000001    2.48000002
   13.60694504  171.09500122    0.61000001    2.48000002
   13.61027813  124.70700073    0.61000001    2.48000002
   13.61333370  152.88600159    0.61000001    2.48000002
   13.61666679  170.50000000    0.61000001    2.48000002
   13.61972237  168.98300171    0.61000001    2.48000002
   13.62305546  148.27999878    0.61000001    2.48000002
   13.62638855  140.43299866    0.61000001    2.48000002
   13.62944412  142.55900574    0.61000001    2.50000000
   13.63277817  152.45100403    0.61000001    2.48000002
   13.63611126  155.02999878    0.61000001    2.48000002
   13.63666630  158.28799438    0.61000001    2.48000002
   13.63972187  157.03300476    0.58999997    2.50000000
   13.64305496  139.19900513    0.58999997    2.50000000
   13.64638901  151.53999329    0.58999997    2.50000000
   13.64944458  133.64999390    0.61000001    2.50000000
   13.65277767  134.44200134    0.58999997    2.50000000
   13.65583324  137.63800049    0.58999997    2.50000000
   13.65916634  147.06300354    0.58999997    2.50000000
   13.66249943  153.52299500    0.58999997    2.50000000
   13.66555500  139.45799255    0.58999997    2.50000000
   13.66888905  140.83700562    0.58999997    2.50000000
   13.67000008  149.07099915    0.58999997    2.50000000
   13.67277813  141.69999695    0.58999997    2.50000000
   13.67583370  127.37300110    0.56999999    2.50000000
   13.67916679  138.05299377    0.58999997    2.51999998
   13.68249989  135.98100281    0.56999999    2.50000000
   13.68555546  142.46200562    0.56999999    2.50000000
   13.68888855  138.73699951    0.58999997    2.50000000
   13.69222260  137.78399658    0.56999999    2.50000000
   13.69527817  138.56300354    0.58999997    2.50000000
   13.69861126  140.95700073    0.56999999    2.51999998
   13.70166683  140.72000122    0.56999999    2.51999998
   13.70333290  124.88700104    0.58999997    2.50000000
   13.70527744  148.58000183    0.56999999    2.50000000
   13.70861053  144.71600342    0.56999999    2.50000000
   13.71194458  137.13000488    0.56999999    2.50000000
   13.71500015  137.20300293    0.56999999    2.50000000
   13.71833324  136.63900757    0.56999999    2.50000000
   13.72138882  125.46600342    0.58999997    2.50000000
   13.72472191  133.48599243    0.58999997    2.51999998
   13.72805500  141.22500610    0.58999997    2.50000000
   13.73111057  142.12800598    0.58999997    2.50000000
   13.73444462  139.83500671    0.58999997    2.50000000
   13.73666668  134.12199402    0.56999999    2.50000000
   13.73805618  134.42500305    0.56999999    2.50000000
   13.74138927  139.40100098    0.56999999    2.50000000
   13.74472237  135.54800415    0.56999999    2.50000000
   13.74777794  141.24800110    0.58999997    2.51999998
   13.75111103  140.59500122    0.58999997    2.51999998
   13.75416660  134.56399536    0.56999999    2.51999998
   13.75749969  137.88800049    0.56999999    2.51999998
   13.76083374  143.77799988    0.58999997    2.51999998
   13.76388931  127.44499969    0.58999997    2.51999998
   13.76722240  132.99600220    0.58999997    2.51999998
   13.76999950  120.37799835    0.56999999    2.51999998
   13.77083302  127.32900238    0.56999999    2.51999998
   13.77416611  128.61199951    0.56999999    2.51999998
   13.77750015  134.00900269    0.56999999    2.51999998
   13.78055573  131.25100708    0.56999999    2.51999998
   13.78388977  136.00700378    0.56999999    2.51999998
   13.78694534  132.95700073    0.56999999    2.51999998
   13.79027843  130.63099670    0.56999999    2.51999998
   13.79361153  133.16099548    0.55000001    2.51999998
   13.79666710  143.72900391    0.56999999    2.51999998
   13.80000019  143.83500671    0.55000001    2.51999998
   13.80333328  138.87500000    0.55000001    2.51999998
   13.80361176  131.43899536    0.56999999    2.51999998
   13.80694485  130.38999939    0.56999999    2.51999998
   13.81027794  131.28199768    0.55000001    2.51999998
   13.81333351  136.82600403    0.56999999    2.51999998
   13.81666660  129.51300049    0.56999999    2.53999996
   13.81999969  143.12399292    0.56999999    2.51999998
   13.82333374  135.20899963    0.56999999    2.53999996
   13.82638836  133.29699707    0.56999999    2.51999998
   13.82972240  126.97799683    0.56999999    2.51999998
   13.83277798  128.76300049    0.55000001    2.53999996
   13.83611107  141.55499268    0.55000001    2.51999998
   13.83666611  137.22700500    0.55000001    2.51999998
   13.83972168  131.80099487    0.56999999    2.51999998
   13.84277725  138.01699829    0.56999999    2.53999996
   13.84611034  128.29400635    0.55000001    2.51999998
   13.84944439  120.44100189    0.56999999    2.51999998
   13.85249996  127.44499969    0.55000001    2.51999998
   13.85583401  127.67600250    0.55000001    2.51999998
   13.85888958  122.06900024    0.55000001    2.51999998
   13.86222267  127.93599701    0.55000001    2.53999996
   13.86555576  120.55599976    0.55000001    2.53999996
   13.86861134  115.40699768    0.55000001    2.53999996
   13.86999989  122.80500031    0.55000001    2.53999996
   13.87250042  119.08100128    0.55000001    2.53999996
   13.87555599  119.19200134    0.55000001    2.51999998
   13.87888908  121.09799957    0.55000001    2.51999998
   13.88194466  130.72300720    0.55000001    2.53999996
   13.88527775  125.11000061    0.55000001    2.53999996
   13.88861084  119.78199768    0.55000001    2.53999996
   13.89166641  120.59999847    0.56999999    2.53999996
   13.89499950  117.91000366    0.56999999    2.53999996
   13.89833355  117.40799713    0.56999999    2.53999996
   13.90138817  116.38300323    0.56999999    2.53999996
   13.90333271  124.23600006    0.56999999    2.53999996
   13.90527725  116.54900360    0.58999997    2.53999996
   13.90833282  125.56999969    0.56999999    2.53999996
   13.91166592  116.77200317    0.58999997    2.53999996
   13.91472149  121.73300171    0.58999997    2.53999996
   13.91805553  120.52899933    0.56999999    2.53999996
   13.92138958  124.84799957    0.58999997    2.53999996
   13.92444515  128.70399475    0.56999999    2.53999996
   13.92777824  127.42700195    0.56999999    2.53999996
   13.93111134  125.57199860    0.58999997    2.53999996
   13.93416691  137.53799438    0.58999997    2.53999996
   13.93666649  124.05899811    0.61000001    2.53999996
   13.93805599  125.23400116    0.61000001    2.53999996
   13.94111156  128.41900635    0.58999997    2.53999996
   13.94444466  125.22200012    0.61000001    2.53999996
   13.94750023  129.97200012    0.61000001    2.53999996
   13.95083332  130.70500183    0.61000001    2.53999996
   13.95416641  131.54699707    0.61000001    2.53999996
   13.95722198  129.63000488    0.63000000    2.53999996
   13.96055508  132.62399292    0.63000000    2.53999996
   13.96388912  127.01499939    0.61000001    2.53999996
   13.96694374  121.19899750    0.61000001    2.53999996
   13.96999931  117.99199677    0.61000001    2.55999994
   13.97083282  133.48899841    0.61000001    2.55999994
   13.97388840  118.41899872    0.61000001    2.55999994
   13.97722149  116.49500275    0.61000001    2.55999994
   13.98027706  120.36399841    0.61000001    2.53999996
   13.98361111  118.63200378    0.61000001    2.55999994
   13.98694515  120.33200073    0.61000001    2.55999994
   13.99000072  126.11399841    0.61000001    2.55999994
   13.99333382  121.85700226    0.61000001    2.53999996
   13.99666691  121.79100037    0.61000001    2.55999994
   13.99972248  115.81900024    0.61000001    2.55999994
   14.00305557  127.66500092    0.61000001    2.55999994
   14.00361156  134.48899841    0.61000001    2.55999994
   14.00694466  120.87599945    0.61000001    2.55999994
   14.01000023  126.04199982    0.58999997    2.55999994
   14.01333332  116.05100250    0.58999997    2.53999996
   14.01638889  131.83799744    0.58999997    2.53999996
   14.01972198  129.32600403    0.61000001    2.53999996
   14.02305508  122.01999664    0.58999997    2.55999994
   14.02611065  126.41899872    0.58999997    2.55999994
   14.02944374  122.81600189    0.58999997    2.55999994
   14.03249931  123.30400085    0.58999997    2.55999994
   14.03583336  114.82900238    0.58999997    2.55999994
   14.03694534  117.18299866    0.58999997    2.55999994
   14.03972244  117.77200317    0.58999997    2.55999994
   14.04277802  123.74500275    0.58999997    2.55999994
   14.04611111  116.64700317    0.58999997    2.55999994
   14.04916668  122.01399994    0.58999997    2.55999994
   14.05249977  121.70800018    0.58999997    2.55999994
   14.05583382  114.29799652    0.58999997    2.55999994
   14.05888939  131.26899719    0.58999997    2.55999994
   14.06222248  129.45100403    0.56999999    2.55999994
   14.06527805  118.41799927    0.56999999    2.55999994
   14.06861115  125.27700043    0.56999999    2.55999994
   14.07027817  121.55500031    0.56999999    2.55999994
   14.07250023  125.19400024    0.56999999    2.55999994
   14.07555580  120.67400360    0.56999999    2.55999994
   14.07888889  125.44999695    0.56999999    2.55999994
   14.08194447  132.82600403    0.56999999    2.55999994
   14.08527756  129.05799866    0.56999999    2.55999994
   14.08861065  130.38699341    0.56999999    2.55999994
   14.09166622  134.52600098    0.56999999    2.55999994
   14.09499931  136.56700134    0.56999999    2.55999994
   14.09833336  124.86499786    0.56999999    2.55999994
   14.10138893  113.65899658    0.56999999    2.55999994
   14.10361195  123.02400208    0.56999999    2.55999994
   14.10527802  130.51899719    0.56999999    2.55999994
   14.10833359  118.85199738    0.56999999    2.55999994
   14.11166668  117.74700165    0.56999999    2.55999994
   14.11472225  127.67900085    0.56999999    2.55999994
   14.11805534  143.15299988    0.56999999    2.55999994
   14.12138939  134.92199707    0.56999999    2.55999994
   14.12444496  135.34500122    0.56999999    2.55999994
   14.12777805  122.61000061    0.56999999    2.55999994
   14.13111115  120.04900360    0.56999999    2.55999994
   14.13416672  123.41799927    0.56999999    2.55999994
   14.13694477  121.53600311    0.55000001    2.55999994
   14.13805580  126.17600250    0.55000001    2.55999994
   14.14111137  123.95200348    0.56999999    2.55999994
   14.14444447  131.17199707    0.55000001    2.55999994
   14.14777756  125.25700378    0.55000001    2.55999994
   14.15083313  121.79399872    0.55000001    2.55999994
   14.15416622  130.13600159    0.55000001    2.57999992
   14.15722179  129.51499939    0.55000001    2.55999994
   14.16055489  127.85399628    0.55000001    2.55999994
   14.16388893  127.25199890    0.55000001    2.57999992
   14.16694450  135.44000244    0.55000001    2.55999994
   14.17027855  108.54699707    0.55000001    2.57999992
   14.17083359  135.40100098    0.55000001    2.57999992
   14.17388916  141.00199890    0.55000001    2.55999994
   14.17722225  137.53900146    0.55000001    2.57999992
   14.18027782  135.94599915    0.55000001    2.55999994
   14.18361092  145.82699585    0.55000001    2.55999994
   14.18694496  141.11099243    0.55000001    2.55999994
   14.19000053  152.73100281    0.55000001    2.57999992
   14.19333363  125.98899841    0.55000001    2.57999992
   14.19666672  138.05799866    0.55000001    2.57999992
   14.19972229  129.94200134    0.55000001    2.57999992
   14.20305538  136.88299561    0.55000001    2.57999992
   14.20361137  139.04299927    0.55000001    2.57999992
   14.20666695  126.85800171    0.55000001    2.57999992
   14.20972157  142.12500000    0.52999997    2.57999992
   14.21305561  151.07699585    0.55000001    2.57999992
   14.21611118  150.23800659    0.55000001    2.57999992
   14.21944427  149.76800537    0.55000001    2.57999992
   14.22277737  152.58299255    0.55000001    2.57999992
   14.22583294  139.76600647    0.55000001    2.57999992
   14.22916603  160.00399780    0.55000001    2.57999992
   14.23249912  140.74800110    0.55000001    2.57999992
   14.23555565  134.04600525    0.52999997    2.57999992
   14.23694515  143.04100037    0.52999997    2.57999992
   14.23944473  134.05599976    0.52999997    2.57999992
   14.24250031  149.27299500    0.52999997    2.57999992
   14.24583340  138.87899780    0.55000001    2.59999990
   14.24916649  145.07400513    0.52999997    2.55999994
   14.25249958  167.21400452    0.52999997    2.57999992
   14.25555515  155.52999878    0.52999997    2.57999992
   14.25888920  140.30900574    0.52999997    2.57999992
   14.26222229  151.11799622    0.52999997    2.57999992
   14.26527786  162.23199463    0.55000001    2.57999992
   14.26861095  141.41000366    0.52999997    2.57999992
   14.27027798  127.69400024    0.52999997    2.57999992
   14.27222157  147.82800293    0.52999997    2.57999992
   14.27527714  145.68200684    0.52999997    2.57999992
   14.27861118  141.09599304    0.52999997    2.57999992
   14.28166676  148.20700073    0.52999997    2.59999990
   14.28500080  146.86099243    0.52999997    2.57999992
   14.28833389  160.77000427    0.52999997    2.57999992
   14.29138947  145.76600647    0.52999997    2.57999992
   14.29472256  137.16900635    0.52999997    2.57999992
   14.29805565  139.52999878    0.52999997    2.57999992
   14.30111122  130.50900269    0.52999997    2.57999992
   14.30361176  147.75300598    0.52999997    2.59999990
   14.30500031  132.47799683    0.52999997    2.59999990
   14.30805588  143.67999268    0.52999997    2.57999992
   14.31138897  151.77600098    0.52999997    2.57999992
   14.31444454  139.86000061    0.52999997    2.59999990
   14.31777763  131.14999390    0.52999997    2.59999990
   14.32111073  133.02499390    0.52999997    2.57999992
   14.32416630  131.05799866    0.52999997    2.57999992
   14.32777786  147.11199951    0.52999997    2.57999992
   14.33083344  137.30799866    0.52999997    2.57999992
   14.33416653  170.58099365    0.52999997    2.57999992
   14.33694458  134.69599915    0.52999997    2.57999992
   14.33777714  139.24200439    0.55000001    2.57999992
   14.34083271  149.46600342    0.55000001    2.57999992
   14.34416676  140.08700562    0.52999997    2.59999990
   14.34749985  141.74400330    0.52999997    2.59999990
   14.35055637  154.49899292    0.52999997    2.59999990
   14.35388947  139.05999756    0.52999997    2.59999990
   14.35722256  147.97200012    0.52999997    2.59999990
   14.36027813  151.18499756    0.55000001    2.59999990
   14.36361122  159.51199341    0.52999997    2.57999992
   14.36666679  142.33000183    0.52999997    2.57999992
   14.36999989  142.98699951    0.52999997    2.57999992
   14.37055588  135.02999878    0.52999997    2.57999992
   14.37388897  149.86900330    0.55000001    2.59999990
   14.37694454  139.36799622    0.52999997    2.59999990
   14.38027763  144.52099609    0.52999997    2.57999992
   14.38361073  133.18699646    0.55000001    2.59999990
   14.38666630  153.05700684    0.52999997    2.59999990
   14.39000034  130.58500671    0.55000001    2.59999990
   14.39305496  142.54899597    0.55000001    2.59999990
   14.39638901  141.92900085    0.52999997    2.57999992
   14.39972210  127.37000275    0.52999997    2.59999990
   14.40305519  138.64199829    0.52999997    2.59999990
   14.40388870  156.54400635    0.52999997    2.59999990
   14.40666676  140.03599548    0.52999997    2.59999990
   14.40972137  143.20100403    0.52999997    2.59999990
   14.41305542  145.81599426    0.52999997    2.59999990
   14.41638851  121.36399841    0.52999997    2.59999990
   14.41944504  122.68199921    0.51999998    2.57999992
   14.42277813  136.74899292    0.51999998    2.59999990
   14.42611122  121.26999664    0.51999998    2.59999990
   14.42916679  141.74299622    0.51999998    2.59999990
   14.43249989  118.49700165    0.51999998    2.59999990
   14.43583298  128.76800537    0.52999997    2.59999990
   14.43722248  135.35800171    0.52999997    2.59999990
   14.43944454  143.88800049    0.52999997    2.59999990
   14.44250011  133.75599670    0.51999998    2.59999990
   14.44583321  116.73999786    0.51999998    2.59999990
   14.44916630  115.31600189    0.51999998    2.59999990
   14.45222187  129.81399536    0.51999998    2.59999990
   14.45555496  139.69999695    0.51999998    2.59999990
   14.45861053  116.13300323    0.51999998    2.59999990
   14.46194458  120.23999786    0.51999998    2.59999990
   14.46527767  136.12600708    0.52999997    2.59999990
   14.46833324  113.18800354    0.52999997    2.59999990
   14.47055531  121.29100037    0.52999997    2.59999990
   14.47222137  128.68299866    0.51999998    2.59999990
   14.47527695  122.25599670    0.51999998    2.59999990
   14.47861099  121.14099884    0.50000000    2.59999990
   14.48194408  125.31199646    0.50000000    2.59999990
   14.48500061  134.12100220    0.50000000    2.59999990
   14.48833370  140.94900513    0.50000000    2.59999990
   14.49138927  122.29100037    0.50000000    2.59999990
   14.49472237  131.34700012    0.50000000    2.59999990
   14.49805546  108.02999878    0.50000000    2.61999989
   14.50111103  103.86599731    0.50000000    2.59999990
   14.51972198  116.14299774    0.50000000    2.61999989
   14.52111053  109.54499817    0.50000000    2.61999989
   14.52416611  114.63099670    0.50000000    2.59999990
   14.52750015  127.05699921    0.50000000    2.59999990
   14.53083324  127.18599701    0.51999998    2.61999989
   14.53388977  129.84800720    0.50000000    2.61999989
   14.53722286  140.11000061    0.51999998    2.59999990
   14.54027843  134.88299561    0.51999998    2.59999990
   14.54361153  116.56199646    0.50000000    2.59999990
   14.54694462  127.46900177    0.51999998    2.61999989
   14.55000019  124.89800262    0.51999998    2.59999990
   14.55305576  120.87200165    0.51999998    2.61999989
   14.55361176  138.99000549    0.51999998    2.61999989
   14.55694485  126.19799805    0.50000000    2.61999989
   14.56027794  128.03300476    0.51999998    2.61999989
   14.56333351  129.10400391    0.50000000    2.59999990
   14.56666660  137.38600159    0.50000000    2.61999989
   14.56999969  127.93800354    0.51999998    2.61999989
   14.57305527  124.93399811    0.51999998    2.61999989
   14.57638836  132.25999451    0.50000000    2.59999990
   14.57972240  131.39599609    0.50000000    2.59999990
   14.58277798  124.69699860    0.50000000    2.61999989
   14.58611107  129.83099365    0.50000000    2.59999990
   14.58666611  134.93099976    0.50000000    2.59999990
   14.59000015  119.92800140    0.50000000    2.61999989
   14.59333324  133.53900146    0.50000000    2.61999989
   14.59638882  125.93099976    0.50000000    2.61999989
   14.59972191  142.71899414    0.50000000    2.61999989
   14.60277843  132.66000366    0.50000000    2.59999990
   14.60611153  130.79100037    0.50000000    2.61999989
   14.60944462  138.48100281    0.50000000    2.61999989
   14.61250019  131.50700378    0.50000000    2.59999990
   14.61583328  128.42700195    0.50000000    2.59999990
   14.61916637  134.17300415    0.50000000    2.59999990
   14.61999989  125.32199860    0.50000000    2.59999990
   14.62250042  134.82099915    0.50000000    2.61999989
   14.62583351  134.67500305    0.50000000    2.61999989
   14.62916660  131.91799927    0.50000000    2.59999990
   14.63222218  142.68200684    0.50000000    2.61999989
   14.63555527  119.75599670    0.50000000    2.61999989
   14.63888836  130.40600586    0.50000000    2.61999989
   14.64194393  131.09100342    0.50000000    2.61999989
   14.64527798  123.10099792    0.50000000    2.61999989
   14.64861107  138.01899719    0.50000000    2.59999990
   14.65166664  145.19500732    0.51999998    2.59999990
   14.65333271  119.36199951    0.51999998    2.59999990
   14.65555477  123.33000183    0.50000000    2.61999989
   14.65861034  133.40100098    0.50000000    2.61999989
   14.66194439  129.35499573    0.50000000    2.61999989
   14.66499996  127.30999756    0.50000000    2.61999989
   14.66833401  126.25800323    0.50000000    2.61999989
   14.67166710  129.97599792    0.50000000    2.61999989
   14.67472267  124.79900360    0.50000000    2.61999989
   14.67805576  117.53700256    0.51999998    2.61999989
   14.68111134  139.39799500    0.51999998    2.61999989
   14.68444443  148.37500000    0.50000000    2.59999990
   14.68666649  125.93199921    0.50000000    2.59999990
   14.68805599  117.13200378    0.50000000    2.61999989
   14.69138908  130.55900574    0.50000000    2.61999989
   14.69472218  128.03300476    0.50000000    2.61999989
   14.69777775  123.40000153    0.50000000    2.61999989
   14.70111084  118.39299774    0.50000000    2.61999989
   14.70444393  125.42600250    0.50000000    2.61999989
   14.70749950  130.33399963    0.50000000    2.61999989
   14.71083355  130.62500000    0.50000000    2.61999989
   14.71416664  127.70600128    0.51999998    2.61999989
   14.71749973  124.41899872    0.50000000    2.59999990
   14.71999931  138.06100464    0.50000000    2.61999989
   14.72111034  138.08999634    0.50000000    2.61999989
   14.72416592  139.43299866    0.50000000    2.61999989
   14.72749996  131.97599792    0.50000000    2.64000010
   14.73055553  134.84700012    0.50000000    2.64000010
   14.73388958  151.28599548    0.50000000    2.64000010
   14.73722267  133.93899536    0.50000000    2.64000010
   14.74027824  128.90600586    0.50000000    2.61999989
   14.74361134  132.12199402    0.50000000    2.61999989
   14.74694443  128.30599976    0.50000000    2.61999989
   14.75027752  125.50399780    0.51999998    2.61999989
   14.75333309  125.45899963    0.51999998    2.61999989
   14.75388908  124.53500366    0.51999998    2.61999989
   14.75694466  129.18400574    0.50000000    2.61999989
   14.76027775  129.17900085    0.50000000    2.61999989
   14.76333332  127.16200256    0.50000000    2.64000010
   14.76666641  132.37199402    0.50000000    2.64000010
   14.76999950  136.59500122    0.51999998    2.61999989
   14.77305508  128.83200073    0.51999998    2.64000010
   14.77638817  127.40899658    0.51999998    2.61999989
   14.77972221  133.43899536    0.51999998    2.61999989
   14.78277779  124.26100159    0.51999998    2.61999989
   14.78611183  117.85099792    0.51999998    2.61999989
   14.78666687  112.94699860    0.51999998    2.61999989
   14.78944492  130.02999878    0.51999998    2.61999989
   14.79277802  117.44100189    0.51999998    2.61999989
   14.79611111  124.04399872    0.51999998    2.64000010
   14.79916668  125.31600189    0.52999997    2.64000010
   14.80249977  126.67900085    0.52999997    2.64000010
   14.80583382  116.99099731    0.52999997    2.64000010
   14.80888939  126.33599854    0.52999997    2.64000010
   14.81222248  121.51699829    0.55000001    2.61999989
   14.81555557  129.64799500    0.56999999    2.64000010
   14.81861115  131.11500549    0.56999999    2.64000010
   14.81999969  112.18000031    0.56999999    2.64000010
   14.82222176  133.11799622    0.58999997    2.64000010
   14.82555580  125.88600159    0.58999997    2.61999989
   14.82888889  122.36900330    0.58999997    2.61999989
   14.83222198  122.13300323    0.61000001    2.61999989
   14.83527756  115.16699982    0.61000001    2.61999989
   14.83861065  120.69400024    0.63000000    2.61999989
   14.84194374  127.19499969    0.63000000    2.61999989
   14.84499931  120.39399719    0.63000000    2.64000010
   14.84833336  126.63600159    0.63000000    2.64000010
   14.85166740  112.87200165    0.64999998    2.61999989
   14.85333347  128.55999756    0.64999998    2.61999989
   14.85527802  120.51100159    0.63000000    2.64000010
   14.85833359  111.51799774    0.63000000    2.61999989
   14.86166668  120.06600189    0.61000001    2.61999989
   14.86500072  130.03900146    0.61000001    2.64000010
   14.86805534  120.80100250    0.61000001    2.64000010
   14.87138939  132.79400635    0.58999997    2.61999989
   14.87444496  119.26999664    0.56999999    2.64000010
   14.87777805  145.13999939    0.56999999    2.64000010
   14.88111115  131.04100037    0.56999999    2.64000010
   14.88416672  119.28199768    0.55000001    2.64000010
   14.88666630  123.20700073    0.52999997    2.64000010
   14.88805580  123.41600037    0.52999997    2.64000010
   14.89111137  119.08799744    0.52999997    2.61999989
   14.89444447  124.11299896    0.51999998    2.61999989
   14.89777756  120.75599670    0.51999998    2.64000010
   14.90083313  122.76499939    0.52999997    2.64000010
   14.90416622  127.26799774    0.52999997    2.64000010
   14.90722179  122.48000336    0.51999998    2.64000010
   14.91055489  124.89600372    0.51999998    2.64000010
   14.91388893  122.82900238    0.51999998    2.64000010
   14.91694450  116.17700195    0.51999998    2.64000010
   14.92000008  121.25800323    0.51999998    2.64000010
   14.92083359  117.69699860    0.51999998    2.64000010
   14.92388916  115.60700226    0.51999998    2.64000010
   14.92722225  116.32599640    0.51999998    2.64000010
   14.93027782  116.62100220    0.52999997    2.61999989
   14.93361092  130.58799744    0.55000001    2.64000010
   14.93694496  117.35700226    0.55000001    2.64000010
   14.94027805  129.47099304    0.56999999    2.64000010
   14.94333363  111.31400299    0.56999999    2.64000010
   14.94666672  129.21699524    0.55000001    2.64000010
   14.94972229  101.97399902    0.56999999    2.64000010
   14.95305538  107.75800323    0.55000001    2.64000010
   14.95361137  115.38899994    0.56999999    2.64000010
   14.95694447  113.03800201    0.56999999    2.64000010
   14.96000004  105.58200073    0.56999999    2.61999989
   14.96333313  111.18699646    0.55000001    2.64000010
   14.96666622  115.05100250    0.55000001    2.64000010
   14.96972179  118.17800140    0.55000001    2.64000010
   14.97305489  111.73899841    0.55000001    2.64000010
   14.97611046  105.76000214    0.55000001    2.64000010
   14.97944355  106.96600342    0.55000001    2.64000010
   14.98277760  110.55000305    0.55000001    2.64000010
   14.98583317  102.76699829    0.55000001    2.64000010
   14.98694515  112.55799866    0.55000001    2.64000010
   14.98972225  106.29000092    0.55000001    2.64000010
   14.99277782  109.06900024    0.55000001    2.64000010
   14.99611092  105.66699982    0.55000001    2.64000010
   14.99944496  111.49400330    0.55000001    2.64000010
   15.00249958  108.91899872    0.56999999    2.64000010
   15.00583363  109.84300232    0.55000001    2.64000010
   15.00888920  110.56199646    0.55000001    2.64000010
   15.01222229  110.04000092    0.55000001    2.64000010
   15.01555538  115.73200226    0.55000001    2.64000010
   15.01861095  114.11699677    0.55000001    2.64000010
   15.02027798  105.31900024    0.55000001    2.64000010
   15.02250004  106.77100372    0.55000001    2.64000010
   15.02555561  105.72399902    0.55000001    2.64000010
   15.02888870  110.91400146    0.55000001    2.64000010
   15.03222179  109.21700287    0.56999999    2.64000010
   15.03527832  109.75399780    0.56999999    2.64000010
   15.03861141  104.55000305    0.56999999    2.64000010
   15.04194450  107.55799866    0.56999999    2.64000010
   15.04500008  105.79699707    0.58999997    2.64000010
   15.04833412  105.25599670    0.58999997    2.64000010
   15.05138874  107.12699890    0.56999999    2.64000010
   15.05361176  112.50499725    0.56999999    2.64000010
   15.05527782  110.36399841    0.56999999    2.64000010
   15.05833340  108.90299988    0.56999999    2.64000010
   15.06166649  111.46700287    0.58999997    2.64000010
   15.06500053  112.19200134    0.56999999    2.61999989
   15.06805515  107.30799866    0.58999997    2.64000010
   15.07138920  112.50499725    0.58999997    2.64000010
   15.07444477  109.75399780    0.58999997    2.64000010
   15.07777786  113.71199799    0.58999997    2.64000010
   15.08111095  110.07599640    0.58999997    2.64000010
   15.08416653  110.49299622    0.58999997    2.64000010
   15.08694458  103.83699799    0.56999999    2.64000010
   15.08805561  104.61900330    0.56999999    2.64000010
   15.09111118  106.36699677    0.58999997    2.64000010
   15.09444427  110.53600311    0.56999999    2.64000010
   15.09777737  103.32399750    0.55000001    2.64000010
   15.10083389  107.31700134    0.55000001    2.64000010
   15.10416698  106.30300140    0.55000001    2.64000010
   15.10750008  102.45300293    0.55000001    2.64000010
   15.11055565  105.71399689    0.56999999    2.64000010
   15.11388969  104.67600250    0.55000001    2.64000010
   15.11722279  104.35800171    0.55000001    2.64000010
   15.12027836  101.49400330    0.55000001    2.64000010
   15.12083340  108.86199951    0.55000001    2.64000010
   15.12388897  107.42400360    0.55000001    2.64000010
   15.12722206  101.97799683    0.55000001    2.64000010
   15.13055611  108.09100342    0.52999997    2.64000010
   15.13361073  115.61499786    0.56999999    2.64000010
   15.13694477  108.80999756    0.56999999    2.64000010
   15.14000034  109.05799866    0.55000001    2.64000010
   15.14333344  109.86100006    0.56999999    2.64000010
   15.14666653  100.19400024    0.58999997    2.66000009
   15.14972210  117.17900085    0.56999999    2.64000010
   15.15305519  103.66699982    0.56999999    2.64000010
   15.15361118  115.58000183    0.56999999    2.64000010
   15.15666676  103.22200012    0.56999999    2.64000010
   15.15972137  107.03199768    0.58999997    2.64000010
   15.16305542  106.68599701    0.63000000    2.64000010
   15.16638851  108.22299957    0.61000001    2.64000010
   15.16944504  112.61900330    0.63000000    2.64000010
   15.17277813  111.94400024    0.63000000    2.64000010
   15.17583370  113.50000000    0.64999998    2.64000010
   15.17916679  109.76000214    0.64999998    2.64000010
   15.18249989  111.20899963    0.64999998    2.64000010
   15.18555546  106.61699677    0.64999998    2.64000010
   15.18694496  116.06500244    0.64999998    2.64000010
   15.18972206  109.92800140    0.64999998    2.64000010
   15.19305515  109.70700073    0.64999998    2.66000009
   15.19611073  106.98500061    0.67000002    2.64000010
   15.19944477  106.89099884    0.67000002    2.64000010
   15.20277786  105.64700317    0.69000000    2.64000010
   15.20583344  104.32700348    0.69000000    2.64000010
   15.20916653  108.71900177    0.69000000    2.64000010
   15.21222210  103.76899719    0.73000002    2.64000010
   15.21555519  108.85900116    0.73000002    2.64000010
   15.21888828  105.98699951    0.70999998    2.64000010
   15.22027779  106.47499847    0.70999998    2.64000010
   15.22249985  113.39199829    0.70999998    2.64000010
   15.22555542  107.32499695    0.70999998    2.64000010
   15.22888851  105.33000183    0.70999998    2.64000010
   15.23222160  108.86599731    0.73000002    2.64000010
   15.23527813  110.72100067    0.73000002    2.64000010
   15.23861122  106.00900269    0.70999998    2.64000010
   15.24194431  108.23100281    0.67000002    2.64000010
   15.24499989  111.82099915    0.64999998    2.66000009
   15.24833393  111.83399963    0.64999998    2.64000010
   15.25138855  112.75099945    0.64999998    2.64000010
   15.25361156  107.06600189    0.64999998    2.64000010
   15.25527763  111.17500305    0.69000000    2.64000010
   15.25833321  111.71199799    0.67000002    2.64000010
   15.26166630  109.16400146    0.67000002    2.64000010
   15.26500034  104.45500183    0.64999998    2.64000010
   15.26805496  108.92800140    0.63000000    2.64000010
   15.27138901  108.63099670    0.64999998    2.64000010
   15.27472210  106.21199799    0.63000000    2.64000010
   15.27777767  107.86499786    0.67000002    2.66000009
   15.28111076  101.39600372    0.64999998    2.64000010
   15.28444481  110.64099884    0.64999998    2.64000010
   15.28694534  108.80100250    0.63000000    2.64000010
   15.28805637  108.84500122    0.63000000    2.64000010
   15.29138947  111.67900085    0.63000000    2.64000010
   15.29444504  103.80200195    0.64999998    2.64000010
   15.29777813  106.23600006    0.64999998    2.64000010
   15.30083370  104.43099976    0.64999998    2.64000010
   15.30416679  101.95099640    0.64999998    2.64000010
   15.30749989  100.80799866    0.63000000    2.64000010
   15.31055546  105.19699860    0.63000000    2.66000009
   15.31388950  103.16600037    0.64999998    2.64000010
   15.31694412  106.61699677    0.64999998    2.66000009
   15.32027817  108.30500031    0.69000000    2.64000010
   15.32083321  109.05100250    0.69000000    2.64000010
   15.32416630  107.54000092    0.67000002    2.64000010
   15.32750034  111.54399872    0.67000002    2.64000010
   15.33055592  107.65000153    0.67000002    2.64000010
   15.33388901  112.75299835    0.67000002    2.66000009
   15.33694458  107.97399902    0.69000000    2.66000009
   15.34027767  105.99800110    0.70999998    2.64000010
   15.34361076  105.77899933    0.69000000    2.66000009
   15.34666634  105.79000092    0.83999997    2.66000009
   15.35000038  111.69699860    0.83999997    2.66000009
   15.35333347  105.74400330    0.83999997    2.66000009
   15.35361195  110.98999786    0.86000001    2.64000010
   15.35666752  110.60399628    0.86000001    2.64000010
   15.36000061  110.77500153    0.83999997    2.64000010
   15.36305618  108.80100250    0.88000000    2.66000009
   15.36638927  106.77700043    0.83999997    2.64000010
   15.36972237  108.85600281    0.79000002    2.64000010
   15.37277794  108.64700317    0.75000000    2.66000009
   15.37611103  109.25700378    0.73000002    2.64000010
   15.37916660  105.63200378    0.73000002    2.66000009
   15.38249969  109.75399780    0.70999998    2.64000010
   15.38583279  112.68900299    0.69000000    2.66000009
   15.38694477  114.44400024    0.69000000    2.66000009
   15.38944435  117.40200043    0.69000000    2.66000009
   15.39277744  107.26300049    0.64999998    2.64000010
   15.39583302  108.75099945    0.64999998    2.64000010
   15.39916611  105.19499969    0.64999998    2.64000010
   15.40249920  103.27500153    0.64999998    2.66000009
   15.40555477  102.98000336    0.64999998    2.66000009
   15.40888882  103.44400024    0.63000000    2.64000010
   15.41222191  107.09200287    0.61000001    2.64000010
   15.41527748  113.96800232    0.61000001    2.64000010
   15.41861153  110.85900116    0.58999997    2.66000009
   15.42055607  104.35199738    0.58999997    2.66000009
   15.42222214  104.28399658    0.58999997    2.66000009
   15.42555618  101.18599701    0.61000001    2.64000010
   15.42888927  101.68099976    0.58999997    2.64000010
   15.43194485  107.26200104    0.56999999    2.66000009
   15.43527794  108.36499786    0.56999999    2.66000009
   15.43833351  102.23200226    0.56999999    2.66000009
   15.44166660  108.62300110    0.56999999    2.66000009
   15.44499969  113.36399841    0.56999999    2.66000009
   15.44805527  109.40000153    0.58999997    2.66000009
   15.45138836  108.35600281    0.56999999    2.64000010
   15.45388889  111.82399750    0.58999997    2.66000009
   15.45499992  106.12500000    0.58999997    2.66000009
   15.45833302  105.94999695    0.56999999    2.66000009
   15.46138859  104.42500305    0.56999999    2.66000009
   15.46472168  109.23300171    0.56999999    2.66000009
   15.46805477  112.39800262    0.58999997    2.64000010
   15.47111034  105.47499847    0.58999997    2.66000009
   15.47444439  106.65100098    0.56999999    2.66000009
   15.47777748  106.75000000    0.56999999    2.66000009
   15.48083305  103.47699738    0.55000001    2.66000009
   15.48416710  105.50000000    0.56999999    2.66000009
   15.48722267  104.22000122    0.56999999    2.66000009
   15.48777771  104.52500153    0.56999999    2.66000009
   15.49111176  106.48699951    0.55000001    2.66000009
   15.49416733  109.28500366    0.55000001    2.64000010
   15.49750042  106.47100067    0.55000001    2.66000009
   15.50083351  104.36100006    0.55000001    2.66000009
   15.50388908  104.37500000    0.55000001    2.66000009
   15.50722218  106.51100159    0.55000001    2.66000009
   15.51055527  107.47499847    0.55000001    2.66000009
   15.51361084  107.23799896    0.55000001    2.64000010
   15.51694393  100.16200256    0.55000001    2.66000009
   15.53638935  111.35399628    0.55000001    2.64000010
   15.53694534  113.54699707    0.55000001    2.64000010
   15.54027843  105.70700073    0.52999997    2.66000009
   15.54333401  114.29299927    0.52999997    2.66000009
   15.54666710  104.96199799    0.52999997    2.64000010
   15.54972267  110.38999939    0.52999997    2.66000009
   15.55305576  116.33799744    0.52999997    2.66000009
   15.55638885  103.55999756    0.52999997    2.64000010
   15.55944443  103.23000336    0.51999998    2.67000008
   15.56277752  103.90299988    0.52999997    2.66000009
   15.56611156  108.97799683    0.52999997    2.66000009
   15.56916618  108.48999786    0.51999998    2.66000009
   15.56972218  107.88899994    0.51999998    2.66000009
   15.57277775  105.86299896    0.51999998    2.64000010
   15.57583332  110.93800354    0.51999998    2.66000009
   15.57916641  108.34899902    0.52999997    2.66000009
   15.58249950  106.81099701    0.52999997    2.66000009
   15.58555508  114.75900269    0.52999997    2.66000009
   15.58888817  106.01100159    0.51999998    2.66000009
   15.59222221  105.54799652    0.51999998    2.66000009
   15.59527779  113.11900330    0.51999998    2.66000009
   15.59861088  111.03299713    0.51999998    2.67000008
   15.60166740  117.11000061    0.51999998    2.67000008
   15.60305595  109.68000031    0.51999998    2.67000008
   15.60555553  112.87999725    0.51999998    2.66000009
   15.60861111  113.60800171    0.51999998    2.66000009
   15.61194515  107.61199951    0.51999998    2.66000009
   15.61527824  109.50499725    0.51999998    2.66000009
   15.61833382  108.44300079    0.51999998    2.66000009
   15.62166691  114.29199982    0.52999997    2.66000009
   15.62500000  114.83899689    0.51999998    2.66000009
   15.62805557  114.01399994    0.51999998    2.66000009
   15.63138866  114.73000336    0.51999998    2.67000008
   15.63472176  115.63400269    0.52999997    2.69000006
   15.63638878  111.72100067    0.51999998    2.66000009
   15.63833332  110.98999786    0.51999998    2.66000009
   15.64138889  113.52100372    0.51999998    2.66000009
   15.64472198  112.90699768    0.51999998    2.64000010
   15.64805508  108.65399933    0.51999998    2.64000010
   15.65111065  109.40299988    0.52999997    2.64000010
   15.65444374  119.61699677    0.51999998    2.66000009
   15.65777779  110.60099792    0.51999998    2.66000009
   15.66083336  109.62599945    0.51999998    2.66000009
   15.66416645  106.34700012    0.51999998    2.66000009
   15.66750050  104.11499786    0.51999998    2.66000009
   15.66972256  112.10099792    0.51999998    2.66000009
   15.67111111  108.28600311    0.52999997    2.67000008
   15.67416668  109.20500183    0.51999998    2.66000009
   15.67750072  109.09899902    0.51999998    2.66000009
   15.68083382  113.56999969    0.51999998    2.66000009
   15.68388939  102.37599945    0.51999998    2.66000009
   15.68722248  105.55200195    0.51999998    2.66000009
   15.69055557  106.97899628    0.51999998    2.66000009
   15.69361115  107.80899811    0.51999998    2.67000008
   15.69694424  107.07599640    0.51999998    2.67000008
   15.69999981  101.44300079    0.51999998    2.66000009
   15.70305538  105.57399750    0.51999998    2.66000009
   15.70388889  109.11299896    0.51999998    2.66000009
   15.70694447  108.98300171    0.52999997    2.66000009
   15.71027756  108.96399689    0.51999998    2.66000009
   15.71361065  106.51300049    0.51999998    2.67000008
   15.71666622  113.12100220    0.51999998    2.66000009
   15.71999931  109.42099762    0.52999997    2.66000009
   15.72333336  110.13600159    0.52999997    2.66000009
   15.72638798  104.56300354    0.51999998    2.66000009
   15.72972202  115.43599701    0.52999997    2.66000009
   15.73277760  115.81900024    0.51999998    2.66000009
   15.73611164  108.02999878    0.51999998    2.66000009
   15.73666668  114.70999908    0.51999998    2.66000009
   15.74000072  108.43900299    0.51999998    2.67000008
   15.74305534  101.16799927    0.51999998    2.66000009
   15.74638939  108.95999908    0.51999998    2.67000008
   15.74972248  110.07599640    0.51999998    2.67000008
   15.75277805  103.48600006    0.51999998    2.66000009
   15.75611115  111.35099792    0.51999998    2.67000008
   15.75916672  111.77500153    0.51999998    2.66000009
   15.76249981  105.56800079    0.51999998    2.66000009
   15.76583290  106.27600098    0.51999998    2.66000009
   15.76888847  116.16000366    0.51999998    2.66000009
   15.76999950  109.02400208    0.51999998    2.66000009
   15.77277756  109.36900330    0.52999997    2.67000008
   15.77583313  106.68099976    0.51999998    2.67000008
   15.77916622  116.06300354    0.51999998    2.66000009
   15.78249931  106.85800171    0.51999998    2.66000009
   15.78555584  103.99299622    0.51999998    2.66000009
   15.78888893  113.49199677    0.52999997    2.66000009
   15.79222298  106.27300262    0.52999997    2.66000009
   15.79527855  106.66600037    0.52999997    2.66000009
   15.79861164  116.84999847    0.51999998    2.66000009
   15.80166721  105.76599884    0.52999997    2.69000006
   15.80333328  109.89800262    0.52999997    2.66000009
   15.80555534   99.35449982    0.52999997    2.67000008
   15.80861092  104.18299866    0.52999997    2.66000009
   15.81194496  111.35800171    0.52999997    2.66000009
   15.81527805  104.53600311    0.52999997    2.66000009
   15.81833363  105.35299683    0.52999997    2.66000009
   15.82166672  107.21099854    0.52999997    2.67000008
   15.82472229  108.15100098    0.52999997    2.66000009
   15.82805538  105.95300293    0.55000001    2.67000008
   15.83138847  110.01599884    0.55000001    2.67000008
   15.83444405  110.61000061    0.55000001    2.67000008
   15.83666611  100.68399811    0.55000001    2.67000008
   15.83833313  109.12999725    0.55000001    2.67000008
   15.84138870  106.22299957    0.55000001    2.66000009
   15.84472179  106.76499939    0.55000001    2.67000008
   15.84805489  112.87500000    0.52999997    2.67000008
   15.85111141  105.33799744    0.52999997    2.66000009
   15.85444450  104.60399628    0.52999997    2.66000009
   15.85750008  113.36599731    0.52999997    2.66000009
   15.86083412  102.70899963    0.52999997    2.67000008
   15.86416721  108.93800354    0.52999997    2.67000008
   15.86722279  110.54599762    0.51999998    2.69000006
   15.86999989  107.00099945    0.51999998    2.69000006
   15.87111092  110.37300110    0.52999997    2.67000008
   15.87416649  114.04499817    0.52999997    2.67000008
   15.87750053  103.77100372    0.56999999    2.69000006
   15.88083363  105.06600189    0.56999999    2.66000009
   15.88388920  108.43599701    0.58999997    2.67000008
   15.88722229  113.60199738    0.58999997    2.66000009
   15.89055538  111.79799652    0.56999999    2.67000008
   15.89361095  109.29900360    0.56999999    2.67000008
   15.89694405  105.17099762    0.55000001    2.66000009
   15.89999962  105.01100159    0.52999997    2.67000008
   15.90333271  100.37500000    0.51999998    2.67000008
   15.90388870  104.61299896    0.51999998    2.67000008
   15.90694427  108.08399963    0.52999997    2.66000009
   15.91027737  105.44699860    0.52999997    2.66000009
   15.91361046  106.78199768    0.55000001    2.67000008
   15.91666698  116.15799713    0.55000001    2.66000009
   15.92000008  115.29100037    0.55000001    2.66000009
   15.92333412  105.76799774    0.55000001    2.67000008
   15.92638874  113.73799896    0.52999997    2.66000009
   15.92972279  110.68800354    0.52999997    2.67000008
   15.93305588  105.98000336    0.52999997    2.66000009
   15.93611145  112.28199768    0.51999998    2.66000009
   15.93666649  104.18900299    0.51999998    2.66000009
   15.93972206  108.10900116    0.51999998    2.66000009
   15.94305515  109.40799713    0.51999998    2.67000008
   15.94611073  107.95400238    0.51999998    2.67000008
   15.94944477  108.61100006    0.51999998    2.66000009
   15.95249939  110.48100281    0.51999998    2.66000009
   15.95583344  111.32299805    0.51999998    2.67000008
   15.95916653  111.30400085    0.51999998    2.67000008
   15.96222210  102.88800049    0.51999998    2.67000008
   15.96555519  112.86299896    0.51999998    2.66000009
   15.96888828  105.31700134    0.51999998    2.66000009
   15.96999931  108.14800262    0.51999998    2.67000008
   15.97249985  107.12400055    0.51999998    2.67000008
   15.97583294  103.36599731    0.51999998    2.67000008
   15.97888851  109.37999725    0.50000000    2.67000008
   15.98222160  108.54900360    0.51999998    2.67000008
   15.98527813  111.36799622    0.51999998    2.67000008
   15.98861122  111.65499878    0.51999998    2.67000008
   15.99194431  111.13200378    0.51999998    2.67000008
   15.99499989  110.51999664    0.51999998    2.67000008
   15.99833393  107.80300140    0.51999998    2.66000009
   16.00166702  103.96199799    0.52999997    2.67000008
   16.00333405  103.91000366    0.52999997    2.67000008
   16.00527763  111.58899689    0.52999997    2.66000009
   16.00833321  109.09100342    0.52999997    2.66000009
   16.01166725  108.49900055    0.55000001    2.67000008
   16.01499939  115.24199677    0.55000001    2.67000008
   16.01833344  111.00900269    0.55000001    2.67000008
   16.02166557  106.33100128    0.52999997    2.67000008
   16.02499962  112.97000122    0.52999997    2.67000008
   16.02805519  117.70600128    0.55000001    2.66000009
   16.03138924  103.58300018    0.55000001    2.66000009
   16.03472137  112.23799896    0.55000001    2.67000008
   16.03666687  105.00599670    0.55000001    2.67000008
   16.03833199  108.55999756    0.55000001    2.67000008
   16.04166603  110.97000122    0.52999997    2.67000008
   16.04472160  112.35199738    0.52999997    2.66000009
   16.04805565  113.99099731    0.55000001    2.67000008
   16.05138779  113.70200348    0.52999997    2.66000009
   16.05444336  114.84300232    0.55000001    2.67000008
   16.05777740  114.51999664    0.55000001    2.67000008
   16.06083298  113.00700378    0.52999997    2.67000008
   16.06416512  108.91300201    0.55000001    2.67000008
   16.06750107  123.05400085    0.55000001    2.67000008
   16.07000160  109.51300049    0.56999999    2.67000008
   16.07111168  124.22699738    0.56999999    2.67000008
   16.07444572  110.25399780    0.56999999    2.67000008
   16.07750130  117.33999634    0.56999999    2.67000008
   16.08083344  110.64700317    0.56999999    2.67000008
   16.08416748  130.73399353    0.56999999    2.67000008
   16.08722305  111.34200287    0.58999997    2.67000008
   16.09055710  111.85900116    0.58999997    2.67000008
   16.09361267  110.48699951    0.56999999    2.67000008
   16.09694481  103.62500000    0.56999999    2.67000008
   16.10027885  115.56800079    0.56999999    2.67000008
   16.10333443  113.95600128    0.56999999    2.67000008
   16.10388947  117.41200256    0.56999999    2.67000008
   16.10722351  108.44699860    0.58999997    2.67000008
   16.11027908  122.20899963    0.58999997    2.67000008
   16.11361122  114.16500092    0.58999997    2.67000008
   16.11666679  113.54000092    0.58999997    2.66000009
   16.12000084  110.51399994    0.61000001    2.67000008
   16.12333298  110.52799988    0.61000001    2.67000008
   16.12638855  114.80899811    0.61000001    2.67000008
   16.12972260  113.21700287    0.58999997    2.67000008
   16.13305473  110.30899811    0.58999997    2.67000008
   16.13611031  103.60700226    0.61000001    2.67000008
   16.13666725  107.71299744    0.61000001    2.67000008
   16.13972282  109.12599945    0.63000000    2.67000008
   16.14305496  107.16600037    0.64999998    2.67000008
   16.14611053  111.95999908    0.64999998    2.67000008
   16.14944458  106.58699799    0.63000000    2.67000008
   16.15250015  111.68399811    0.61000001    2.67000008
   16.15583229  111.40100098    0.56999999    2.67000008
   16.15916634  109.07399750    0.55000001    2.67000008
   16.16222191  117.29000092    0.55000001    2.67000008
   16.16555595  109.97000122    0.56999999    2.66000009
   16.16888809  113.17700195    0.56999999    2.66000009
   16.17000008  104.60700226    0.56999999    2.67000008
   16.17249870  125.43599701    0.56999999    2.67000008
   16.17583275  127.00499725    0.55000001    2.67000008
   16.17888832  114.71800232    0.55000001    2.67000008
   16.18222237  120.68199921    0.55000001    2.67000008
   16.18555450  116.21700287    0.56999999    2.67000008
   16.18861008  118.41100311    0.61000001    2.67000008
   16.19194412  115.70700073    0.61000001    2.67000008
   16.19499969  119.69499969    0.61000001    2.67000008
   16.19833183  111.32800293    0.61000001    2.67000008
   16.20166779  108.90399933    0.61000001    2.66000009
   16.20333481  113.62300110    0.63000000    2.67000008
   16.20527840  111.49600220    0.63000000    2.67000008
   16.20861244  122.72599792    0.64999998    2.67000008
   16.21166801  120.46099854    0.64999998    2.67000008
   16.21500015  123.89199829    0.64999998    2.67000008
   16.21833420  122.66600037    0.61000001    2.67000008
   16.22138977  127.83599854    0.61000001    2.67000008
   16.22472191  141.64599609    0.63000000    2.67000008
   16.22777748  144.75199890    0.63000000    2.67000008
   16.23111153  121.64199829    0.63000000    2.67000008
   16.23444557  116.91799927    0.63000000    2.67000008
   16.23666763  124.48400116    0.63000000    2.67000008
   16.23805618  136.79899597    0.63000000    2.67000008
   16.24138832  128.98699951    0.63000000    2.67000008
   16.24444389  128.06700134    0.61000001    2.67000008
   16.24777794  117.84300232    0.63000000    2.66000009
   16.25111198  110.42500305    0.61000001    2.67000008
   16.25416756  123.74700165    0.58999997    2.67000008
   16.25749969  118.38200378    0.56999999    2.67000008
   16.26055527  115.48699951    0.56999999    2.67000008
   16.26388931  123.77500153    0.56999999    2.67000008
   16.26722145  126.76999664    0.56999999    2.67000008
   16.27000046  129.00700378    0.58999997    2.67000008
   16.27083397  120.11199951    0.58999997    2.67000008
   16.27416611  126.13300323    0.64999998    2.67000008
   16.27722168  111.67400360    0.67000002    2.69000006
   16.28055573  125.74400330    0.67000002    2.69000006
   16.28361130  122.62599945    0.70999998    2.67000008
   16.28722191  126.39099884    0.73000002    2.67000008
   16.29027748  121.06600189    0.79000002    2.67000008
   16.29361153  116.87799835    0.80000001    2.67000008
   16.29666710  127.62599945    0.80000001    2.67000008
   16.29999924  130.11199951    0.86000001    2.67000008
   16.30333328  131.08500671    0.94000000    2.67000008
   16.30388832  129.92799377    0.94000000    2.67000008
   16.30694389  120.62300110    0.92000002    2.67000008
   16.31027794  122.59300232    0.98000002    2.67000008
   16.31361008  126.21900177    0.95999998    2.67000008
   16.31666756  119.17700195    0.94000000    2.67000008
   16.32000160  121.96499634    0.94000000    2.67000008
   16.32305717  127.04100037    0.94000000    2.67000008
   16.32638931  125.24500275    0.89999998    2.67000008
   16.32972336  127.01000214    0.86000001    2.67000008
   16.33277893  136.20799255    0.80000001    2.67000008
   16.33611107  136.17300415    0.80000001    2.67000008
   16.33722305  119.32399750    0.80000001    2.67000008
   16.33972359  121.87100220    0.83999997    2.67000008
   16.34305573  129.71299744    0.83999997    2.67000008
   16.34638977  135.22200012    0.88000000    2.67000008
   16.34944534  133.77200317    0.88000000    2.67000008
   16.35277748  137.80200195    0.88000000    2.67000008
   16.35583305  130.61000061    0.86000001    2.67000008
   16.35916710  125.70500183    0.89999998    2.67000008
   16.36250114  124.92500305    1.01999998    2.67000008
   16.36555672  127.05400085    1.03999996    2.66000009
   16.36888885  126.42500305    0.94000000    2.67000008
   16.37055588  129.92700195    0.94000000    2.67000008
   16.37249947  130.18400574    0.94000000    2.67000008
   16.37583351  119.65100098    0.83999997    2.67000008
   16.37916756  122.74600220    0.80000001    2.67000008
   16.38222313  110.59200287    0.89999998    2.67000008
   16.38555527  123.23100281    0.88000000    2.66000009
   16.38861084  126.49800110    0.88000000    2.66000009
   16.39194489  127.83200073    0.89999998    2.67000008
   16.39527702  126.58999634    0.92000002    2.67000008
   16.39833260  125.55699921    0.92000002    2.67000008
   16.40166664  127.93900299    0.98000002    2.67000008
   16.40388870  132.88699341    0.94000000    2.67000008
   16.40527725  135.68800354    0.81999999    2.67000008
   16.40861130  130.41299438    0.81999999    2.67000008
   16.41194344  122.11100006    0.81999999    2.67000008
   16.41499901  128.87500000    0.80000001    2.67000008
   16.41833305  129.15800476    0.73000002    2.67000008
   16.42138863  133.65699768    0.75000000    2.67000008
   16.42472076  134.01600647    0.75000000    2.67000008
   16.42805481  122.70400238    0.73000002    2.67000008
   16.43111038  133.26199341    0.70999998    2.67000008
   16.43444443  138.53999329    0.63000000    2.67000008
   16.43722153  113.18499756    0.63000000    2.67000008
   16.43805504  126.66400146    0.61000001    2.67000008
   16.44138718  126.66500092    0.61000001    2.67000008
   16.44472122  131.42700195    0.61000001    2.67000008
   16.44777679  132.09399414    0.56999999    2.66000009
   16.45111275  125.45200348    0.55000001    2.66000009
   16.45444489  116.58799744    0.55000001    2.67000008
   16.45750046  129.36399841    0.61000001    2.67000008
   16.46083450  120.04000092    0.69000000    2.67000008
   16.46389008  135.94400024    0.69000000    2.67000008
   16.46722221  126.67199707    0.70999998    2.67000008
   16.47055626  120.66799927    0.64999998    2.67000008
   16.47083473  124.07599640    0.64999998    2.67000008
   16.47416687  132.97000122    0.61000001    2.67000008
   16.47750092  136.12600708    0.61000001    2.67000008
   16.48055649  119.89099884    0.63000000    2.67000008
   16.48388863  130.89300537    0.67000002    2.67000008
   16.48722267  128.36500549    0.70999998    2.67000008
   16.49027824  124.31500244    0.80000001    2.67000008
   16.49361229  114.30599976    0.80000001    2.67000008
   16.49666786  126.12500000    0.88000000    2.67000008
   16.50000000  121.84600067    1.38000000    2.67000008
   16.50333405  135.04100037    1.75000000    2.67000008
   16.50388908  126.77899933    1.80999994    2.67000008
   16.50666618  137.66299438    2.51999998    2.67000008
   16.51000023  133.53700256    3.23000002    2.66000009
   16.51333427  127.53099823    3.97000003    2.66000009
   16.51638794  118.38300323    4.55999994    2.64000010
   16.51972198  135.59899902    4.84999990    2.64000010
   16.52305603  132.21099854    4.90999985    2.66000009
   16.52611160  117.62899780    4.90999985    2.64000010
   16.52944374  136.29699707    4.90999985    2.64000010
   16.53249931  134.60299683    4.90999985    2.67000008
   16.53583336  126.86000061    4.90999985    2.67000008
   16.55305481  124.73500061    4.90999985    2.66000009
   16.55583191  127.83999634    4.90999985    2.66000009
   16.55888748  125.20400238    4.90999985    2.66000009
   16.56222153  128.82299805    4.90999985    2.64000010
   16.56527710  133.65299988    4.90999985    2.61999989
   16.56861115  124.43299866    4.90999985    2.61999989
   16.57194519  135.57699585    4.90999985    2.66000009
   16.57500076  116.47299957    4.90999985    2.66000009
   16.57833481  121.91799927    4.90999985    2.64000010
   16.58166695  130.01400757    4.90999985    2.64000010
   16.58472252  126.56300354    4.90999985    2.64000010
   16.58638954  123.18299866    4.90999985    2.59999990
   16.58833313  128.50199890    4.90999985    2.59999990
   16.59166718  116.66300201    4.90999985    2.57999992
   16.59472275  120.80000305    4.90999985    2.59999990
   16.59805679  117.80200195    4.90999985    2.59999990
   16.60138893  125.40000153    4.90999985    2.57999992
   16.60444450  119.10199738    4.90999985    2.55999994
   16.60777855  125.50599670    4.90999985    2.57999992
   16.61111069  132.33999634    4.90999985    2.55999994
   16.61416626  132.02900696    4.90999985    2.55999994
   16.61750031  130.44500732    4.90999985    2.59999990
   16.61972237  132.03799438    4.90999985    2.57999992
   16.62111092  122.50599670    4.90999985    2.55999994
   16.62444496  132.38699341    4.90999985    2.55999994
   16.62750053  123.74900055    4.90999985    2.53999996
   16.63083267  128.62800598    4.90999985    2.51999998
   16.63444519  128.13200378    4.90999985    2.57999992
   16.63750076  118.87400055    4.90999985    2.59999990
   16.64083290  122.77600098    4.90999985    2.59999990
   16.64416695  120.16100311    4.90999985    2.55999994
   16.64722252  123.94599915    4.90999985    2.57999992
   16.65055466  112.84300232    4.90999985    2.50000000
   16.65305519  114.73400116    4.90999985    2.48000002
   16.65416718  127.68800354    4.90999985    2.51999998
   16.65749931  112.07700348    4.90999985    2.51999998
   16.66055489  138.59599304    4.90999985    2.55999994
   16.66388893  117.53500366    4.90999985    2.50000000
   16.66722107  123.60099792    4.90999985    2.51999998
   16.67027664  138.27000427    4.90999985    2.53999996
   16.67361069  123.97200012    4.90999985    2.44000006
   16.67694473  115.31600189    4.90999985    2.50000000
   16.68000031  130.41799927    4.90999985    2.55999994
   16.68333244  134.95599365    4.90999985    2.42000008
   16.68638802  114.27300262    4.90999985    2.39000010
   16.68694305  121.96099854    4.90999985    2.44000006
   16.69027710  118.00199890    4.90999985    2.51999998
   16.69333267  121.96199799    4.90999985    2.55999994
   16.69666672  119.20500183    4.90999985    2.53999996
   16.70000076  121.36199951    4.90999985    2.59999990
   16.70305634  125.37799835    4.90999985    2.59999990
   16.70639038  126.01200104    4.90999985    2.59999990
   16.70972252  119.51999664    4.90999985    2.55999994
   16.71277809  113.89700317    4.90999985    2.61999989
   16.71611214  121.82099915    4.90999985    2.61999989
   16.71916771  115.14900208    4.90999985    2.57999992
   16.71972275  117.01599884    4.90999985    2.59999990
   16.72305679  124.90399933    4.90999985    2.57999992
   16.72638893  113.95700073    4.90999985    2.55999994
   16.72944450  120.20600128    4.90999985    2.61999989
   16.73277855  114.09999847    4.90999985    2.64000010
   16.73611069  122.31199646    4.90999985    2.66000009
   16.73916626  117.11299896    4.90999985    2.61999989
   16.74250031  113.82099915    4.59999990    2.61999989
   16.74583435  103.28800201    4.90999985    2.67000008
   16.74888992  112.39399719    4.13999987    2.66000009
   16.75222206  111.67199707    3.30999994    2.66000009
   16.75305557  114.58399963    3.28999996    2.66000009
   16.75583267  112.73400116    3.30999994    2.66000009
   16.75916672  116.49900055    3.34999990    2.66000009
   16.76222229  127.84999847    3.41000009    2.64000010
   16.76555634  119.49700165    3.46000004    2.66000009
   16.76888847  113.71499634    2.91000009    2.66000009
   16.77194405  121.99600220    2.71000004    2.69000006
   16.77527809  116.95400238    2.82999992    2.67000008
   16.77833366  121.17800140    3.00000000    2.67000008
   16.78166580  110.72599792    3.23000002    2.67000008
   16.78499985  118.29499817    3.75000000    2.66000009
   16.78638840  127.89499664    3.95000005    2.64000010
   16.78861046  118.24600220    4.53000021    2.59999990
   16.79194450  116.81099701    4.90999985    2.59999990
   16.79500008  125.94699860    4.90999985    2.59999990
   16.79833221  121.86699677    4.90999985    2.61999989
   16.80166626  133.40699768    4.90999985    2.66000009
   16.80472183  119.26399994    4.90999985    2.64000010
   16.80805397  135.56700134    4.90999985    2.67000008
   16.81138802  132.17500305    4.90999985    2.66000009
   16.81444359  127.62799835    4.90999985    2.64000010
   16.81777954  143.24000549    4.90999985    2.50000000
   16.81972313  141.02499390    4.90999985    2.50000000
   16.82139015  152.61700439    4.90999985    2.50000000
   16.82472229  144.55799866    4.90999985    2.48000002
   16.82777786  120.47200012    4.90999985    2.59999990
   16.83111191  141.17900085    4.90999985    2.64000010
   16.83444595  129.39300537    4.90999985    2.67000008
   16.83750153  129.49800110    4.90999985    2.69000006
   16.84083366  130.19799805    4.90999985    2.64000010
   16.84388924  125.85800171    4.90999985    2.61999989
   16.84749985  130.62600708    4.90999985    2.64000010
   16.85083389  146.01300049    4.90999985    2.61999989
   16.85305595  137.87199402    4.90999985    2.61999989
   16.85444450  137.48300171    4.90999985    2.61999989
   16.85777855  128.46699524    4.90999985    2.59999990
   16.86083412  131.81500244    4.90999985    2.61999989
   16.86416626  133.79200745    4.90999985    2.61999989
   16.86750031  136.81700134    4.90999985    2.61999989
   16.87055588  131.02600098    4.90999985    2.59999990
   16.87388992  149.64799500    4.90999985    2.59999990
   16.87694550  134.66900635    4.90999985    2.57999992
   16.88027763  132.12100220    4.90999985    2.66000009
   16.88361168  113.31099701    4.90999985    2.67000008
   16.88638878  123.80699921    3.75000000    2.67000008
   16.88722229  106.93599701    3.75000000    2.67000008
   16.89055634  130.76499939    3.28999996    2.66000009
   16.89361191  115.21199799    3.76999998    2.67000008
   16.89694405  122.65499878    3.89000010    2.64000010
   16.90027809  135.36300659    4.53000021    2.66000009
   16.90333366  133.08900452    4.90999985    2.66000009
   16.90666580  131.66900635    4.90999985    2.64000010
   16.90972137  133.79800415    4.90999985    2.61999989
   16.91305542  138.46699524    4.90999985    2.59999990
   16.91638756  129.86000061    4.90999985    2.59999990
   16.91944313  131.52900696    4.90999985    2.59999990
   16.92000008  123.84600067    4.90999985    2.57999992
   16.92333221  135.25500488    4.90999985    2.51999998
   16.92638779  138.81100464    4.90999985    2.50000000
   16.92972183  140.71499634    4.90999985    2.50000000
   16.93305397  146.44200134    4.90999985    2.51999998
   16.93610954  140.31100464    4.90999985    2.50000000
   16.93944359  140.51899719    4.90999985    2.59999990
   16.94277763  125.69000244    4.90999985    2.50000000
   16.94583321  168.06700134    4.90999985    2.44000006
   16.94916534  131.39300537    4.90999985    2.39000010
   16.95222282  126.47799683    4.90999985    2.61999989
   16.95333481  129.08700562    4.90999985    2.64000010
   16.95611191  131.10800171    4.90999985    2.66000009
   16.95944595  123.44799805    4.90999985    2.67000008
   16.96250153  132.01300049    4.90999985    2.67000008
   16.96583366  131.84899902    4.90999985    2.66000009
   16.96888924  128.07200623    4.90999985    2.64000010
   16.97222328  133.65800476    4.90999985    2.61999989
   16.97555542  140.91099548    4.90999985    2.59999990
   16.97861099  137.64900208    4.90999985    2.57999992
   16.98194504  127.69400024    4.90999985    2.55999994
   16.98527718  140.72500610    4.90999985    2.53999996
   16.98666763  128.72999573    4.90999985    2.53999996
   16.98888969  143.03300476    4.90999985    2.55999994
   16.99222183  129.96499634    4.90999985    2.51999998
   16.99527740  132.47399902    4.90999985    2.55999994
   16.99861145  120.25399780    4.90999985    2.53999996
   17.00166702  145.14500427    4.90999985    2.53999996
   17.00499916  143.89500427    4.90999985    2.50000000
   17.00833321  135.18099976    4.90999985    2.46000004
   17.01138878  164.75799561    4.90999985    2.46000004
   17.01472282  129.71299744    4.90999985    2.46000004
   17.01805496  153.04299927    4.90999985    2.42000008
   17.02000046  175.36199951    4.90999985    2.39000010
   17.02166557  211.68699646    4.90999985    2.30999994
   17.02499962  166.09100342    4.90999985    2.23000002
   17.02805519  160.54800415    4.90999985    2.23000002
   17.03138924  198.78799438    4.90999985    2.21000004
   17.03444481  211.76800537    4.90999985    2.23000002
   17.03777695  194.97700500    4.90999985    2.15000010
   17.04111099  188.92399597    4.90999985    2.19000006
   17.04416656  201.19000244    4.90999985    2.25000000
   17.04749870  196.35400391    4.90999985    2.34999990
   17.05083275  202.75700378    4.90999985    2.34999990
   17.05333328  196.57899475    4.90999985    2.23000002
   17.05444336  213.82499695    4.90999985    2.21000004
   17.05777740  458.24301147    4.90999985    2.09999990
   21.37777710  194.97700500    4.90999985    2.15000010
   21.37777710  188.92399597    4.90999985    2.19000006
   21.37777710  201.19000244    4.90999985    2.25000000
   21.37805557  196.35400391    4.90999985    2.34999990
   21.37805557  202.75700378    4.90999985    2.34999990
   21.37805557  213.82499695    4.90999985    2.21000004
   21.37833405  458.24301147    4.90999985    2.09999990
   21.37833405  198.78799438    4.90999985    2.21000004
