    HOUR (UT)   FLARE FACTOR    SKY TESTER    SUN TESTER
   11.89277744   -1.00000000   -1.00000000   -1.00000000
   12.74222279  268.06900024    4.90999985    1.85000002
   12.74555588  228.16600037    4.90999985    1.85000002
   12.74861145  209.88400269    4.90999985    1.86000001
   12.75194454  202.96600342    4.90999985    1.88000000
   12.75500011  207.22399902    4.90999985    1.89999998
   12.75833321  208.07000732    4.90999985    1.89999998
   12.76249981  208.07000732    4.90999985    1.86000001
   12.76666641  236.45700073    4.90999985    1.85000002
   12.76972198  234.07400513    4.90999985    1.85000002
   12.77305508  224.86000061    4.90999985    1.86000001
   12.77555561  214.34599304    4.90999985    1.86000001
   12.77638817  212.18600464    4.90999985    1.86000001
   12.77972221  223.23399353    4.90999985    1.86000001
   12.78305531  213.30200195    4.90999985    1.86000001
   12.78611183  211.84599304    4.90999985    1.86000001
   12.78944492  209.92999268    4.90999985    1.86000001
   12.79250050  206.78199768    4.90999985    1.86000001
   12.79583359  213.09199524    4.90999985    1.86000001
   12.79888916  225.77699280    4.90999985    1.86000001
   12.80527782  225.77699280    4.90999985    1.85000002
   12.80944443  202.26600647    4.90999985    1.86000001
   12.81250000  216.99899292    4.90999985    1.88000000
   12.81583309  223.48599243    4.90999985    1.86000001
   12.81916618  215.36999512    4.90999985    1.86000001
   12.82222176  194.85000610    4.90999985    1.88000000
   12.82555580  204.22799683    4.90999985    1.88000000
   12.82861137  200.02099609    4.90999985    1.89999998
   12.83194447  197.77699280    4.90999985    1.91999996
   12.83500004  197.60400391    4.90999985    1.91999996
   12.83833313  196.97399902    4.90999985    1.94000006
   12.84166622  202.15499878    4.90999985    1.91999996
   12.84222221  209.92900085    4.90999985    1.91999996
   12.84805489  209.92900085    4.90999985    1.89999998
   12.85222244  204.58999634    4.90999985    1.89999998
   12.85555553  195.28100586    4.90999985    1.89999998
   12.85861111  204.36099243    4.90999985    1.89999998
   12.86194515  190.54400635    4.90999985    1.89999998
   12.86500072  193.75100708    4.90999985    1.89999998
   12.86833382  201.07400513    4.90999985    1.88000000
   12.87138939  212.59599304    4.90999985    1.86000001
   12.87472248  215.65100098    4.90999985    1.86000001
   12.87555599  212.53599548    4.90999985    1.86000001
   12.87861156  208.43600464    4.90999985    1.86000001
   12.88166714  212.56700134    4.90999985    1.85000002
   12.88500023  208.65299988    4.90999985    1.85000002
   12.89111137  208.65299988    4.90999985    1.89999998
   12.89499950  178.50999451    4.90999985    1.96000004
   12.89833355  179.86900330    4.90999985    1.98000002
   12.90166664  169.51600647    4.90999985    2.03999996
   12.90472221  161.38400269    4.90999985    2.05999994
   12.90805531  181.14100647    4.90999985    2.01999998
   12.90888882  187.32699585    4.90999985    2.01999998
   12.91166592  170.67599487    4.90999985    1.98000002
   12.91472149  184.69000244    4.90999985    1.94000006
   12.91805553  191.09700012    4.90999985    1.89999998
   12.92111111  200.99299622    4.90999985    1.89999998
   12.92444515  206.20799255    4.90999985    1.86000001
   12.92750072  224.40499878    4.90999985    1.85000002
   12.93388939  224.40499878    4.90999985    1.80999994
   12.93805599  224.81500244    4.90999985    1.78999996
   12.94111156  218.69299316    4.90999985    1.78999996
   12.94222260  234.96800232    4.90999985    1.80999994
   12.94499969  210.70899963    4.90999985    1.80999994
   12.94805527  197.28999329    4.90999985    1.88000000
   12.95138836  220.29699707    4.90999985    1.86000001
   12.95444393  282.98199463    4.90999985    1.80999994
   12.95777798  268.55200195    4.90999985    1.73000002
   12.96111107  245.31100464    4.90999985    1.71000004
   12.96416664  263.21701050    4.90999985    1.73000002
   12.96749973  243.54400635    4.90999985    1.75000000
   12.97055531  260.82800293    4.90999985    1.71000004
   12.97666645  260.82800293    4.90999985    1.71000004
   12.98083305  237.58099365    4.90999985    1.73000002
   12.98388958  236.72900391    4.90999985    1.76999998
   12.98722267  222.96400452    4.90999985    1.76999998
   12.99055576  253.77099609    4.90999985    1.75000000
   12.99361134  219.31599426    4.90999985    1.73000002
   12.99694443  213.03900146    4.90999985    1.75000000
   13.00000000  203.64700317    4.90999985    1.78999996
   13.00333309  199.63600159    4.90999985    1.78999996
   13.00638866  202.84500122    4.90999985    1.76999998
   13.00888920  199.12699890    4.90999985    1.76999998
   13.01027775  187.68699646    4.90999985    1.80999994
   13.01333332  197.53500366    4.90999985    1.85000002
   13.01944447  197.53500366    4.90999985    1.85000002
   13.02361107  172.90100098    4.90999985    1.91999996
   13.02694416  174.29899597    4.90999985    1.89999998
   13.02999973  172.50599670    4.90999985    1.86000001
   13.03333378  207.27699280    4.90999985    1.85000002
   13.03638935  209.13499451    4.90999985    1.80999994
   13.03972244  230.89399719    4.90999985    1.76999998
   13.04222298  231.28300476    4.90999985    1.73000002
   13.04333401  230.23399353    4.90999985    1.73000002
   13.04638958  244.11500549    4.90999985    1.71000004
   13.04972267  246.77499390    4.90999985    1.71000004
   13.05277824  248.38299561    4.90999985    1.69000006
   13.05611134  230.73399353    4.90999985    1.71000004
   13.06250000  230.73399353    4.90999985    1.75000000
   13.06638908  257.00799561    4.90999985    1.75000000
   13.06972218  280.13500977    4.90999985    1.69000006
   13.07305527  263.54998779    4.90999985    1.66999996
   13.07555580  275.14401245    4.90999985    1.66999996
   13.07666683  273.45599365    4.90999985    1.66999996
   13.07972240  302.50500488    4.90999985    1.64999998
   13.08305550  286.34100342    4.90999985    1.63000000
   13.08611107  274.22198486    4.90999985    1.63000000
   13.08944416  270.78399658    4.90999985    1.64999998
   13.09249973  286.27600098    4.90999985    1.66999996
   13.09583282  313.03900146    4.90999985    1.64999998
   13.09888840  297.73599243    4.90999985    1.63000000
   13.10527802  297.73599243    4.90999985    1.61000001
   13.10944462  261.30801392    4.90999985    1.64999998
   13.11250019  321.30398560    4.90999985    1.64999998
   13.11583328  297.27700806    4.90999985    1.60000002
   13.11888885  271.98098755    4.90999985    1.64999998
   13.12222195  250.36099243    4.90999985    1.71000004
   13.12527752  257.99700928    4.90999985    1.76999998
   13.12861156  232.62300110    4.90999985    1.78999996
   13.13194466  222.62100220    4.90999985    1.78999996
   13.13500023  256.46200562    4.90999985    1.80999994
   13.13833332  258.79598999    4.90999985    1.76999998
   13.14138889  224.57299805    4.90999985    1.76999998
   13.14222240  226.93600464    4.90999985    1.76999998
   13.14805508  226.93600464    4.90999985    1.88000000
   13.15222168  199.56599426    4.90999985    1.89999998
   13.15527725  228.18699646    4.90999985    1.85000002
   13.15861034  254.20799255    4.90999985    1.80999994
   13.16194439  245.41700745    4.90999985    1.80999994
   13.16499996  230.18600464    4.90999985    1.83000004
   13.16833401  206.99200439    4.90999985    1.83000004
   13.17138958  214.55900574    4.90999985    1.85000002
   13.17472267  240.34399414    4.90999985    1.83000004
   13.17555618  236.46800232    4.90999985    1.83000004
   13.17833328  295.75698853    4.90999985    1.76999998
   13.18138885  231.04499817    4.90999985    1.76999998
   13.18472195  218.76899719    4.90999985    1.83000004
   13.19083309  218.76899719    4.90999985    1.94000006
   13.19499969  194.14700317    4.90999985    2.01999998
   13.19833374  221.66000366    4.90999985    1.96000004
   13.20138836  258.26098633    4.90999985    1.83000004
   13.20472240  270.21301270    4.90999985    1.75000000
   13.20777798  268.91000366    4.90999985    1.71000004
   13.20888901  256.36199951    4.90999985    1.69000006
   13.21166611  295.51400757    4.90999985    1.69000006
   13.21472168  237.57899475    4.90999985    1.66999996
   13.21805477  247.08700562    4.90999985    1.73000002
   13.22111034  235.76699829    4.90999985    1.75000000
   13.22444439  215.36300659    4.90999985    1.78999996
   13.22749996  223.33399963    4.90999985    1.83000004
   13.23388958  223.33399963    4.90999985    1.66999996
   13.23777771  283.19100952    4.90999985    1.71000004
   13.24111176  226.30700684    4.90999985    1.66999996
   13.24222279  245.13800049    4.90999985    1.69000006
   13.24472237  341.54199219    4.90999985    1.69000006
   13.24777794  223.33599854    4.90999985    1.71000004
   13.25111103  345.79901123    4.90999985    1.64999998
   13.25416660  291.23300171    4.90999985    1.61000001
   13.25749969  323.15899658    4.90999985    1.69000006
   13.26055527  277.31201172    4.90999985    1.63000000
   13.26388931  262.09698486    4.90999985    1.63000000
   13.26694393  190.44200134    4.90999985    1.63000000
   13.27027798  123.31400299    4.90999985    1.44000006
   13.27666664  123.31400299    4.90999985    1.30999994
   13.28083324   94.27410126    4.90999985    1.26999998
   13.28388977   23.57019997    4.90999985    1.26999998
   13.28722286   -1.00000000    4.90999985    1.23000002
   13.29027843   51.27190018    4.90999985    1.14999998
   13.29361153   70.29280090    4.90999985    1.25000000
   13.29666710  104.21399689    4.90999985    1.28999996
   13.30000019   85.77020264    4.90999985    1.26999998
   13.30333328  112.41200256    4.90999985    1.25000000
   13.30638885   92.80310059    4.90999985    1.28999996
   13.30888939  107.17800140    4.90999985    1.26999998
   13.31000042   96.92949677    4.90999985    1.25000000
   13.31305599   93.21389771    4.90999985    1.26999998
   13.31944466   93.21389771    4.90999985    1.09000003
   13.32361126   -1.00000000    4.90999985    1.05999994
   13.32666683   -1.00000000    4.90999985    1.03999996
   13.32999992   -1.00000000    4.90999985    1.03999996
   13.33333302   -1.00000000    4.90999985    1.07000005
   13.33638859   -1.00000000    4.90999985    1.07000005
   13.33972168   -1.00000000    4.90999985    1.00000000
   13.34305477   -1.00000000    4.90999985    1.01999998
   13.34638882   -1.00000000    4.90999985    1.01999998
   13.34944439   -1.00000000    4.90999985    0.98000002
   13.35277843   -1.00000000    4.90999985    0.95999998
   13.35611153   -1.00000000    4.90999985    0.92000002
   13.36638927   -1.00000000    4.90999985    0.80000001
   13.36944485   -1.00000000    4.90999985    0.79000002
   13.37277794   -1.00000000    4.90999985    0.76999998
   13.37611103   -1.00000000    4.90999985    0.79000002
   13.37944412   -1.00000000    4.90999985    0.80000001
   13.38249969   -1.00000000    4.90999985    0.83999997
   13.38583279   -1.00000000    4.90999985    0.81999999
   13.38888836   -1.00000000    4.90999985    0.81999999
   13.39222240   -1.00000000    4.90999985    0.80000001
   13.39555550   -1.00000000    4.90999985    0.80000001
   13.39861107   -1.00000000    4.90999985    0.76999998
   13.40916634   -1.00000000    4.90999985    0.88000000
   13.41249943   -1.00000000    4.90999985    0.92000002
   13.41555500   23.57019997    4.90999985    1.07000005
   13.41888905   -1.00000000   -1.00000000   -1.00000000
   13.42194462   84.00800323    4.90999985    1.14999998
   13.42527771  133.50999451    4.90999985    1.23000002
   13.42833328  103.32199860    4.90999985    1.33000004
   13.43166733  159.18400574    4.90999985    1.30999994
   13.43500042  146.03700256    4.90999985    1.36000001
   13.43805599  315.23199463    4.90999985    1.41999996
   13.44138908  327.03399658    4.90999985    1.60000002
   13.44222260  331.86199951    4.90999985    1.63000000
   13.44805527  331.86199951    4.90999985    1.63000000
   13.45222187  295.11300659    4.90999985    1.64999998
   13.45527744  263.65701294    4.90999985    1.69000006
   13.45861053  293.82998657    4.90999985    1.60000002
   13.46166611  182.55799866    4.90999985    1.60000002
   13.46500015  163.44900513    4.90999985    1.53999996
   13.46833324  161.69900513    4.90999985    1.50000000
   13.47138882  143.41799927    4.90999985    1.51999998
   13.47472191  125.80500031    4.90999985    1.44000006
   13.47555542  108.64600372    4.90999985    1.41999996
   13.47833252  202.96600342    4.90999985    1.41999996
   13.48138809  156.55400085    4.90999985    1.48000002
   13.48472214  318.81799316    4.90999985    1.48000002
   13.49083328  318.81799316    4.90999985    1.55999994
   13.49499989  315.50601196    4.90999985    1.66999996
   13.49805546  286.82501221    4.90999985    1.64999998
   13.50138855  184.10899353    4.90999985    1.60000002
   13.50472260  163.69900513    4.90999985    1.55999994
   13.50777817  151.72099304    4.90999985    1.55999994
   13.50888920  141.85299683    4.90999985    1.51999998
   13.51138878  159.83200073    4.90999985    1.39999998
   13.51444435  293.55801392    4.90999985    1.48000002
   13.51777744  239.31799316    4.90999985    1.61000001
   13.52083302  319.94900513    4.90999985    1.55999994
   13.52416611  276.12298584    4.90999985    1.69000006
   13.52722168  302.79098511    4.90999985    1.73000002
   13.53361130  302.79098511    4.90999985    1.85000002
   13.53777790  215.80499268    4.90999985    1.85000002
   13.54111195  215.39399719    4.90999985    1.89999998
   13.54222298  240.69500732    4.90999985    1.91999996
   13.54444504  190.05299377    4.90999985    1.88000000
   13.54777813  210.67700195    4.90999985    1.94000006
   13.55111122  209.17100525    4.90999985    1.91999996
   13.55416679  208.02400208    4.90999985    1.94000006
   13.55749989  260.55200195    4.90999985    1.94000006
   13.56055546  182.95399475    4.90999985    1.91999996
   13.56388950  202.48100281    4.90999985    2.03999996
   13.56694412  183.83900452    4.90999985    1.96000004
   13.57027817  205.23800659    4.90999985    2.01999998
   13.57638836  205.23800659    4.90999985    1.94000006
   13.58055592  241.98599243    4.90999985    1.96000004
   13.58388901  183.40800476    4.90999985    1.86000001
   13.58694458  182.63699341    4.90999985    2.01999998
   13.59027767  212.71200562    4.90999985    2.03999996
   13.59333324  166.84500122    4.90999985    2.05999994
   13.59666634  180.89300537    4.90999985    2.13000011
   13.59972191  170.11799622    4.90999985    2.11999989
   13.60305595  167.57200623    4.90999985    2.13000011
   13.60611153  157.44700623    4.90999985    2.17000008
   13.60888958  159.05700684    4.90999985    2.19000006
   13.61000061  153.44200134    4.90999985    2.21000004
   13.61305618  155.49600220    4.90999985    2.25000000
   13.61944485  155.49600220    4.90999985    2.26999998
   13.62333393  151.60899353    4.90999985    2.28999996
   13.62666702  154.55799866    4.90999985    2.28999996
   13.63000011  152.55499268    4.90999985    2.28999996
   13.63305569  152.70500183    4.90999985    2.30999994
   13.63638878  151.68800354    4.90999985    2.28999996
   13.63972187  149.92700195    4.90999985    2.30999994
   13.64222240  146.76400757    4.90999985    2.26999998
   13.64333344  144.20599365    4.90999985    2.26999998
   13.64638901  157.37300110    4.90999985    2.32999992
   13.64972210  148.19000244    4.90999985    2.28999996
   13.65305519  151.09100342    4.90999985    2.32999992
   13.65611076  148.72799683    4.90999985    2.30999994
   13.66222191  148.72799683    4.90999985    2.32999992
   13.66638851  147.97700500    4.90999985    2.28999996
   13.66972256  148.80599976    4.90999985    2.36999989
   13.67277813  150.77900696    4.90999985    2.34999990
   13.67555618  141.89399719    4.90999985    2.32999992
   13.67638874  149.15299988    4.90999985    2.34999990
   13.67972279  150.46000671    4.90999985    2.36999989
   13.68277836  144.69700623    4.90999985    2.39000010
   13.68611145  147.59599304    4.90999985    2.39000010
   13.68916702  148.52400208    4.90999985    2.39000010
   13.69250011  141.86999512    4.90999985    2.39000010
   13.69555569  152.84300232    4.90999985    2.39000010
   13.69888878  148.09199524    4.90999985    2.39000010
   13.70499992  148.09199524    4.90999985    2.36999989
   13.70916653  153.70700073    4.90999985    2.36999989
   13.71249962  160.65100098    4.90999985    2.36999989
   13.71555519  161.75799561    4.90999985    2.34999990
   13.71888828  161.92700195    4.90999985    2.32999992
   13.72194386  163.24499512    4.90999985    2.32999992
   13.72527695  170.21400452    4.90999985    2.32999992
   13.72861099  166.41799927    4.90999985    2.30999994
   13.73166656  160.42799377    4.90999985    2.28999996
   13.73500061  170.36099243    4.90999985    2.28999996
   13.73805618  176.28700256    4.90999985    2.26999998
   13.74138927  161.03799438    4.90999985    2.28999996
   13.74222279  175.56500244    4.90999985    2.28999996
   13.76305580  175.56500244    4.90999985    2.28999996
   13.76722240  169.69000244    4.90999985    2.26999998
   13.77027798  162.62199402    4.90999985    2.26999998
   13.77361107  159.42500305    4.90999985    2.26999998
   13.77555561  161.08700562    4.90999985    2.26999998
   13.77722168  161.22500610    4.90999985    2.26999998
   13.78055573  169.10000610    4.90999985    2.26999998
   13.78361130  165.29100037    4.78000021    2.25000000
   13.78694534  177.17799377    4.26000023    2.25000000
   13.79000092  158.73899841    3.72000003    2.23000002
   13.79333401  160.01300049    3.16000009    2.21000004
   13.79638958  168.96400452    2.64000010    2.21000004
   13.79972267  168.92599487    2.05999994    2.21000004
   13.80583382  168.92599487    1.26999998    2.17000008
   13.81000042  168.88699341    0.92000002    2.21000004
   13.81305599  162.99200439    0.69000000    2.19000006
   13.81638908  166.55900574    0.50000000    2.19000006
   13.81944466  169.96400452    0.36000001    2.21000004
   13.82277775  159.23699951    0.23000000    2.17000008
   13.82583332  166.25599670    0.17000000    2.17000008
   13.82916641  165.70100403    0.11000000    2.17000008
   13.83249950  160.43400574    0.07000000    2.19000006
   13.83555508  169.23199463    0.07000000    2.19000006
   13.83888817  162.51899719    0.05000000    2.19000006
   13.84194374  162.38900757    0.05000000    2.15000010
   13.84249973  181.20700073    0.05000000    2.13000011
   13.84861088  181.20700073    0.03000000    2.13000011
   13.85277843  160.41799927    0.05000000    2.17000008
   13.85611153  165.70500183    0.03000000    2.21000004
   13.85916710  159.96499634    0.03000000    2.23000002
   13.86250019  166.94000244    0.03000000    2.21000004
   13.86555576  156.56799316    0.03000000    2.21000004
   13.86888885  189.47999573    0.03000000    2.21000004
   13.87194443  257.61999512    0.03000000    2.21000004
   13.87527752  178.59300232    0.03000000    2.21000004
   13.87583351  208.40699768    0.03000000    2.21000004
   13.87888908  199.24299622    0.03000000    2.23000002
   13.88194466  218.70199585    0.03000000    2.21000004
   13.88527775  185.18699646    0.03000000    2.19000006
   13.89138889  185.18699646    0.03000000    2.25000000
   13.89555550  184.44500732    0.03000000    2.23000002
   13.89888859  191.92599487    0.03000000    2.23000002
   13.90194416  171.48100281    0.03000000    2.25000000
   13.90527725  154.89500427    0.03000000    2.26999998
   13.90833282  190.90199280    0.03000000    2.26999998
   13.90916634  150.74600220    0.03000000    2.26999998
   13.91222191  147.74499512    0.03000000    2.26999998
   13.91527748  163.17500305    0.03000000    2.26999998
   13.91861153  203.65499878    0.03000000    2.26999998
   13.92166710  181.54299927    0.03000000    2.26999998
   13.92500019  155.37100220    0.03000000    2.28999996
   13.92833328  162.03300476    0.03000000    2.30999994
   13.93444443  162.03300476    0.03000000    2.28999996
   13.93833351  151.50799561    0.03000000    2.30999994
   13.94166660  182.71400452    0.03000000    2.28999996
   13.94250011  156.74099731    0.03000000    2.26999998
   13.94527817  147.87699890    0.03000000    2.28999996
   13.94833374  163.55400085    0.03000000    2.26999998
   13.95166683  151.68899536    0.03000000    2.28999996
   13.95472240  151.10600281    0.03000000    2.28999996
   13.95805550  143.46499634    0.03000000    2.28999996
   13.96111107  144.72000122    0.03000000    2.30999994
   13.96444416  146.79800415    0.03000000    2.30999994
   13.96777725  146.06500244    0.03000000    2.30999994
   13.97083282  142.34700012    0.03000000    2.30999994
   13.97722149  142.34700012    0.03000000    2.30999994
   13.98138809  150.85899353    0.03000000    2.30999994
   13.98444462  140.65199280    0.03000000    2.28999996
   13.98777771  151.34100342    0.03000000    2.28999996
   13.99083328  140.12399292    0.03000000    2.28999996
   13.99416733  140.90699768    0.03000000    2.28999996
   13.99722290  146.29600525    0.01000000    2.28999996
   14.00055599  148.55700684    0.03000000    2.28999996
   14.00388908  145.52900696    0.03000000    2.28999996
   14.00694466  143.63200378    0.03000000    2.28999996
   14.00916672  142.93200684    0.03000000    2.28999996
   14.01055527  141.58799744    0.03000000    2.28999996
   14.01361084  149.47399902    0.03000000    2.28999996
   14.01999950  149.47399902    0.03000000    2.28999996
   14.02416611  144.37300110    0.03000000    2.28999996
   14.02722168  133.38600159    0.03000000    2.28999996
   14.03055573  139.86099243    0.01000000    2.28999996
   14.03388977  139.69400024    0.03000000    2.26999998
   14.03694534  142.00999451    0.01000000    2.26999998
   14.04027843  138.19599915    0.01000000    2.25000000
   14.04250050  133.91900635    0.01000000    2.25000000
   14.04388905  141.00900269    0.01000000    2.25000000
   14.04694462  135.49600220    0.01000000    2.23000002
   14.05027771  138.45399475    0.01000000    2.13000011
   14.05333328  141.00399780    0.03000000    2.01999998
   14.05666733  142.55400085    0.01000000    1.80999994
   14.06277752  142.55400085    0.03000000    1.30999994
   14.06694412  141.87600708    0.01000000    0.95999998
   14.07027817  141.71800232    0.01000000    0.69000000
   14.07333374  139.82200623    0.01000000    0.44000000
   14.07583332  138.43400574    0.01000000    0.30000001
   14.07694435  135.97700500    0.03000000    0.25000000
   14.07999992  139.11799622    0.01000000    0.11000000
   14.08333302  143.79200745    0.01000000    0.05000000
   14.08666611  139.12100220    0.01000000    0.03000000
   14.08972168  136.46000671    0.01000000    0.01000000
   14.09305477  137.84300232    0.03000000    0.01000000
   14.09611034  139.74699402    0.01000000    0.01000000
   14.09944439  140.30999756    0.01000000    0.01000000
   14.10555553  140.30999756    0.01000000    0.01000000
   14.10972214  150.03999329    0.01000000    0.01000000
   14.11305618  150.09899902    0.01000000    0.01000000
   14.11611176  154.22700500    0.01000000    0.01000000
   14.11944485  152.68600464    0.01000000    0.01000000
   14.12250042  147.43200684    0.01000000    0.01000000
   14.12583351  146.78100586    0.01000000    0.01000000
   14.12916660  146.48899841    0.01000000    0.01000000
   14.13222218  147.55099487    0.01000000    0.01000000
   14.13555527  146.48500061    0.01000000    0.01000000
   14.13861084  147.86900330    0.01000000    0.01000000
   14.14194393  141.62399292    0.01000000    0.01000000
   14.14249992  146.97900391    0.01000000    0.01000000
   14.14861107  146.97900391    0.01000000    0.01000000
   14.15249920  147.14500427    0.01000000    0.01000000
   14.15583324  148.02999878    0.01000000    0.01000000
   14.15916634  148.47399902    0.01000000    0.01000000
   14.16222191  142.71800232    0.01000000    0.01000000
   14.16555500  144.71400452    0.01000000    0.01000000
   14.16861153  161.50000000    0.01000000    0.01000000
   14.17194462  147.26100159    0.01000000    0.01000000
   14.17500019  142.43099976    0.01000000    0.01000000
   14.17583370  145.15299988    0.01000000    0.01000000
   14.17888927  143.38299561    0.01000000    0.01000000
   14.18194485  152.71200562    0.01000000    0.01000000
   14.18527794  149.43099976    0.01000000    0.01000000
   14.19138908  149.43099976    0.01000000    0.01000000
   14.19555569  157.95199585    0.01000000    0.01000000
   14.19861126  162.66299438    0.01000000    0.01000000
   14.20194435  170.23100281    0.01000000    0.01000000
   14.20499992  252.33399963    0.01000000    0.01000000
   14.20833302  264.09100342    0.01000000    0.01000000
   14.20916653  262.46398926    0.01000000    0.01000000
   14.21194458  274.07299805    0.01000000    0.01000000
   14.21500015  251.62800598    0.01000000    0.01000000
   14.21833324  224.02299500    0.01000000    0.01000000
   14.22138882  236.93699646    0.01000000    0.01000000
   14.22472191  251.20500183    0.01000000    0.01000000
   14.22777748  240.21299744    0.01000000    0.01000000
   14.23416710  240.21299744    0.01000000    0.01000000
   14.23833370  225.21299744    0.01000000    0.01000000
   14.24166679  234.47300720    0.01000000    0.01000000
   14.24250031  197.85899353    0.01000000    0.01000000
   14.24527836  232.00100708    0.01000000    0.01000000
   14.24833393  211.24499512    0.01000000    0.01000000
   14.25166702  186.26699829    0.01000000    0.01000000
   14.25500011  207.19599915    0.01000000    0.01000000
   14.25805569  208.03300476    0.01000000    0.01000000
   14.26138878  204.97799683    0.01000000    0.01000000
   14.26444435  209.10400391    0.01000000    0.01000000
   14.26777744  229.67500305    0.01000000    0.01000000
   14.27083302  223.12699890    0.01000000    0.01000000
   14.27694416  223.12699890    0.01000000    0.01000000
   14.28111076  229.81100464    0.01000000    0.01000000
   14.28444481  248.01400757    0.01000000    0.01000000
   14.28750038  234.77600098    0.01000000    0.01000000
   14.29083347  240.77400208    0.01000000    0.01000000
   14.29388905  210.80200195    0.01000000    0.01000000
   14.29722309  232.69700623    0.01000000    0.01000000
   14.30055618  228.93800354    0.01000000    0.01000000
   14.30361176  231.48899841    0.01000000    0.01000000
   14.30694485  236.67900085    0.01000000    0.01000000
   14.30916691  245.10699463    0.01000000    0.01000000
   14.31055546  241.76600647    0.01000000    0.01000000
   14.31361103  233.04899597    0.01000000    0.01000000
   14.31999969  233.04899597    0.01000000    0.01000000
   14.32388878  236.16900635    0.01000000    0.01000000
   14.32722187  233.53599548    0.01000000    0.01000000
   14.33055592  245.08399963    0.01000000    0.01000000
   14.33361053  206.49499512    0.01000000    0.01000000
   14.33694458  227.35000610    0.01000000    0.01000000
   14.34000015  204.47799683    0.01000000    0.01000000
   14.34249973  203.94000244    0.01000000    0.01000000
   14.34388828  213.55799866    0.01000000    0.01000000
   14.34694386  189.93800354    0.01000000    0.01000000
   14.35027790  247.66200256    0.01000000    0.01000000
   14.35333347  210.06300354    0.01000000    0.01000000
   14.35666752  195.08200073    0.01000000    0.01000000
   14.36277771  195.08200073    0.01000000    0.01000000
   14.36694431  214.49600220    0.01000000    0.01000000
   14.36999989  201.54800415    0.01000000    0.01000000
   14.37333393  201.98699951    0.01000000    0.01000000
   14.37583351  219.89300537    0.01000000    0.01000000
   14.37694454  215.53399658    0.01000000    0.01000000
   14.38000011  203.86300659    0.01000000    0.01000000
   14.38333321  219.82699585    0.01000000    0.01000000
   14.38638878  175.88699341    0.01000000    0.01000000
   14.38972187  213.92799377    0.01000000    0.01000000
   14.39305496  222.72599792    0.01000000    0.01000000
   14.39611053  220.32299805    0.01000000    0.01000000
   14.39944458  223.03399658    0.01000000    0.01000000
   14.40555477  223.03399658    0.01000000    0.01000000
   14.40972137  259.68798828    0.01000000    0.01000000
   14.41305542  248.36500549    0.01000000    0.01000000
   14.41611099  220.94799805    0.01000000    0.01000000
   14.41944504  263.76501465    0.01000000    0.01000000
   14.42250061  302.11199951    0.01000000    0.01000000
   14.42583370  300.30499268    0.01000000    0.01000000
   14.42916679  296.31500244    0.01000000    0.01000000
   14.43222237  256.37500000    0.01000000    0.01000000
   14.43555546  252.33099365    0.01000000    0.01000000
   14.43861103  269.01000977    0.01000000    0.01000000
   14.44194412  304.59698486    0.01000000    0.01000000
   14.44250011  319.60800171    0.01000000    0.01000000
   14.44833374  319.60800171    0.01000000    0.01000000
   14.45249939  271.63500977    0.01000000    0.01000000
   14.45583344  256.93399048    0.01000000    0.01000000
   14.45888901  270.16101074    0.01000000    0.01000000
   14.46222210  278.22198486    0.01000000    0.01000000
   14.46527767  263.21701050    0.01000000    0.01000000
   14.46861076  245.63999939    0.01000000    0.01000000
   14.47194386  255.36999512    0.01000000    0.01000000
   14.47499943  240.55700684    0.01000000    0.01000000
   14.47583294  287.64498901    0.01000000    0.01000000
   14.47861099  266.82901001    0.01000000    0.01000000
   14.48166656  262.38400269    0.01000000    0.01000000
   14.48500061  279.91000366    0.01000000    0.01000000
   14.49138927  279.91000366    0.01000000    0.01000000
   14.49527836  283.14099121    0.01000000    0.01000000
   14.49861145  296.20599365    0.01000000    0.01000000
   14.50194454  307.18899536    0.01000000    0.01000000
   14.50500011  348.51300049    0.01000000    0.01000000
   14.50833321  317.63000488    0.01000000    0.01000000
   14.50916672  321.12500000    0.01000000    0.01000000
   14.51194477  333.59698486    0.01000000    0.01000000
   14.51500034  310.48901367    0.01000000    0.01000000
   14.51833344  291.87799072    0.01000000    0.01000000
   14.52166653  342.62298584    0.01000000    0.01000000
   14.52472210  331.62600708    0.01000000    0.01000000
   14.52805519  363.38900757    0.01000000    0.01000000
   14.53416729  363.38900757    0.01000000    0.01000000
   14.53833389  366.29199219    0.01000000    0.01000000
   14.54138947  362.39898682    0.01000000    0.01000000
   14.54250050  352.00601196    0.01000000    0.01000000
   14.54500008  365.24899292    0.01000000    0.01000000
   14.54805565  366.18600464    0.01000000    0.01000000
   14.55138874  363.54901123    0.01000000    0.01000000
   14.55472279  382.84100342    0.01000000    0.01000000
   14.55777836  431.85598755    0.01000000    0.01000000
   14.55972195  431.60400391    4.90999985    2.05999994
   14.56111145  414.34899902    4.90999985    2.05999994
   14.56250000  396.69400024    4.90999985    2.07999992
   14.56388950  410.22698975    4.90999985    2.07999992
   14.56527805  367.49398804    4.90999985    2.09999990
   14.56666660  431.83898926    4.90999985    2.09999990
   14.56805515  411.07901001    4.90999985    2.07999992
   14.56944466  432.56799316    4.90999985    2.09999990
   14.57083321  446.91000366    4.90999985    2.09999990
   14.57222176  356.67001343    4.90999985    2.09999990
   14.57361126  395.19299316    4.90999985    2.09999990
   14.57499981  392.43499756    4.90999985    2.07999992
   14.57638836  395.50601196    4.90999985    2.07999992
   14.57777786  390.76800537    4.90999985    2.07999992
   14.57916641  393.42498779    4.90999985    2.07999992
   14.58055592  384.98199463    4.90999985    2.07999992
   14.58194447  371.89999390    4.90999985    2.09999990
   14.58333302  366.77899170    4.90999985    2.11999989
   14.58472157  379.76699829    4.90999985    2.11999989
   14.58611107  403.63598633    4.90999985    2.11999989
   14.58749962  355.82699585    4.90999985    2.11999989
   14.58888817  414.14599609    4.90999985    2.09999990
   14.59027767  360.98699951    4.90999985    2.07999992
   14.59166622  373.62600708    4.90999985    2.09999990
   14.59305477  399.97399902    4.90999985    2.13000011
   14.59444427  408.31201172    4.90999985    2.13000011
   14.59583282  389.10501099    4.90999985    2.11999989
   14.59722233  351.07400513    4.90999985    2.11999989
   14.59861088  328.03201294    4.90999985    2.09999990
   14.59861088  366.18600464    0.01000000    0.01000000
   14.59888840  363.54901123    0.01000000    0.01000000
   14.59888840  382.84100342    0.01000000    0.01000000
   14.59916592  431.85598755    0.01000000    0.01000000
   14.59916592  331.62600708    0.01000000    0.01000000
   14.59916592  363.38900757    0.01000000    0.01000000
   14.59944439  366.29199219    0.01000000    0.01000000
   14.59944439  362.39898682    0.01000000    0.01000000
   14.59944439  365.24899292    0.01000000    0.01000000
   14.60000038  334.84100342    4.90999985    2.11999989
   14.60333347  356.27200317    4.90999985    2.11999989
   14.60638905  369.60299683    4.90999985    2.13000011
   14.60972214  342.27301025    4.90999985    2.11999989
   14.61305618  362.87298584    4.90999985    2.11999989
   14.61944485  362.87298584    4.90999985    2.13000011
   14.62361145  387.73300171    4.90999985    2.09999990
   14.62666702  363.95199585    4.90999985    2.09999990
   14.63000011  369.29501343    4.90999985    2.07999992
   14.63249969  356.82901001    4.90999985    2.09999990
   14.63361073  337.68399048    4.90999985    2.07999992
   14.63666630  254.59599304    4.90999985    2.07999992
   14.64000034  307.34698486    4.90999985    2.09999990
   14.64305496  344.17098999    4.90999985    2.09999990
   14.64638901  327.69500732    4.90999985    2.13000011
   14.64944458  289.91101074    4.90999985    2.13000011
   14.65277767  286.82400513    4.90999985    2.13000011
   14.65611076  306.10400391    4.90999985    2.11999989
   14.66222191  306.10400391    4.90999985    2.13000011
   14.66638851  297.97698975    4.90999985    2.11999989
   14.66972256  348.02999878    4.90999985    2.11999989
   14.67277813  296.04400635    4.90999985    2.09999990
   14.67611122  317.85800171    4.90999985    2.07999992
   14.67916679  330.10699463    4.90999985    2.07999992
   14.68249989  329.30700684    4.90999985    2.07999992
   14.68555546  315.43200684    4.90999985    2.07999992
   14.68888855  299.52099609    4.90999985    2.07999992
   14.69222260  311.04800415    4.90999985    2.09999990
   14.69527817  310.14199829    4.90999985    2.07999992
   14.69861126  293.65899658    4.90999985    2.07999992
   14.69916630  297.34600830    4.90999985    2.07999992
   14.70527744  297.34600830    4.90999985    2.07999992
   14.70916653  331.39099121    4.90999985    2.07999992
   14.71249962  292.24798584    4.90999985    2.07999992
   14.71555519  313.35699463    4.90999985    2.09999990
   14.71888828  311.67098999    4.90999985    2.07999992
   14.72222137  260.04699707    4.90999985    2.09999990
   14.72527695  289.98999023    4.90999985    2.09999990
   14.72861099  284.31799316    4.90999985    2.09999990
   14.73166656  302.08999634    4.90999985    2.11999989
   14.73249912  272.17700195    4.90999985    2.11999989
   14.73527813  280.70098877    4.90999985    2.11999989
   14.73833370  261.82400513    4.90999985    2.11999989
   14.74166679  246.17900085    4.90999985    2.11999989
   14.74805546  246.17900085    4.90999985    2.17000008
   14.75222206  224.25700378    4.90999985    2.17000008
   14.75527763  235.63099670    4.90999985    2.17000008
   14.75861073  229.07899475    4.90999985    2.19000006
   14.77638817  208.27999878    4.90999985    2.17000008
   14.77833271  195.68099976    4.90999985    2.19000006
   14.78166676  205.94299316    4.90999985    2.19000006
   14.78472233  206.02799988    4.90999985    2.17000008
   14.79111195  206.02799988    4.90999985    2.19000006
   14.79527855  195.39900208    4.90999985    2.17000008
   14.79833412  195.24699402    4.90999985    2.17000008
   14.80166721  184.19700623    4.90999985    2.19000006
   14.80472279  171.34300232    4.90999985    2.21000004
   14.80805588  192.10499573    4.90999985    2.21000004
   14.80972195  190.43699646    4.90999985    2.21000004
   14.81166649  188.46899414    4.90999985    2.21000004
   14.81472206  186.13699341    4.90999985    2.21000004
   14.81805515  184.95899963    4.90999985    2.21000004
   14.82111073  197.85899353    4.90999985    2.21000004
   14.82444477  175.99099731    4.90999985    2.21000004
   14.82777786  176.62899780    4.90999985    2.23000002
   14.83388901  176.62899780    4.90999985    2.23000002
   14.83805561  178.05599976    4.90999985    2.23000002
   14.84138870  185.91999817    4.90999985    2.23000002
   14.84305477  178.34100342    4.90999985    2.23000002
   14.84499931  173.33299255    4.90999985    2.23000002
   14.84805489  154.65100098    4.90999985    2.25000000
   14.85138893  177.66000366    4.90999985    2.25000000
   14.85472298  170.78700256    4.90999985    2.25000000
   14.85777855  183.97500610    4.90999985    2.25000000
   14.86111164  168.48500061    4.90999985    2.25000000
   14.86416721  171.95399475    4.90999985    2.25000000
   14.86750031  156.73800659    4.90999985    2.23000002
   14.87055588  170.26699829    4.90999985    2.23000002
   14.87666702  170.26699829    4.90999985    2.21000004
   14.88083363  180.60499573    4.90999985    2.23000002
   14.88416672  156.70300293    4.90999985    2.23000002
   14.88722229  150.59300232    4.90999985    2.21000004
   14.89055538  164.54800415    4.90999985    2.23000002
   14.89361095  158.69500732    4.90999985    2.23000002
   14.89694405  132.98899841    4.90999985    2.21000004
   14.90027714  133.53599548    4.90999985    2.23000002
   14.90333271  156.72999573    4.90999985    2.25000000
   14.90666676  153.05200195    4.90999985    2.25000000
   14.90972137  156.23500061    4.90999985    2.25000000
   14.91027737  153.45899963    4.90999985    2.25000000
   14.91333294  142.40299988    4.90999985    2.25000000
   14.91972256  142.40299988    4.90999985    2.25000000
   14.92361164  174.61099243    4.90999985    2.23000002
   14.92694473  165.82000732    4.90999985    2.25000000
   14.93027782  163.60800171    4.90999985    2.25000000
   14.93333340  160.40600586    4.90999985    2.25000000
   14.93666649  154.54200745    4.90999985    2.23000002
   14.93972206  149.64300537    4.90999985    2.21000004
   14.94305515  156.16000366    4.90999985    2.23000002
   14.94361115  175.31900024    4.90999985    2.23000002
   14.94694424  155.77900696    4.90999985    2.21000004
   14.94999981  171.11999512    4.90999985    2.23000002
   14.95333290  160.80299377    4.90999985    2.25000000
   14.95638847  151.52499390    4.90999985    2.26999998
   14.96249962  151.52499390    4.90999985    2.26999998
   14.96666622  159.77200317    4.90999985    2.26999998
   14.96972179  170.70500183    4.90999985    2.26999998
   14.97305489  139.13000488    4.90999985    2.26999998
   14.97638798  155.72300720    4.90999985    2.26999998
   14.97694397  150.30700684    4.90999985    2.26999998
   14.97972202  168.75999451    4.90999985    2.26999998
   14.98305511  161.87500000    4.90999985    2.26999998
   14.98638916  163.52999878    4.90999985    2.25000000
   14.98944473  161.95799255    4.90999985    2.25000000
   14.99277782  163.00100708    4.90999985    2.26999998
   14.99583340  170.09599304    4.90999985    2.23000002
   14.99916649  170.87500000    4.90999985    2.23000002
   15.00527763  170.87500000    4.90999985    2.23000002
   15.00944424  168.13699341    4.90999985    2.23000002
   15.01027775  149.32499695    4.90999985    2.21000004
   15.01333332  169.22999573    4.90999985    2.23000002
   15.01638889  159.98899841    4.90999985    2.23000002
   15.01972198  180.11500549    4.90999985    2.23000002
   15.02277756  173.74299622    4.90999985    2.21000004
   15.02611065  168.40800476    4.90999985    2.21000004
   15.02916622  149.41999817    4.90999985    2.17000008
   15.03249931  160.26800537    4.90999985    2.21000004
   15.03555584  166.59800720    4.90999985    2.21000004
   15.03888893  170.28399658    4.90999985    2.23000002
   15.04222298  196.72300720    4.90999985    2.17000008
   15.04361153  186.23899841    4.90999985    2.13000011
   15.04833412  186.23899841    4.90999985    2.15000010
   15.05249977  195.25500488    4.90999985    2.09999990
   15.05555534  160.60000610    4.90999985    2.09999990
   15.05888939  159.16600037    4.90999985    2.21000004
   15.06194496  166.00100708    4.90999985    2.26999998
   15.06527805  170.01899719    4.90999985    2.25000000
   15.06833363  165.22999573    4.90999985    2.19000006
   15.07166672  160.33700562    4.90999985    2.21000004
   15.07499981  156.96099854    4.90999985    2.19000006
   15.07694435  160.09899902    4.90999985    2.19000006
   15.07861137  159.12899780    4.90999985    2.17000008
   15.08166695  156.86799622    4.90999985    2.19000006
   15.08500004  155.59399414    4.90999985    2.25000000
   15.09111118  155.59399414    4.90999985    2.19000006
   15.09527779  172.11700439    4.90999985    2.19000006
   15.09861088  161.21099854    4.90999985    2.17000008
   15.10166740  166.25399780    4.90999985    2.23000002
   15.10500050  169.52699280    4.90999985    2.15000010
   15.10805607  162.84100342    4.90999985    2.17000008
   15.11027813  161.28300476    4.90999985    2.17000008
   15.11166668  159.29699707    4.90999985    2.17000008
   15.11500072  159.70100403    4.90999985    2.23000002
   15.11805534  174.85899353    4.90999985    2.23000002
   15.12138939  173.71400452    4.90999985    2.19000006
   15.12444496  162.50799561    4.90999985    2.17000008
   15.12750053  166.26800537    4.90999985    2.21000004
   15.13388920  166.26800537    4.90999985    2.26999998
   15.13805580  155.01699829    4.90999985    2.30999994
   15.14111137  158.84500122    4.90999985    2.30999994
   15.14361095  146.50300598    4.90999985    2.28999996
   15.14472198  149.46400452    4.90999985    2.28999996
   15.14805508  147.55900574    4.90999985    2.32999992
   15.15138817  154.51100159    4.90999985    2.32999992
   15.15444374  148.68400574    4.90999985    2.30999994
   15.15777779  150.01100159    4.90999985    2.32999992
   15.16083336  146.59500122    4.90999985    2.32999992
   15.16416645  152.84700012    4.90999985    2.30999994
   15.16722298  146.71200562    4.90999985    2.30999994
   15.17055607  144.15600586    4.90999985    2.30999994
   15.17666721  144.15600586    4.90999985    2.30999994
   15.18083382  147.81599426    4.90999985    2.30999994
   15.18416691  148.63400269    4.90999985    2.30999994
   15.18722248  144.96200562    4.90999985    2.30999994
   15.19055557  147.72900391    4.90999985    2.28999996
   15.19361115  145.29499817    4.90999985    2.30999994
   15.19694424  155.28999329    4.90999985    2.30999994
   15.19999981  150.83299255    4.90999985    2.28999996
   15.20333290  150.46099854    4.90999985    2.28999996
   15.20638847  153.71400452    4.90999985    2.28999996
   15.20972157  145.72200012    4.90999985    2.28999996
   15.21166611  154.73399353    4.90999985    2.26999998
   15.21333313  155.47200012    4.90999985    2.26999998
   15.21944427  155.47200012    4.90999985    2.28999996
   15.22361088  158.60600281    4.90999985    2.28999996
   15.22694397  155.22999573    4.90999985    2.26999998
   15.22999954  156.39199829    4.90999985    2.25000000
   15.23333359  151.74600220    4.90999985    2.26999998
   15.23638916  152.50500488    4.90999985    2.26999998
   15.23972225  155.80200195    4.90999985    2.26999998
   15.24305534  158.93800354    4.90999985    2.25000000
   15.24499989  154.91799927    4.90999985    2.26999998
   15.24666691  153.90499878    4.90999985    2.25000000
   15.25000000  154.43499756    4.90999985    2.25000000
   15.25305557  163.30499268    4.90999985    2.26999998
   15.25638866  153.58399963    4.90999985    2.23000002
   15.26249981  153.58399963    4.90999985    2.26999998
   15.26666641  158.39500427    4.90999985    2.25000000
   15.26972198  157.99099731    4.90999985    2.26999998
   15.27305508  155.61199951    4.90999985    2.26999998
   15.27611065  154.56599426    4.90999985    2.28999996
   15.27861118  153.22099304    4.90999985    2.30999994
   15.27972221  158.07200623    4.90999985    2.30999994
   15.28305531  156.03900146    4.90999985    2.26999998
   15.28611183  155.86799622    4.90999985    2.26999998
   15.28944492  152.01699829    4.90999985    2.26999998
   15.29250050  153.59599304    4.90999985    2.26999998
   15.29583359  149.08799744    4.90999985    2.25000000
   15.39333344   -1.00000000   -1.00000000   -1.00000000
   15.57333374   -1.00000000   -1.00000000   -1.00000000
   15.76277733   -1.00000000   -1.00000000   -1.00000000
   15.84805489  114.95899963    4.90999985    1.89999998
   15.85111141  270.73498535    4.90999985    1.88000000
   15.85444450  295.04299927    4.90999985    1.98000002
   15.85750008  288.56900024    4.90999985    1.91999996
   15.86083412  280.32101440    4.90999985    1.98000002
   15.86388969  218.33999634    4.90999985    1.94000006
   15.86833382  218.33999634    4.90999985    2.03999996
   15.87222195  207.53599548    4.90999985    2.17000008
   15.87583351  220.45399475    4.90999985    2.09999990
   15.87916660  265.04598999    4.90999985    2.01999998
   15.88166714  259.45999146    4.90999985    1.98000002
   15.88249969  240.54800415    4.90999985    1.94000006
   15.88583279  238.62899780    4.90999985    2.01999998
   15.88888836  229.96699524    4.90999985    2.07999992
   15.89222240  236.10200500    4.90999985    2.05999994
   15.89555550  241.67599487    4.90999985    2.09999990
   15.89861107  262.42199707    4.90999985    2.05999994
   15.90194416  259.54299927    4.90999985    1.98000002
   15.90499973  234.81199646    4.90999985    2.00000000
   15.91138840  234.81199646    4.90999985    2.05999994
   15.91555500  257.70300293    4.90999985    2.03999996
   15.91861153  287.95800781    4.90999985    1.94000006
   15.92194462  287.59399414    4.90999985    1.86000001
   15.92500019  269.22299194    4.90999985    1.91999996
   15.92833328  267.40600586    4.90999985    1.94000006
   15.93166733  243.80700684    4.90999985    2.00000000
   15.93472195  237.32099915    4.90999985    2.00000000
   15.93805599  257.45800781    4.90999985    2.00000000
   15.94111156  263.47000122    4.90999985    2.01999998
   15.94444466  243.38099670    4.90999985    2.00000000
   15.94750023  251.67199707    4.90999985    2.01999998
   15.94833374  249.57600403    4.90999985    2.01999998
   15.95416641  249.57600403    4.90999985    2.01999998
   15.95833302  229.42300415    4.90999985    2.05999994
   15.96166611  228.70700073    4.90999985    2.03999996
   15.96472168  206.03199768    4.90999985    2.03999996
   15.96805477  194.69900513    4.90999985    2.13000011
   15.97111034  205.67999268    4.90999985    2.09999990
   15.97444439  175.27900696    4.90999985    2.05999994
   15.97749996  212.75100708    4.90999985    2.11999989
   15.98083305  179.57600403    4.90999985    2.13000011
   15.98166656  231.18699646    4.90999985    2.07999992
   15.98444462  174.66700745    4.90999985    2.11999989
   15.98777771  196.08900452    4.90999985    2.15000010
   15.99111176  193.41099548    4.90999985    2.03999996
   15.99722290  193.41099548    4.90999985    2.11999989
   16.00111198  173.53399658    4.90999985    2.15000010
   16.00444412  183.85699463    4.90999985    2.19000006
   16.00749969  180.16400146    4.90999985    2.17000008
   16.01083374  161.30799866    4.90999985    2.25000000
   16.01416588  166.57099915    4.90999985    2.30999994
   16.01499939  158.75799561    4.90999985    2.32999992
   16.01749992  155.70300293    4.90999985    2.40000010
   16.02083397  178.49099731    4.90999985    2.46000004
   16.02416611  182.72700500    4.90999985    2.30999994
   16.02722168  182.60800171    4.90999985    2.21000004
   16.03055573  168.27299500    4.90999985    2.21000004
   16.03361130  189.98599243    4.90999985    2.26999998
   16.03999901  189.98599243    4.90999985    2.19000006
   16.04416656  181.67100525    4.90999985    2.19000006
   16.04722214  195.69000244    4.90999985    2.25000000
   16.04833221  197.02799988    4.90999985    2.23000002
   16.05083275  196.91200256    4.90999985    2.11999989
   16.05416679  206.56399536    4.90999985    2.17000008
   16.05749893  169.78500366    4.90999985    2.19000006
   16.06055450  176.88600159    4.90999985    2.23000002
   16.06388855  175.73399353    4.90999985    2.17000008
   16.06694603  184.10899353    4.90999985    2.19000006
   16.07027817  174.11700439    4.90999985    2.25000000
   16.07333374  171.94799805    4.90999985    2.30999994
   16.07666779  183.17599487    4.90999985    2.26999998
   16.08277893  183.17599487    4.90999985    2.17000008
   16.08694458  185.70399475    4.90999985    2.23000002
   16.09000015  190.25799561    4.90999985    2.23000002
   16.09333420  185.60099792    4.90999985    2.19000006
   16.09638977  189.01400757    4.90999985    2.23000002
   16.09972191  193.67599487    4.90999985    2.19000006
   16.10305595  196.59800720    4.90999985    2.15000010
   16.10611153  201.60099792    4.90999985    2.19000006
   16.10944557  173.72500610    4.90999985    2.17000008
   16.11250114  184.30700684    4.90999985    2.21000004
   16.11499977  176.98699951    4.90999985    2.23000002
   16.11638832  169.01699829    4.90999985    2.23000002
   16.11944389  167.36099243    4.90999985    2.30999994
   16.12555504  167.36099243    4.90999985    2.32999992
   16.12972260  166.97999573    4.90999985    2.28999996
   16.13305473  179.51400757    4.90999985    2.25000000
   16.13611031  177.11700439    4.90999985    2.26999998
   16.13944435  187.98899841    4.90999985    2.21000004
   16.14249992  182.43400574    4.90999985    2.23000002
   16.14583397  171.02099609    4.90999985    2.25000000
   16.14833260  162.79499817    4.90999985    2.30999994
   16.14944458  167.82499695    4.90999985    2.30999994
   16.15250015  166.11500549    4.90999985    2.34999990
   16.15583229  169.44500732    4.90999985    2.32999992
   16.15888786  182.84800720    4.90999985    2.34999990
   16.16222191  165.53599548    4.90999985    2.32999992
   16.16860962  165.53599548    4.90999985    2.30999994
   16.17249870  163.58299255    4.90999985    2.30999994
   16.17583275  172.51300049    4.90999985    2.30999994
   16.17888832  158.83399963    4.90999985    2.32999992
   16.18166542  167.91299438    4.90999985    2.34999990
   16.18277740  169.63499451    4.90999985    2.36999989
   16.18583298  190.23300171    4.90999985    2.30999994
   16.18916512  162.48199463    4.90999985    2.28999996
   16.19222069  170.11999512    4.90999985    2.32999992
   16.19555473  169.08299255    4.90999985    2.34999990
   16.19861031  173.50999451    4.90999985    2.30999994
   16.20194435  166.24200439    4.90999985    2.30999994
   16.20499992  157.16700745    4.90999985    2.28999996
   16.21138954  157.16700745    4.90999985    2.30999994
   16.21555710  168.64100647    4.90999985    2.30999994
   16.21861076  161.33000183    4.90999985    2.28999996
   16.22194481  155.44400024    4.90999985    2.30999994
   16.22500038  150.03100586    4.90999985    2.36999989
   16.22833443  152.34199524    4.90999985    2.36999989
   16.23139000  150.02900696    4.90999985    2.36999989
   16.23472214  161.94000244    4.90999985    2.36999989
   16.23805618  146.41000366    4.90999985    2.39000010
   16.24111176  153.42500305    4.90999985    2.39000010
   16.24444389  154.42799377    4.90999985    2.40000010
   16.24749947  149.68699646    4.90999985    2.42000008
   16.24833298  153.92900085    4.90999985    2.42000008
   16.25416756  153.92900085    4.90999985    2.40000010
   16.25833321  152.36399841    4.90999985    2.40000010
   16.26138878  147.73800659    4.90999985    2.36999989
   16.26472282  143.34800720    4.90999985    2.40000010
   16.26805496  153.21400452    4.90999985    2.36999989
   16.27111053  151.69000244    4.90999985    2.36999989
   16.27444458  148.05499268    4.90999985    2.44000006
   16.27750015  148.95100403    4.90999985    2.44000006
   16.28083229  149.08099365    4.90999985    2.42000008
   16.28166580  153.41499329    4.90999985    2.42000008
   16.28444481  152.55700684    4.90999985    2.40000010
   16.28750038  159.82899475    4.90999985    2.36999989
   16.29083252  141.78399658    4.90999985    2.39000010
   16.29694366  141.78399658    4.90999985    2.42000008
   16.30111122  141.11500549    4.90999985    2.48000002
   16.30444336  154.02699280    4.90999985    2.50000000
   16.30749893  145.11300659    4.90999985    2.46000004
   16.31083298  153.69500732    4.90999985    2.46000004
   16.31388855  149.17100525    4.90999985    2.46000004
   16.31499863  142.78199768    4.90999985    2.46000004
   16.31777954  143.62699890    4.90999985    2.46000004
   16.32083511  152.04499817    4.90999985    2.44000006
   16.32416725  151.28999329    4.90999985    2.46000004
   16.32722282  146.32200623    4.90999985    2.46000004
   16.33055687  138.66900635    4.90999985    2.44000006
   16.33361244  143.87300110    4.90999985    2.50000000
   16.34000015  143.87300110    4.90999985    2.44000006
   16.34416771  145.04699707    4.90999985    2.48000002
   16.34722328  139.42700195    4.90999985    2.48000002
   16.34833336  141.46800232    4.90999985    2.50000000
   16.35083389  144.92399597    4.90999985    2.50000000
   16.35388947  141.17599487    4.90999985    2.51999998
   16.35722351  141.36000061    4.90999985    2.51999998
   16.36055565  145.81399536    4.90999985    2.53999996
   16.36361122  143.11599731    4.90999985    2.53999996
   16.36694527  146.36099243    4.90999985    2.53999996
   16.37000084  142.29400635    4.90999985    2.50000000
   16.37333298  143.52499390    4.90999985    2.51999998
   16.37638855  145.36999512    4.90999985    2.53999996
   16.38277817  145.36999512    4.90999985    2.53999996
   16.38694382  138.49600220    4.90999985    2.53999996
   16.38999939  137.31599426    4.90999985    2.55999994
   16.39333344  142.65800476    4.90999985    2.55999994
   16.39638901  139.03799438    4.90999985    2.55999994
   16.39972115  140.98899841    4.90999985    2.55999994
   16.40305519  132.52000427    4.90999985    2.57999992
   16.40611076  138.52099609    4.90999985    2.57999992
   16.40944481  134.27099609    4.90999985    2.57999992
   16.41250038  134.91799927    4.84999990    2.57999992
   16.41499901  134.16600037    4.80999994    2.57999992
   16.41638756  135.01600647    4.80000019    2.57999992
   16.41944313  134.76499939    4.71999979    2.57999992
   16.42555428  134.76499939    4.67999983    2.57999992
   16.42972183  136.10800171    4.84999990    2.57999992
   16.43305397  134.34599304    4.90999985    2.57999992
   16.43610954  139.52600098    4.90999985    2.57999992
   16.43944359  138.37699890    4.90999985    2.57999992
   16.44249916  140.87899780    4.90999985    2.57999992
   16.44583321  128.08599854    4.90999985    2.55999994
   16.44833183  138.35299683    4.90999985    2.55999994
   16.44944382  131.74000549    4.90999985    2.57999992
   16.45250130  140.77699280    4.90999985    2.57999992
   16.45583344  139.16999817    4.90999985    2.57999992
   16.45888901  137.76100159    4.90999985    2.55999994
   16.46222305  146.27799988    4.90999985    2.57999992
   16.46833420  146.27799988    4.90999985    2.55999994
   16.47249985  147.61599731    4.90999985    2.55999994
   16.47583389  138.85899353    4.90999985    2.55999994
   16.47888947  144.36999512    4.90999985    2.55999994
   16.48166656  144.83900452    4.90999985    2.55999994
   16.48277855  151.52499390    4.90999985    2.55999994
   16.48583412  143.45599365    4.90999985    2.55999994
   16.48916626  135.91000366    4.90999985    2.57999992
   16.49222183  138.89900208    4.90999985    2.57999992
   16.49555588  138.41900635    4.90999985    2.57999992
   16.49888992  148.18200684    4.90999985    2.57999992
   16.50194359  139.30599976    4.90999985    2.57999992
   16.50527763  136.83500671    4.90999985    2.57999992
   16.51138878  136.83500671    4.90999985    2.57999992
   16.51555634  145.06199646    4.90999985    2.57999992
   16.51861000  141.22999573    4.82999992    2.57999992
   16.52194405  138.64199829    4.80000019    2.57999992
   16.52499962  136.39999390    4.69999981    2.57999992
   16.52833366  134.95500183    4.61999989    2.57999992
   16.53138924  136.96899414    4.65999985    2.57999992
   16.53472137  136.63000488    4.80999994    2.57999992
   16.53777695  135.38299561    4.90999985    2.57999992
   16.54111099  137.40299988    4.90999985    2.57999992
   16.54444313  143.56700134    4.90999985    2.57999992
   16.54749870  141.83999634    4.90999985    2.57999992
   16.54833221  136.54400635    4.90999985    2.57999992
   16.55416679  136.54400635    4.90999985    2.55999994
   16.55833244  139.41200256    4.90999985    2.55999994
   16.56138802  142.70500183    4.90999985    2.57999992
   16.56472206  142.03199768    4.90999985    2.55999994
   16.56777954  144.94099426    4.90999985    2.55999994
   16.57111168  137.60099792    4.90999985    2.55999994
   16.57444572  135.38299561    4.90999985    2.55999994
   16.57750130  138.03199768    4.90999985    2.55999994
   16.58083344  142.05400085    4.90999985    2.59999990
   16.58166695  131.61000061    4.90999985    2.57999992
   16.58444595  138.27699280    4.46999979    2.57999992
   16.58805656  136.63099670    3.89000010    2.57999992
   16.59111214  137.99499512    3.59999990    2.57999992
   16.59694481  137.99499512    3.30999994    2.57999992
   16.60111237  142.77699280    3.14000010    2.59999990
   16.60444450  137.26100159    3.03999996    2.57999992
   16.60750008  134.01400757    2.94000006    2.59999990
   16.61083412  134.68899536    2.93000007    2.59999990
   16.61388969  135.18600464    3.01999998    2.59999990
   16.61499977  132.43699646    3.01999998    2.57999992
   16.61750031  131.27799988    2.98000002    2.59999990
   16.62055588  128.37500000    2.93000007    2.57999992
   16.62388992  139.23899841    2.91000009    2.57999992
   16.62694550  136.74899292    2.93000007    2.59999990
   16.63027763  136.79800415    2.94000006    2.59999990
   16.63361168  134.67700195    2.86999989    2.59999990
   16.63972282  134.67700195    2.73000002    2.59999990
   16.64388847  137.03999329    2.64000010    2.59999990
   16.64722252  139.51400757    2.59999990    2.59999990
   16.64833260  138.81100464    2.59999990    2.59999990
   16.65083313  135.00000000    2.61999989    2.59999990
   16.65388870  132.81399536    2.73000002    2.59999990
   16.65722275  135.95399475    2.76999998    2.59999990
   16.66055489  136.85099792    2.89000010    2.59999990
   16.66361046  129.19000244    3.03999996    2.59999990
   16.66694450  137.33799744    3.20000005    2.59999990
   16.67000008  130.77299500    3.25000000    2.57999992
   16.67333221  131.22099304    3.26999998    2.57999992
   16.67638779  125.96499634    3.30999994    2.59999990
   16.68277740  125.96499634    3.61999989    2.59999990
   16.68666649  128.52099609    4.00000000    2.59999990
   16.68999863  140.56700134    4.13999987    2.59999990
   16.69333267  137.04299927    4.21999979    2.59999990
   16.69638824  132.57600403    4.17999983    2.57999992
   16.69972038  133.21299744    4.11999989    2.59999990
   16.70277786  130.85600281    4.05999994    2.55999994
   16.70611191  136.55999756    4.00000000    2.57999992
   16.70944595  128.10099792    3.97000003    2.57999992
   16.71250153  132.80000305    3.78999996    2.57999992
   16.71500015  139.32499695    3.64000010    2.57999992
   16.71611214  134.46499634    3.61999989    2.59999990
   16.71916771  133.40199280    3.55999994    2.57999992
   16.72555542  133.40199280    3.23000002    2.59999990
   16.72972298  128.98199463    2.98000002    2.57999992
   16.73277855  129.58200073    2.86999989    2.57999992
   16.73611069  134.23399353    2.80999994    2.59999990
   16.73916626  130.54699707    2.80999994    2.59999990
   16.74250031  130.73199463    2.84999990    2.57999992
   16.74555588  135.22599792    2.93000007    2.59999990
   16.74833298  129.37699890    2.94000006    2.59999990
   16.74944496  138.46200562    2.93000007    2.57999992
   16.75250053  133.51199341    2.94000006    2.57999992
   16.75583267  135.97599792    2.86999989    2.59999990
   16.75888824  132.80099487    2.76999998    2.59999990
   16.76222229  136.60499573    2.64000010    2.59999990
   16.76833344  136.60499573    2.44000006    2.59999990
   16.77249908  133.18899536    2.30999994    2.59999990
   16.77555466  131.97599792    2.25000000    2.59999990
   16.77888870  140.18800354    2.26999998    2.59999990
   16.78166580  142.34199524    2.30999994    2.59999990
   16.78249931  136.70899963    2.32999992    2.59999990
   16.78555489  133.89700317    2.44000006    2.59999990
   16.78888893  133.65400696    2.53999996    2.59999990
   16.79222107  135.25799561    2.66000009    2.61999989
   16.79527664  134.12500000    2.78999996    2.59999990
   16.79888916  138.29800415    2.93000007    2.59999990
   16.80194283  135.98899841    3.05999994    2.59999990
   16.80527687  141.24499512    3.11999989    2.61999989
   16.81110954  141.24499512    3.23000002    2.57999992
   16.81527710  137.45199585    3.34999990    2.59999990
   16.81861115  132.60400391    3.36999989    2.59999990
   16.82166672  130.98899841    3.46000004    2.57999992
   16.82500076  134.73500061    3.53999996    2.59999990
   16.82805634  133.31500244    3.68000007    2.59999990
   16.83139038  135.95399475    3.82999992    2.57999992
   16.83472252  132.18800354    3.91000009    2.57999992
   16.83777809  135.28799438    3.99000001    2.59999990
   16.84111214  133.73199463    3.86999989    2.57999992
   16.84416771  130.47799683    3.73000002    2.57999992
   16.84749985  134.55799866    3.76999998    2.57999992
   16.84833336  135.30599976    3.80999994    2.57999992
   16.86916733  135.30599976    4.07999992    2.57999992
   16.87333298  134.82699585    4.00000000    2.57999992
   16.87666702  135.47900391    3.99000001    2.57999992
   16.87972260  138.65299988    3.99000001    2.57999992
   16.88166618  132.73100281    3.99000001    2.57999992
   16.88333321  138.97399902    3.95000005    2.57999992
   16.88666725  137.57299805    3.93000007    2.57999992
   16.88972282  136.98699951    3.84999990    2.59999990
   16.89305496  136.98899841    3.84999990    2.57999992
   16.89611053  136.11399841    3.78999996    2.59999990
   16.89944458  140.08900452    3.66000009    2.59999990
   16.90277672  139.21800232    3.51999998    2.57999992
   16.90583229  134.03500366    3.45000005    2.57999992
   16.91194344  134.03500366    3.28999996    2.57999992
   16.91611099  132.46499634    3.30999994    2.57999992
   16.91916656  138.36500549    3.32999992    2.57999992
   16.92249870  123.93800354    3.36999989    2.57999992
   16.92583275  131.42500305    3.45000005    2.57999992
   16.92888832  134.26400757    3.55999994    2.59999990
   16.93222237  129.11399841    3.57999992    2.57999992
   16.93527603  139.86799622    3.57999992    2.57999992
   16.93861008  138.61500549    3.51999998    2.57999992
   16.94166565  133.75599670    3.55999994    2.59999990
   16.94499969  130.34300232    3.86999989    2.57999992
   16.94833183  132.27400208    4.34999990    2.57999992
   16.94861031  135.35200500    4.44999981    2.59999990
   16.95472336  135.35200500    4.34999990    2.57999992
   16.95888901  136.81300354    4.01999998    2.57999992
   16.96222305  140.04600525    3.78999996    2.59999990
   16.96527863  139.09100342    3.68000007    2.57999992
   16.96861076  133.70899963    3.70000005    2.57999992
   16.97166634  137.73300171    3.70000005    2.59999990
   16.97500038  139.32099915    3.75000000    2.57999992
   16.97805595  138.89900208    3.97000003    2.57999992
   16.98139000  138.69700623    4.19999981    2.57999992
   16.98194504  144.86900330    4.32999992    2.59999990
   16.98500061  146.51300049    4.65999985    2.57999992
   16.98833275  141.78199768    4.84999990    2.57999992
   16.99138832  144.41700745    4.76000023    2.57999992
   16.99749947  144.41700745    3.86999989    2.59999990
   17.00166702  134.89799500    3.41000009    2.59999990
   17.00499916  136.49099731    3.26999998    2.59999990
   17.00805473  135.60000610    3.20000005    2.57999992
   17.01138878  142.89500427    3.20000005    2.57999992
   17.01472282  137.43499756    3.14000010    2.57999992
   17.01527786  127.49400330    3.14000010    2.59999990
   17.01833344  129.67900085    3.09999990    2.59999990
   17.02166557  129.56700134    3.01999998    2.59999990
   17.02472115  127.51300049    2.96000004    2.59999990
   17.02805519  144.14500427    2.84999990    2.59999990
   17.03111076  139.95399475    2.75000000    2.59999990
   17.03444481  130.62800598    2.69000006    2.59999990
   17.04055595  130.62800598    2.55999994    2.59999990
   17.04472160  135.40499878    2.42000008    2.59999990
   17.04777718  139.34199524    2.28999996    2.59999990
   17.04861069  136.13900757    2.25000000    2.59999990
   17.05138779  139.24200439    2.23000002    2.59999990
   17.05472183  133.02999878    2.21000004    2.59999990
   17.05777740  133.66600037    2.21000004    2.59999990
   17.06110954  137.97099304    2.23000002    2.59999990
   17.06416512  139.74899292    2.25000000    2.59999990
   17.06750107  148.27099609    2.21000004    2.59999990
   17.07055664  143.22799683    2.15000010    2.59999990
   17.07389069  143.34599304    2.13000011    2.59999990
   17.07694626  131.32000732    2.13000011    2.59999990
   17.08333397  131.32000732    2.26999998    2.59999990
   17.08750153  138.35899353    2.42000008    2.57999992
   17.09055710  136.49099731    2.46000004    2.59999990
   17.09388924  134.42799377    2.51999998    2.57999992
   17.09694481  139.81100464    2.50000000    2.59999990
   17.10027885  135.21000671    2.55999994    2.59999990
   17.10361099  130.55299377    2.69000006    2.59999990
   17.10666656  140.75700378    2.82999992    2.59999990
   17.11000061  134.13699341    3.07999992    2.57999992
   17.11305618  145.68499756    3.32999992    2.59999990
   17.11527824  136.30099487    3.45000005    2.61999989
   17.11666679  141.58799744    3.53999996    2.59999990
   17.12000084  138.70700073    3.72000003    2.57999992
   17.12611198  138.70700073    4.11999989    2.57999992
   17.13027763  137.36900330    4.26000023    2.57999992
   17.13361168  139.01899719    4.34999990    2.59999990
   17.13666725  140.96200562    4.40999985    2.57999992
   17.13999939  148.82800293    4.48999977    2.59999990
   17.14305496  139.21899414    4.53999996    2.57999992
   17.14638901  142.44099426    4.53000021    2.57999992
   17.14888954  143.96400452    4.42999983    2.57999992
   17.14999962  139.83599854    4.42999983    2.57999992
   17.15333366  143.46400452    4.40999985    2.57999992
   17.15638924  137.17999268    4.40999985    2.57999992
   17.15972137  134.49200439    4.34999990    2.57999992
   17.16277695  142.65499878    4.44999981    2.57999992
   17.16916656  142.65499878    4.53999996    2.59999990
   17.17305565  135.90100098    4.38999987    2.59999990
   17.17638779  137.99099731    4.38999987    2.57999992
   17.17972183  139.81900024    4.36999989    2.57999992
   17.18222237  138.96699524    4.26999998    2.59999990
   17.18305397  139.46899414    4.21999979    2.57999992
   17.18638802  137.55599976    4.07999992    2.57999992
   17.18944359  131.81900024    3.91000009    2.57999992
   17.19277763  134.05299377    3.78999996    2.57999992
   17.19583321  134.04299927    3.68000007    2.59999990
   17.19916534  133.22099304    3.61999989    2.59999990
   17.20250130  140.24099731    3.53999996    2.59999990
   17.20555687  150.23800659    3.51999998    2.59999990
   17.21194458  150.23800659    3.64000010    2.57999992
   17.21611214  133.11099243    3.76999998    2.59999990
   17.21916771  139.13000488    3.93000007    2.59999990
   17.22249985  140.87399292    3.97000003    2.59999990
   17.22555542  142.89700317    4.13999987    2.57999992
   17.22888947  137.37300110    4.26999998    2.57999992
   17.23194504  131.17199707    4.44999981    2.57999992
   17.23527718  135.38999939    4.57999992    2.57999992
   17.23861122  133.98500061    4.63999987    2.57999992
   17.24166679  128.74800110    4.67999983    2.57999992
   17.24500084  135.07200623    4.67999983    2.57999992
   17.24805641  129.17700195    4.63999987    2.57999992
   17.24888992  131.00999451    4.63999987    2.55999994
   17.25472260  131.00999451    4.59999990    2.57999992
   17.25888824  125.64800262    4.55999994    2.57999992
   17.26194382  139.68099976    4.53999996    2.57999992
   17.26527786  138.86900330    4.48999977    2.55999994
   17.26861000  141.16700745    4.48999977    2.57999992
   17.27166557  139.10699463    4.46999979    2.57999992
   17.27499962  143.16000366    4.57999992    2.57999992
   17.27805519  139.42599487    4.63999987    2.57999992
   17.28138924  138.35800171    4.78000021    2.57999992
   17.28222275  145.06700134    4.80999994    2.55999994
   17.28472137  137.68600464    4.86999989    2.57999992
   17.28805542  140.71800232    4.90999985    2.57999992
   17.29138756  143.43699646    4.90999985    2.55999994
   17.29749870  143.43699646    4.90999985    2.57999992
   17.30166626  141.67199707    4.90999985    2.55999994
   17.30499840  143.65600586    4.90999985    2.57999992
   17.30805397  144.45100403    4.90999985    2.55999994
   17.31138802  131.95300293    4.90999985    2.55999994
   17.31444359  138.12500000    4.90999985    2.55999994
   17.31555557  135.37500000    4.90999985    2.57999992
   17.31805611  139.94299316    4.90999985    2.57999992
   17.32139015  134.38499451    4.90999985    2.55999994
   17.32444572  145.24800110    4.90999985    2.55999994
   17.32777786  146.13000488    4.90999985    2.55999994
   17.33111191  141.50500488    4.90999985    2.55999994
   17.33416748  140.95300293    4.90999985    2.57999992
   17.34027863  140.95300293    4.90999985    2.55999994
   17.34444427  140.32099915    4.90999985    2.55999994
   17.34777832  141.83799744    4.90999985    2.55999994
   17.34889030  142.07099915    4.90999985    2.55999994
   17.35138893  136.11700439    4.90999985    2.55999994
   17.35472298  138.13699341    4.90999985    2.55999994
   17.35777855  144.12199402    4.90999985    2.55999994
   17.36111069  142.94099426    4.90999985    2.55999994
   17.36444473  134.70199585    4.90999985    2.55999994
   17.36750031  138.94500732    4.90999985    2.57999992
   17.37083435  145.66099548    4.90999985    2.55999994
   17.37388992  144.34100342    4.86999989    2.55999994
   17.37722206  144.12699890    4.82999992    2.57999992
   17.38333321  144.12699890    4.84999990    2.55999994
   17.38750076  140.64799500    4.90999985    2.55999994
   17.39055634  147.74000549    4.90999985    2.55999994
   17.39388847  143.82000732    4.90999985    2.55999994
   17.39694405  141.32299805    4.90999985    2.57999992
   17.40027809  143.95100403    4.90999985    2.55999994
   17.40333366  141.28399658    4.90999985    2.55999994
   17.40666580  140.77200317    4.90999985    2.55999994
   17.40972137  140.48500061    4.90999985    2.55999994
   17.41305542  146.18299866    4.90999985    2.55999994
   17.41555595  138.38800049    4.90999985    2.55999994
   17.41666603  127.78099823    4.90999985    2.55999994
   17.42000008  145.72300720    4.90999985    2.55999994
   17.42611122  145.72300720    4.90999985    2.53999996
   17.43027687  152.80799866    4.90999985    2.53999996
   17.43333244  161.25500488    4.90999985    2.53999996
   17.43666649  155.62399292    4.90999985    2.53999996
   17.43972206  166.02699280    4.90999985    2.51999998
   17.44305420  184.76899719    4.90999985    2.53999996
   17.44638824  192.05099487    4.90999985    2.53999996
   17.44888878  193.36599731    4.90999985    2.53999996
   17.44972038  194.92399597    4.90999985    2.53999996
   17.45305634  191.67599487    4.90999985    2.53999996
   17.45611191  183.48699951    4.90999985    2.53999996
   17.45944595  193.68899536    4.90999985    2.53999996
   17.46277809  193.11599731    4.90999985    2.53999996
   17.46888924  193.11599731    4.90999985    2.53999996
   17.47305679  172.56599426    4.90999985    2.53999996
   17.47638893  182.83399963    4.90999985    2.53999996
   17.47944450  176.90100098    4.90999985    2.53999996
   17.48222351  175.93200684    4.90999985    2.53999996
   17.48305511  172.52600098    4.90999985    2.53999996
   17.48638916  179.75599670    4.90999985    2.55999994
   17.48972321  168.99200439    4.90999985    2.53999996
   17.49277878  173.91000366    4.90999985    2.53999996
   17.49611092  166.53599548    4.90999985    2.51999998
   17.49916649  163.32699585    4.90999985    2.51999998
   17.50250053  166.30099487    4.90999985    2.53999996
   17.50555611  159.69599915    4.90999985    2.51999998
   17.51166725  159.69599915    4.90999985    2.51999998
   17.51583290  169.80400085    4.90999985    2.53999996
   17.51916695  159.33099365    4.90999985    2.51999998
   17.52222252  159.30999756    4.90999985    2.51999998
   17.52555466  153.45899963    4.90999985    2.51999998
   17.52888870  152.34199524    4.90999985    2.51999998
   17.53194427  158.38499451    4.90999985    2.50000000
   17.53527641  155.55700684    4.90999985    2.53999996
   17.53833199  154.98800659    4.90999985    2.51999998
   17.54166603  154.50900269    4.90999985    2.53999996
   17.54472160  151.93299866    4.90999985    2.51999998
   17.54805565  155.42799377    4.90999985    2.53999996
   17.54888916  153.03300476    4.90999985    2.53999996
   17.55472183  153.03300476    4.90999985    2.53999996
   17.55888748  147.21099854    4.90999985    2.53999996
   17.56194305  148.23500061    4.90999985    2.55999994
   17.56527710  132.04899597    4.90999985    2.53999996
   17.56833458  150.94299316    4.90999985    2.53999996
   17.57166672  146.60800171    4.90999985    2.53999996
   17.57472229  156.85299683    4.90999985    2.51999998
   17.57805634  147.91299438    4.90999985    2.53999996
   17.58111191  145.68800354    4.90999985    2.53999996
   17.58222389  150.93899536    4.90999985    2.53999996
   17.58500099  149.55299377    4.90999985    2.53999996
   17.58805656  154.31300354    4.90999985    2.53999996
   17.59138870  145.78399658    4.90999985    2.53999996
   17.59749985  145.78399658    4.90999985    2.53999996
   17.60166740  147.28300476    4.90999985    2.53999996
   17.60472298  152.05799866    4.90999985    2.53999996
   17.60805511  145.62600708    4.90999985    2.51999998
   17.61138916  139.31700134    4.90999985    2.53999996
   17.61444473  148.79100037    4.90999985    2.51999998
   17.61555672  156.52600098    4.90999985    2.51999998
   17.61833382  148.17300415    4.90999985    2.51999998
   17.62138939  145.35099792    4.90999985    2.51999998
   17.62472153  151.34100342    4.90999985    2.51999998
   17.62777710  144.11199951    4.90999985    2.51999998
   17.63111115  151.38400269    4.90999985    2.51999998
   17.63416672  150.26600647    4.90999985    2.51999998
   17.64027786  150.26600647    4.90999985    2.50000000
   17.64444351  155.14999390    4.90999985    2.50000000
   17.64777756  147.07499695    4.90999985    2.50000000
   17.64888954  141.29100037    4.90999985    2.51999998
   17.65138817  144.88000488    4.90999985    2.50000000
   17.65444374  152.92399597    4.90999985    2.51999998
   17.65777779  148.34300232    4.90999985    2.50000000
   17.66083336  146.13699341    4.90999985    2.51999998
   17.66416550  144.12500000    4.90999985    2.51999998
   17.66722107  143.65699768    4.90999985    2.51999998
   17.67055511  143.04499817    4.90999985    2.51999998
   17.67361069  145.20700073    4.90999985    2.50000000
   17.67694473  161.19400024    4.90999985    2.51999998
   17.68305397  161.19400024    4.90999985    2.50000000
   17.68722153  146.21800232    4.90999985    2.50000000
   17.69055557  147.04400635    4.90999985    2.50000000
   17.69361115  142.05700684    4.90999985    2.50000000
   17.69694328  158.69299316    4.90999985    2.50000000
   17.70027924  147.93800354    4.90999985    2.50000000
   17.70333481  148.45199585    4.90999985    2.51999998
   17.70666695  144.81399536    4.90999985    2.50000000
   17.70972252  142.02200317    4.90999985    2.50000000
   17.71305656  157.27799988    4.90999985    2.50000000
   17.71555710  148.67500305    4.90999985    2.48000002
   17.71666718  153.32800293    4.90999985    2.50000000
   17.71972275  156.35800171    4.90999985    2.50000000
   17.72611237  156.35800171    4.90999985    2.50000000
   17.73027802  160.13900757    4.90999985    2.51999998
   17.73333359  158.42799377    4.90999985    2.50000000
   17.73666763  151.67700195    4.90999985    2.50000000
   17.73972321  161.48399353    4.90999985    2.50000000
   17.74305534  145.26400757    4.90999985    2.50000000
   17.74611092  156.69900513    4.90999985    2.51999998
   17.74888992  168.44200134    4.90999985    2.50000000
   17.75000000  157.40600586    4.90999985    2.50000000
   17.75305557  148.66600037    4.90999985    2.50000000
   17.75638962  143.31199646    4.90999985    2.50000000
   17.75944519  159.21299744    4.90999985    2.51999998
   17.76277733  156.14500427    4.90999985    2.51999998
   17.76888847  156.14500427    4.90999985    2.50000000
   17.77305603  152.38600159    4.90999985    2.51999998
   17.77611160  152.11599731    4.90999985    2.50000000
   17.77944374  151.78799438    4.90999985    2.51999998
   17.78222275  144.33799744    4.90999985    2.50000000
   17.78305435  148.93299866    4.90999985    2.50000000
   17.78610992  148.24499512    4.90999985    2.50000000
   17.78944397  149.30599976    4.90999985    2.50000000
   17.79249954  151.53700256    4.90999985    2.50000000
   17.79583359  156.60200500    4.90999985    2.51999998
   17.79888916  149.32099915    4.90999985    2.50000000
   17.80222130  152.05200195    4.90999985    2.50000000
   17.80555534  158.55000305    4.90999985    2.51999998
   17.81166649  158.55000305    4.90999985    2.51999998
   17.81583214  147.65199280    4.90999985    2.51999998
   17.81916809  148.58299255    4.90999985    2.50000000
   17.82222366  150.55999756    4.90999985    2.46000004
   17.82555580  147.87699890    4.90999985    2.50000000
   17.82861137  155.03500366    4.90999985    2.51999998
   17.83194542  143.83799744    4.90999985    2.50000000
   17.83527756  146.46299744    4.90999985    2.50000000
   17.83833313  147.10600281    4.90999985    2.50000000
   17.84166718  147.79299927    4.90999985    2.50000000
   17.84472275  146.06599426    4.90999985    2.51999998
   17.84805679  147.93499756    4.90999985    2.51999998
   17.84889030  155.73599243    4.90999985    2.51999998
   17.85472298  155.73599243    4.90999985    2.53999996
   17.85861206  141.53599548    4.90999985    2.50000000
   17.86194420  155.92100525    4.90999985    2.50000000
   17.86527824  144.26600647    4.90999985    2.50000000
   17.88277817  145.50999451    4.90999985    2.50000000
   17.88500023  145.61399841    4.90999985    2.50000000
   17.88805580  146.00300598    4.90999985    2.48000002
   17.89138794  151.83299255    4.90999985    2.48000002
   17.89749908  151.83299255    4.90999985    2.46000004
   17.90166664  146.03599548    4.90999985    2.46000004
   17.90499878  150.05700684    4.90999985    2.50000000
   17.90805435  147.80799866    4.90999985    2.50000000
   17.91138840  146.81700134    4.90999985    2.50000000
   17.91472244  152.05000305    4.90999985    2.50000000
   17.91611099  146.24400330    4.90999985    2.50000000
   17.91805458  147.61399841    4.90999985    2.51999998
   17.92138863  148.87899780    4.90999985    2.50000000
   17.92444420  145.44099426    4.90999985    2.51999998
   17.92777634  150.13999939    4.90999985    2.50000000
   17.93111038  151.72000122    4.90999985    2.50000000
   17.93416595  150.20500183    4.90999985    2.48000002
   17.94055557  150.20500183    4.90999985    2.48000002
   17.94472122  142.22900391    4.90999985    2.46000004
   17.94777679  154.21499634    4.90999985    2.48000002
   17.94944382  159.12100220    4.90999985    2.48000002
   17.95138931  145.90899658    4.90999985    2.48000002
   17.95472336  150.00399780    4.90999985    2.46000004
   17.95805550  150.41400146    4.90999985    2.48000002
   17.96111107  149.07899475    4.90999985    2.48000002
   17.96444511  144.81399536    4.90999985    2.48000002
   17.96750069  139.13200378    4.90999985    2.48000002
   17.97083473  149.33900452    4.90999985    2.48000002
   17.97389030  149.21400452    4.90999985    2.48000002
   17.97722244  154.39999390    4.90999985    2.48000002
   17.98333359  154.39999390    4.90999985    2.46000004
   17.98750114  155.96899414    4.90999985    2.46000004
   17.99055672  158.27600098    4.90999985    2.46000004
   17.99388885  158.13400269    4.90999985    2.46000004
   17.99694443  160.14300537    4.90999985    2.46000004
   18.00027847  152.73100281    4.90999985    2.44000006
   18.00361061  160.76100159    4.90999985    2.46000004
   18.00666618  148.19299316    4.90999985    2.46000004
   18.01000023  155.17300415    4.90999985    2.46000004
   18.01305580  155.40800476    4.90999985    2.46000004
   18.01611137  154.97200012    4.90999985    2.46000004
   18.01666641  160.32699585    4.90999985    2.46000004
   18.02000046  157.87500000    4.90999985    2.44000006
   18.02611160  157.87500000    4.90999985    2.46000004
   18.03027725  150.65400696    4.90999985    2.46000004
   18.03361130  151.51100159    4.90999985    2.46000004
   18.03666687  147.16200256    4.90999985    2.46000004
   18.03999901  149.40299988    4.90999985    2.46000004
   18.04305458  156.97099304    4.90999985    2.46000004
   18.04638863  150.30299377    4.90999985    2.46000004
   18.04944420  142.59199524    4.90999985    2.46000004
   18.04999924  149.75300598    4.90999985    2.48000002
   18.05305481  143.47700500    4.90999985    2.48000002
   18.05638885  140.65899658    4.90999985    2.48000002
   18.05944443  146.36999512    4.90999985    2.48000002
   18.06277657  152.26400757    4.90999985    2.46000004
   18.06888962  152.26400757    4.90999985    2.46000004
   18.07305717  148.14799500    4.90999985    2.46000004
   18.07638931  146.61000061    4.90999985    2.46000004
   18.07944489  151.47000122    4.90999985    2.44000006
   18.08277893  150.74600220    4.90999985    2.46000004
   18.08305550  149.37300110    4.90999985    2.46000004
   18.08638954  151.51899719    4.90999985    2.48000002
   18.08972359  147.81199646    4.90999985    2.48000002
   18.09277916  142.38600159    4.90999985    2.46000004
   18.09611130  144.78100586    4.90999985    2.46000004
   18.09916687  148.57099915    4.90999985    2.46000004
   18.10250092  139.43099976    4.90999985    2.46000004
   18.10555649  135.60800171    4.90999985    2.46000004
   18.11194420  135.60800171    4.90999985    2.46000004
   18.11611176  147.89900208    4.90999985    2.46000004
   18.11638832  154.79499817    4.90999985    2.46000004
   18.11972237  155.88499451    4.90999985    2.46000004
   18.12305641  151.60400391    4.90999985    2.46000004
   18.12611198  146.33200073    4.90999985    2.46000004
   18.12944412  145.45399475    4.90999985    2.46000004
   18.13249969  146.71600342    4.90999985    2.48000002
   18.13583374  142.15100098    4.90999985    2.48000002
   18.13888931  147.73300171    4.90999985    2.46000004
   18.14222145  146.52000427    4.90999985    2.48000002
   18.14555550  149.88900757    4.90999985    2.48000002
   18.14861107  152.62899780    4.90999985    2.46000004
   18.14944458  157.08700562    4.90999985    2.48000002
   18.15472221  157.08700562    4.90999985    2.46000004
   18.15888786  152.33799744    4.90999985    2.46000004
   18.16194344  144.41600037    4.90999985    2.48000002
   18.16527748  169.52600098    4.90999985    2.46000004
   18.16833305  153.67399597    4.90999985    2.46000004
   18.17166519  170.72300720    4.90999985    2.46000004
   18.17499924  153.57200623    4.90999985    2.46000004
   18.17805481  152.07000732    4.90999985    2.46000004
   18.18138885  149.57299805    4.90999985    2.46000004
   18.18277740  165.51600647    4.90999985    2.46000004
   18.18472099  139.43400574    4.90999985    2.48000002
   18.18805504  149.83900452    4.90999985    2.46000004
   18.19138718  156.13299561    4.90999985    2.48000002
   18.19749832  156.13299561    4.90999985    2.48000002
   18.20166779  157.95799255    4.90999985    2.48000002
   18.20499992  158.88099670    4.90999985    2.48000002
   18.20805550  148.35600281    4.90999985    2.48000002
   18.21138954  145.22399902    4.90999985    2.48000002
   18.21444511  145.44099426    4.90999985    2.46000004
   18.21611214  155.86099243    4.90999985    2.48000002
   18.21833420  147.88699341    4.90999985    2.46000004
   18.22138977  148.21899414    4.90999985    2.48000002
   18.22472191  144.24299622    4.90999985    2.48000002
   18.22777748  162.76499939    4.90999985    2.48000002
   18.23111153  148.64900208    4.90999985    2.48000002
   18.23416710  147.64500427    4.90999985    2.46000004
   18.24027824  147.64500427    4.90999985    2.48000002
   18.24444389  148.91400146    4.90999985    2.46000004
   18.24777794  152.00700378    4.90999985    2.46000004
   18.24944496  147.07000732    4.90999985    2.46000004
   18.25138855  150.17900085    4.90999985    2.48000002
   18.25444412  150.17399597    4.90999985    2.48000002
   18.25777817  154.25199890    4.90999985    2.46000004
   18.26083374  149.19099426    4.90999985    2.46000004
   18.26416588  152.44200134    4.90999985    2.46000004
   18.26722145  155.88999939    4.90999985    2.46000004
   18.27055550  148.33799744    4.90999985    2.48000002
   18.27361107  146.40699768    4.90999985    2.46000004
   18.27694511  151.02699280    4.90999985    2.46000004
   18.28333282  151.02699280    4.90999985    2.46000004
   18.28722191  157.25500488    4.90999985    2.46000004
   18.29055595  148.16099548    4.90999985    2.46000004
   18.29388809  149.46699524    4.90999985    2.46000004
   18.29694366  144.86000061    4.90999985    2.46000004
   18.30027771  149.17700195    4.90999985    2.46000004
   18.30333328  152.66000366    4.90999985    2.46000004
   18.30666542  148.35600281    4.90999985    2.46000004
   18.30972099  141.27600098    4.90999985    2.46000004
   18.31305504  150.92999268    4.90999985    2.46000004
   18.31611061  139.55200195    4.90999985    2.44000006
   18.31666756  150.67999268    4.90999985    2.44000006
   18.31972313  147.65699768    4.90999985    2.44000006
   18.32611275  147.65699768    4.90999985    2.44000006
   18.33027840  154.59599304    4.90999985    2.44000006
   18.33333397  157.42199707    4.90999985    2.44000006
   18.33666801  149.61399841    4.90999985    2.44000006
   18.33972359  144.07400513    4.90999985    2.44000006
   18.34305573  153.74400330    4.90999985    2.44000006
   18.34638977  145.00900269    4.90999985    2.44000006
   18.34944534  153.22300720    4.90999985    2.44000006
   18.35000038  153.95799255    4.90999985    2.44000006
   18.35305595  155.70899963    4.90999985    2.44000006
   18.35639000  145.10299683    4.90999985    2.44000006
   18.35944557  154.22799683    4.90999985    2.46000004
   18.36277771  149.59599304    4.90999985    2.44000006
   18.36888885  149.59599304    4.90999985    2.42000008
   18.37305641  148.04100037    4.90999985    2.44000006
   18.37638855  153.57400513    4.90999985    2.44000006
   18.37944412  150.59399414    4.90999985    2.42000008
   18.38277817  150.78900146    4.90999985    2.44000006
   18.38333321  149.85299683    4.90999985    2.42000008
   18.38638878  152.63600159    4.90999985    2.44000006
   18.38972282  156.45399475    4.90999985    2.42000008
   18.39277840  151.82400513    4.90999985    2.42000008
   18.39611053  152.87699890    4.90999985    2.42000008
   18.39916611  151.88600159    4.90999985    2.42000008
   18.40250015  156.59199524    4.90999985    2.42000008
   18.40555573  152.87899780    4.90999985    2.42000008
   18.41166687  152.87899780    4.90999985    2.42000008
   18.41583252  153.85699463    4.90999985    2.42000008
   18.41638756  151.40600586    4.90999985    2.44000006
   18.41972160  147.73899841    4.90999985    2.44000006
   18.42277718  158.22099304    4.90999985    2.44000006
   18.42611122  145.76600647    4.90999985    2.42000008
   18.42916679  151.45799255    4.90999985    2.42000008
   18.43249893  149.04899597    4.90999985    2.42000008
   18.43583298  129.48100281    4.90999985    2.42000008
   18.43888855  163.76100159    4.90999985    2.42000008
   18.44222069  146.85299683    4.90999985    2.42000008
   18.44527626  150.88400269    4.90999985    2.42000008
   18.44861031  154.87899780    4.90999985    2.42000008
   18.44972038  147.12899780    4.90999985    2.42000008
   18.45472336  147.12899780    4.90999985    2.42000008
   18.45861244  159.23300171    4.90999985    2.40000010
   18.46194458  155.65800476    4.90999985    2.40000010
   18.46527863  153.15400696    4.90999985    2.40000010
   18.46833420  158.48399353    4.90999985    2.40000010
   18.47166634  170.62500000    4.90999985    2.40000010
   18.47500038  160.41600037    4.90999985    2.39000010
   18.47805595  165.80499268    4.90999985    2.40000010
   18.48139000  146.27000427    4.90999985    2.39000010
   18.48305511  147.79200745    4.90999985    2.40000010
   18.48500061  161.97700500    4.90999985    2.39000010
   18.48805618  166.89199829    4.90999985    2.40000010
   18.49138832  153.54299927    4.90999985    2.39000010
   18.49749947  153.54299927    4.90999985    2.39000010
   18.50166702  156.15199280    4.90999985    2.39000010
   18.50472260  160.86000061    4.90999985    2.39000010
   18.50805473  163.39599609    4.90999985    2.39000010
   18.51111031  159.71800232    4.90999985    2.39000010
   18.51444435  163.43699646    4.90999985    2.36999989
   18.51638794  157.19000244    4.90999985    2.36999989
   18.51805496  166.93200684    4.90999985    2.36999989
   18.52111053  159.19000244    4.90999985    2.39000010
   18.52444458  159.69400024    4.90999985    2.36999989
   18.52750015  150.96299744    4.90999985    2.36999989
   18.53083229  166.79499817    4.90999985    2.36999989
   18.53416634  158.71600342    4.90999985    2.36999989
   18.54027748  158.71600342    4.90999985    2.36999989
   18.54444313  159.78399658    4.90999985    2.36999989
   18.54777718  164.13499451    4.90999985    2.36999989
   18.54972076  161.12100220    4.90999985    2.34999990
   18.55138779  158.54200745    4.90999985    2.36999989
   18.55444336  157.37300110    4.90999985    2.34999990
   18.55777740  159.57200623    4.90999985    2.36999989
   18.56083298  160.44500732    4.90999985    2.34999990
   18.56416512  160.74499512    4.90999985    2.34999990
   18.56750107  151.63400269    4.90999985    2.36999989
   18.57055664  159.53399658    4.90999985    2.34999990
   18.57389069  160.38400269    4.90999985    2.36999989
   18.57694626  162.52299500    4.90999985    2.36999989
   18.58305550  162.52299500    4.90999985    2.34999990
   18.58722305  163.26800537    4.90999985    2.34999990
   18.59055710  159.18600464    4.90999985    2.36999989
   18.59361267  157.88499451    4.90999985    2.36999989
   18.59694481  164.98599243    4.90999985    2.36999989
   18.60000038  162.56199646    4.90999985    2.34999990
   18.60333443  153.31700134    4.90999985    2.36999989
   18.60666656  159.38699341    4.90999985    2.36999989
   18.60972214  157.47000122    4.90999985    2.36999989
   18.61305618  162.90699768    4.90999985    2.36999989
   18.61611176  157.93699646    4.90999985    2.36999989
   18.61666679  153.14300537    4.90999985    2.36999989
   18.62000084  152.16000366    4.90999985    2.36999989
   18.62611198  152.16000366    4.90999985    2.36999989
   18.63000107  159.69700623    4.90999985    2.34999990
   18.63333321  169.44999695    4.90999985    2.34999990
   18.63666725  166.90499878    4.90999985    2.36999989
   18.63972282  161.94500732    4.90999985    2.36999989
   18.64305496  153.00100708    4.90999985    2.34999990
   18.64611053  160.56500244    4.90999985    2.36999989
   18.64944458  165.02600098    4.90999985    2.34999990
   18.64999962  161.89500427    4.90999985    2.34999990
   18.65305519  162.55299377    4.90999985    2.32999992
   18.65611076  152.08999634    4.90999985    2.36999989
   18.65944481  157.69299316    4.90999985    2.32999992
   18.66277695  151.59599304    4.90999985    2.34999990
   18.66888809  151.59599304    4.90999985    2.32999992
   18.67305565  158.15400696    4.90999985    2.34999990
   18.67611122  153.27000427    4.90999985    2.34999990
   18.67944336  158.45799255    4.90999985    2.34999990
   18.68249893  160.77200317    4.90999985    2.36999989
   18.68333244  162.18200684    4.90999985    2.36999989
   18.68638802  160.64500427    4.90999985    2.36999989
   18.68944359  160.26699829    4.90999985    2.36999989
   18.69277763  157.70500183    4.90999985    2.34999990
   18.69610977  154.80299377    4.90999985    2.36999989
   18.69916534  157.54699707    4.90999985    2.36999989
   18.70250130  164.98199463    4.90999985    2.36999989
   18.70555687  159.21499634    4.90999985    2.34999990
   18.71166801  159.21499634    4.90999985    2.39000010
   18.71583366  156.18800354    4.90999985    2.36999989
   18.71666718  160.03100586    4.90999985    2.36999989
   18.71944427  153.72900391    4.90999985    2.36999989
   18.72249985  157.54699707    4.90999985    2.36999989
   18.72583389  165.91600037    4.90999985    2.36999989
   18.72916794  160.42799377    4.90999985    2.36999989
   18.73222351  154.77600098    4.90999985    2.34999990
   18.73555565  159.85699463    4.90999985    2.34999990
   18.73861122  157.29400635    4.90999985    2.34999990
   18.74194527  160.14500427    4.90999985    2.34999990
   18.74500084  154.50500488    4.90999985    2.34999990
   18.74833298  162.50199890    4.90999985    2.32999992
   18.75000000  164.33599854    4.90999985    2.32999992
   18.75444412  164.33599854    4.90999985    2.34999990
   18.75861168  161.66200256    4.90999985    2.34999990
   18.76194382  168.42599487    4.90999985    2.34999990
   18.76499939  157.43800354    4.90999985    2.32999992
   18.76833344  160.21899414    4.90999985    2.32999992
   18.77138901  164.24800110    4.90999985    2.32999992
   18.77472115  158.30900574    4.90999985    2.32999992
   18.77805519  162.33700562    4.90999985    2.32999992
   18.78111076  170.27099609    4.90999985    2.32999992
   18.78333282  158.14399719    4.90999985    2.32999992
   18.78472137  163.05599976    4.90999985    2.32999992
   18.78777695  163.69500732    4.90999985    2.32999992
   18.79111099  159.97200012    4.90999985    2.32999992
   18.79749870  159.97200012    4.90999985    2.32999992
   18.80138779  158.97000122    4.90999985    2.30999994
   18.80472183  169.24499512    4.90999985    2.32999992
   18.80805397  164.98599243    4.90999985    2.30999994
   18.81110954  161.74800110    4.90999985    2.30999994
   18.81444359  171.94299316    4.90999985    2.30999994
   18.81666756  161.36500549    4.90999985    2.32999992
   18.81805611  173.01600647    4.90999985    2.32999992
   18.82111168  168.79499817    4.90999985    2.32999992
   18.82444572  168.89599609    4.90999985    2.30999994
   18.82777786  164.56199646    4.90999985    2.32999992
   18.83083344  165.19400024    4.90999985    2.32999992
   18.83416748  162.55400085    4.90999985    2.32999992
   18.84027863  162.55400085    4.90999985    2.30999994
   18.84444427  165.32200623    4.90999985    2.30999994
   18.84749985  158.09100342    4.90999985    2.30999994
   18.85000038  168.83599854    4.90999985    2.30999994
   18.85111237  154.68499756    4.90999985    2.28999996
   18.85416794  164.24899292    4.90999985    2.28999996
   18.85750008  158.00599670    4.90999985    2.30999994
   18.86083412  166.02900696    4.90999985    2.30999994
   18.86388969  159.47099304    4.90999985    2.30999994
   18.86722183  160.98599243    4.90999985    2.30999994
   18.87027740  162.96800232    4.90999985    2.30999994
   18.87361145  163.23300171    4.90999985    2.30999994
   18.87666702  166.89300537    4.90999985    2.30999994
   18.88305473  166.89300537    4.90999985    2.28999996
   18.90194321  167.35899353    4.90999985    2.32999992
   18.90499878  169.26899719    4.90999985    2.32999992
   18.90833282  167.21000671    4.90999985    2.34999990
   18.91138840  174.18600464    4.90999985    2.34999990
   18.91472244  165.48300171    4.90999985    2.32999992
   18.91805458  163.54200745    4.90999985    2.32999992
   18.92111015  168.25300598    4.90999985    2.32999992
   18.92611122  168.25300598    4.90999985    2.34999990
   18.93027687  171.93299866    4.90999985    2.32999992
   18.93361092  175.09899902    4.90999985    2.32999992
   18.93444443  173.55999756    4.90999985    2.32999992
   18.93722153  167.63499451    4.90999985    2.32999992
   18.94055557  179.20799255    4.90999985    2.32999992
   18.94361115  176.36900330    4.90999985    2.30999994
   18.94694328  182.73500061    4.90999985    2.30999994
   18.95000076  179.13400269    4.90999985    2.30999994
   18.95333481  176.84399414    4.90999985    2.32999992
   18.95639038  170.47599792    4.90999985    2.30999994
   18.95972252  169.81399536    4.90999985    2.30999994
   18.96305656  178.30599976    4.90999985    2.30999994
   18.96916771  178.30599976    4.90999985    2.30999994
   18.97305679  184.43099976    4.90999985    2.30999994
   18.97638893  188.86900330    4.90999985    2.28999996
   18.97972298  178.48100281    4.90999985    2.28999996
   18.98277855  190.52799988    4.90999985    2.28999996
   18.98611069  193.94099426    4.90999985    2.28999996
   18.98916626  187.20500183    4.90999985    2.28999996
   18.99250031  184.34599304    4.90999985    2.28999996
   18.99555588  189.30099487    4.90999985    2.28999996
   18.99888992  188.26400757    4.90999985    2.28999996
   19.00111198  187.55499268    4.90999985    2.26999998
   19.00250053  192.70799255    4.90999985    2.26999998
   19.00583267  202.85600281    4.90999985    2.26999998
   19.01194382  202.85600281    4.90999985    2.25000000
   19.01611137  213.36199951    4.90999985    2.25000000
   19.01916695  210.16600037    4.90999985    2.25000000
   19.02249908  214.11300659    4.90999985    2.25000000
   19.02555466  210.34199524    4.90999985    2.23000002
   19.02888870  208.38600159    4.90999985    2.23000002
   19.03222275  222.16900635    4.90999985    2.23000002
   19.03444481  201.59500122    4.90999985    2.23000002
   19.03555489  213.00000000    4.90999985    2.23000002
   19.03888893  199.11399841    4.90999985    2.25000000
   19.04194450  202.43299866    4.90999985    2.23000002
   19.04527664  213.73100281    4.90999985    2.23000002
   19.04833221  207.29800415    4.90999985    2.21000004
   19.05472183  207.29800415    4.90999985    2.19000006
   19.05888748  200.71099854    4.90999985    2.21000004
   19.06222153  199.77900696    4.90999985    2.21000004
   19.06527710  196.40299988    4.90999985    2.21000004
   19.06805611  204.07800293    4.90999985    2.23000002
   19.06888962  195.48899841    4.90999985    2.23000002
   19.07222366  198.70300293    4.90999985    2.23000002
   19.07527924  211.57899475    4.90999985    2.25000000
   19.07861137  191.16299438    4.90999985    2.25000000
   19.08194542  192.87699890    4.90999985    2.25000000
   19.08500099  191.26600647    4.90999985    2.25000000
   19.08833313  198.89700317    4.90999985    2.25000000
   19.09138870  203.97099304    4.90999985    2.25000000
   19.09777832  203.97099304    4.90999985    2.25000000
   19.10166740  191.01499939    4.90999985    2.25000000
   19.10499954  203.58399963    4.90999985    2.23000002
   19.10805511  199.53399658    4.90999985    2.23000002
   19.11138916  189.80799866    4.90999985    2.23000002
   19.11472321  194.86300659    4.90999985    2.25000000
   19.11777878  203.00100708    4.90999985    2.23000002
   19.12111092  180.21899414    4.90999985    2.23000002
   19.12416649  187.90100098    4.90999985    2.23000002
   19.12750053  187.37100220    4.90999985    2.23000002
   19.13055611  181.97900391    4.90999985    2.25000000
   19.13388824  205.67599487    4.90999985    2.25000000
   19.13444519  186.66600037    4.90999985    2.25000000
   19.14055634  186.66600037    4.90999985    2.25000000
   19.14472198  175.38099670    4.90999985    2.25000000
   19.14777756  183.16099548    4.90999985    2.25000000
   19.15111160  182.65899658    4.90999985    2.25000000
   19.15416718  174.42900085    4.90999985    2.25000000
   19.15749931  180.15800476    4.90999985    2.26999998
   19.16083336  181.12800598    4.90999985    2.26999998
   19.16388893  187.05000305    4.90999985    2.25000000
   19.16722107  173.64999390    4.90999985    2.25000000
   19.16805458  185.44500732    4.90999985    2.26999998
   19.17083359  183.39100647    4.90999985    2.25000000
   19.17416573  185.54899597    4.90999985    2.25000000
   19.17722130  183.00500488    4.90999985    2.23000002
   19.18333244  183.00500488    4.90999985    2.23000002
   19.18750000  187.68400574    4.90999985    2.23000002
   19.19055557  197.95399475    4.90999985    2.23000002
   19.19388771  200.85099792    4.90999985    2.21000004
   19.19694328  199.30400085    4.90999985    2.21000004
   19.20027924  202.40600586    4.90999985    2.21000004
   19.20138931  204.80099487    4.90999985    2.21000004
   19.20388985  195.87500000    4.90999985    2.21000004
   19.20722389  201.54200745    4.90999985    2.21000004
   19.21027946  192.20399475    4.90999985    2.21000004
   19.21361160  190.86999512    4.90999985    2.21000004
   19.21666718  196.27499390    4.90999985    2.21000004
   19.22000122  197.05900574    4.90999985    2.21000004
   19.22611237  197.05900574    4.90999985    2.19000006
   19.23027802  187.46899414    4.90999985    2.19000006
   19.23361206  204.50999451    4.90999985    2.19000006
   19.23472214  197.75100708    4.90999985    2.19000006
   19.23694420  188.95599365    4.90999985    2.17000008
   19.24027824  190.35200500    4.90999985    2.17000008
   19.24333382  201.59899902    4.90999985    2.17000008
   19.24666786  202.65400696    4.90999985    2.13000011
   19.24972153  199.55499268    4.90999985    2.13000011
   19.25305557  224.26499939    4.90999985    2.09999990
   19.25638962  217.98100281    4.90999985    2.11999989
   19.25944519  228.02900696    4.90999985    2.11999989
   19.26277733  223.24499512    4.90999985    2.09999990
   19.26888847  223.24499512    4.90999985    2.07999992
   19.27305603  214.63900757    4.90999985    2.07999992
   19.27638817  226.80099487    4.90999985    2.09999990
   19.27944374  230.21499634    4.90999985    2.09999990
   19.28277779  230.41200256    4.90999985    2.07999992
   19.28610992  240.35800171    4.90999985    2.03999996
   19.28916550  243.53599548    4.90999985    2.03999996
   19.29249954  248.26899719    4.90999985    2.03999996
   19.29555511  244.99699402    4.90999985    2.03999996
   19.29888916  265.67001343    4.90999985    2.01999998
   19.30138779  296.48001099    4.90999985    2.00000000
   19.30249977  300.12200928    4.90999985    1.96000004
   19.30583191  332.70300293    4.90999985    1.89999998
   19.31194305  332.70300293    4.90999985    1.89999998
   19.31611061  335.44601440    4.90999985    1.86000001
   19.31916809  305.50100708    4.90999985    1.85000002
   19.32250023  343.61199951    4.90999985    1.83000004
   19.32555580  316.15301514    4.90999985    1.83000004
   19.32888985  313.56298828    4.90999985    1.83000004
   19.33194542  351.26400757    4.90999985    1.85000002
   19.33472252  317.06799316    4.90999985    1.86000001
   19.33555603  312.74700928    4.90999985    1.86000001
   19.33889008  324.38000488    4.90999985    1.86000001
   19.34194565  344.89599609    4.90999985    1.88000000
   19.34527779  329.31600952    4.90999985    1.88000000
   19.34833336  304.51800537    4.90999985    1.88000000
   19.35472298  304.51800537    4.90999985    1.91999996
   19.35888863  315.59500122    4.90999985    1.89999998
   19.36194420  307.82000732    4.90999985    1.91999996
   19.36527824  284.04299927    4.90999985    1.94000006
   19.36805534  285.83898926    4.90999985    1.91999996
   19.36888885  267.60501099    4.90999985    1.94000006
   19.37222290  337.32000732    4.90999985    1.91999996
   19.37527847  302.32699585    4.90999985    1.89999998
   19.37861061  351.72399902    4.90999985    1.91999996
   19.38166618  313.12899780    4.90999985    1.89999998
   19.38500023  317.77899170    4.90999985    1.89999998
   19.38833237  308.37100220    4.90999985    1.88000000
   19.39138794  327.18301392    4.90999985    1.89999998
   19.39749908  327.18301392    4.90999985    1.91999996
   19.40166664  279.26400757    4.90999985    1.91999996
   19.40499878  266.48699951    4.90999985    1.94000006
   19.40805435  276.30999756    4.90999985    1.94000006
   19.41138840  300.95098877    4.90999985    1.94000006
   19.41444397  275.75201416    4.90999985    1.91999996
   19.41777802  292.97900391    4.90999985    1.88000000
   19.42111015  281.53601074    4.90999985    1.91999996
   19.42416573  279.62701416    4.90999985    1.91999996
   19.42749977  274.73498535    4.90999985    1.89999998
   19.43055534  306.33099365    4.90999985    1.94000006
   19.43388748  314.05700684    4.90999985    1.91999996
   19.43472099  306.07199097    4.90999985    1.89999998
   19.44027710  306.07199097    4.90999985    1.85000002
   19.44444275  319.63598633    4.90999985    1.80999994
   19.44777679  329.70999146    4.90999985    1.80999994
   19.45083427  292.85000610    4.90999985    1.85000002
   19.45416832  271.74398804    4.90999985    1.86000001
   19.45722389  296.51998901    4.90999985    1.89999998
   19.46055603  285.70199585    4.90999985    1.86000001
   19.46389008  262.95098877    4.90999985    1.94000006
   19.46694565  273.31399536    4.90999985    1.94000006
   19.46805573  265.56600952    4.90999985    1.94000006
   19.47055626  254.23300171    4.90999985    1.91999996
   19.47389030  292.93798828    4.90999985    1.91999996
   19.47694588  295.94500732    4.90999985    1.88000000
   19.48333359  295.94500732    4.90999985    1.86000001
   19.48750114  192.05099487    4.90999985    1.80999994
   19.49055672   -1.00000000    4.90999985    1.63000000
   19.49388885   46.32160187    4.90999985    1.38000000
   19.49694443  105.70500183    4.90999985    1.48000002
   19.50027847  147.49099731    4.90999985    1.53999996
   19.50138855  168.28799438    4.90999985    1.53999996
   19.50388908  270.68099976    4.90999985    1.61000001
   19.50722313  324.64700317    4.90999985    1.75000000
   19.51027870  336.77999878    4.90999985    1.80999994
   19.51361084  330.47601318    4.90999985    1.83000004
   19.51694489  344.17599487    4.90999985    1.85000002
   19.52000046  336.20800781    4.90999985    1.85000002
   19.52611160  336.20800781    4.90999985    1.83000004
   19.53027725  314.82501221    4.90999985    1.86000001
   19.53333282  290.04000854    4.90999985    1.91999996
   19.53472137  283.78298950    4.90999985    1.91999996
   19.53694344  260.24301147    4.90999985    1.94000006
   19.54027748  295.25698853    4.90999985    1.96000004
   19.54333305  277.26699829    4.90999985    1.86000001
   19.54666710  286.65600586    4.90999985    1.83000004
   19.54999924  312.42199707    4.90999985    1.88000000
   19.55305481  205.68400574    4.90999985    1.78999996
   19.55638885  284.47698975    4.90999985    1.73000002
   19.55944443  282.20098877    4.90999985    1.80999994
   19.56277657  310.29901123    4.90999985    1.78999996
   19.56888962  310.29901123    4.90999985    1.78999996
   19.57305717  314.83099365    4.90999985    1.83000004
   19.57638931  327.54501343    4.90999985    1.85000002
   19.57944489  291.37701416    4.90999985    1.80999994
   19.58277893  319.56799316    4.90999985    1.80999994
   19.58583450  237.59199524    4.90999985    1.78999996
   19.58916664  217.24000549    4.90999985    1.78999996
   19.59222221  185.92700195    4.90999985    1.75000000
   19.59555626  164.23899841    4.90999985    1.75000000
   19.59889030  162.22099304    4.90999985    1.73000002
   19.60138893  125.96299744    4.90999985    1.69000006
   19.60222244  131.32899475    4.90999985    1.66999996
   19.60555649  137.17100525    4.90999985    1.64999998
   19.61166763  137.17100525    4.90999985    1.64999998
   19.61583328   97.31960297    4.90999985    1.66999996
   19.61916733   38.86090088    4.90999985    1.64999998
   19.62222290   -1.00000000    4.90999985    1.64999998
   19.62555504   -1.00000000    4.90999985    1.63000000
   19.62861061   -1.00000000    4.90999985    1.63000000
   19.63194466   -1.00000000    4.90999985    1.60000002
   19.63555527   -1.00000000    4.90999985    1.60000002
   19.63888931   -1.00000000    4.90999985    1.61000001
   19.64194489   -1.00000000    4.90999985    1.63000000
   19.64527702   -1.00000000    4.90999985    1.63000000
   19.64833260   -1.00000000    4.90999985    1.64999998
   19.65861130   -1.00000000    4.90999985    1.66999996
   19.66194344   -1.00000000    4.90999985    1.64999998
   19.66499901   -1.00000000    4.90999985    1.69000006
   19.66860962   -1.00000000    4.90999985    1.69000006
   19.67194366   -1.00000000    4.90999985    1.69000006
   19.67499924   -1.00000000    4.90999985    1.69000006
   19.67833328   -1.00000000    4.90999985    1.69000006
   19.68138885   -1.00000000    4.90999985    1.69000006
   19.68472099   -1.00000000    4.90999985    1.69000006
   19.68777657   -1.00000000    4.90999985    1.66999996
   19.69111061   -1.00000000    4.90999985    1.64999998
   19.70138931   -1.00000000    4.90999985    1.69000006
   19.70472336   -1.00000000    4.90999985    1.69000006
   19.70777893   -1.00000000    4.90999985    1.71000004
   19.71111107   -1.00000000    4.90999985    1.71000004
   19.71444511   -1.00000000    4.90999985    1.69000006
   19.71750069   -1.00000000    4.90999985    1.73000002
   19.72083473   -1.00000000    4.90999985    1.71000004
   19.72389030   -1.00000000    4.90999985    1.71000004
   19.72722244   -1.00000000    4.90999985    1.69000006
   19.73027802   -1.00000000    4.90999985    1.71000004
   19.73361206   -1.00000000    4.90999985    1.73000002
   19.74444389   -1.00000000    4.90999985    1.78999996
   19.74749947   -1.00000000    4.90999985    1.85000002
   19.75083351   -1.00000000    4.90999985    1.80999994
   19.75388908   -1.00000000    4.90999985    1.83000004
   19.75722313   -1.00000000    4.90999985    1.80999994
   19.76027870   -1.00000000    4.90999985    1.78999996
   19.76361084   -1.00000000    4.90999985    1.80999994
   19.76666641   -1.00000000    4.90999985    1.80999994
   19.77027702   -1.00000000    4.90999985    1.85000002
   19.77361107   -1.00000000    4.90999985    1.76999998
   19.77666664   -1.00000000    4.90999985    1.80999994
   19.78722191   -1.00000000    4.90999985    1.83000004
   19.79027748   -1.00000000    4.90999985    1.78999996
   19.79361153   -1.00000000    4.90999985    1.85000002
   19.79666710   -1.00000000    4.90999985    1.86000001
   19.79999924   -1.00000000    4.90999985    1.85000002
   19.80360985   -1.00000000    4.90999985    1.85000002
   19.80694389   -1.00000000    4.90999985    1.85000002
   19.80999947   -1.00000000    4.90999985    1.83000004
   19.81333351   -1.00000000    4.90999985    1.80999994
   19.81638718   -1.00000000    4.90999985    1.78999996
   19.81972313   -1.00000000    4.90999985    1.76999998
   19.83000183   -1.00000000    4.90999985    1.76999998
   19.83333397   -1.00000000    4.90999985    1.80999994
   19.83666801   -1.00000000    4.90999985    1.83000004
   19.84000015   -1.00000000    4.90999985    1.86000001
   19.84305573   -1.00000000    4.90999985    1.86000001
   19.84638977   -1.00000000    4.90999985    1.86000001
   19.84944534   -1.00000000    4.90999985    1.88000000
   19.85277748   -1.00000000    4.90999985    1.89999998
   19.85583305   -1.00000000    4.90999985    1.91999996
   19.85916710   -1.00000000    4.90999985    1.91999996
   19.86222267   -1.00000000    4.90999985    1.96000004
   19.87277794   -1.00000000    4.90999985    1.96000004
   19.87611198   -1.00000000    4.90999985    1.98000002
   19.87916756   -1.00000000    4.90999985    1.98000002
   19.88249969   -1.00000000    4.90999985    2.00000000
   19.88583374   -1.00000000    4.90999985    2.01999998
   19.88888931   -1.00000000    4.90999985    1.98000002
   19.89222145   -1.00000000    4.90999985    2.01999998
   19.89527702   -1.00000000    4.90999985    1.94000006
   19.89861107   -1.00000000    4.90999985    1.98000002
   19.91833305   -1.00000000    4.90999985    1.85000002
   19.92638779   -1.00000000    4.90999985    1.89999998
   19.92972183   -1.00000000    4.90999985    1.94000006
   19.93277740   -1.00000000    4.90999985    1.91999996
   19.93638802   -1.00000000    4.90999985    1.91999996
   19.93944359   -1.00000000    4.90999985    1.94000006
   19.94277763   -1.00000000    4.90999985    1.94000006
   19.94583321   -1.00000000    4.90999985    1.94000006
   19.94916534   -1.00000000    4.90999985    1.94000006
   19.95222282   -1.00000000    4.90999985    1.96000004
   19.95555687   -1.00000000    4.90999985    1.94000006
   19.95861244   -1.00000000    4.90999985    1.96000004
   19.96916771   -1.00000000    4.90999985    1.96000004
   19.97249985   -1.00000000    4.90999985    1.96000004
   19.97555542   -1.00000000    4.90999985    1.98000002
   19.97888947   -1.00000000    4.90999985    1.96000004
   19.98222351   -1.00000000    4.90999985    1.98000002
   19.98527718   -1.00000000    4.90999985    2.01999998
   19.98861122   -1.00000000    4.90999985    2.00000000
   19.99166679   -1.00000000    4.90999985    2.03999996
   19.99500084   -1.00000000    4.90999985    2.03999996
   19.99805641   -1.00000000    4.90999985    2.05999994
   20.00138855   -1.00000000    4.90999985    2.05999994
   20.01222229   -1.00000000    4.90999985    2.01999998
   20.01527786   -1.00000000    4.90999985    2.01999998
   20.01861000   -1.00000000    4.90999985    2.01999998
   20.02166557   -1.00000000    4.90999985    2.03999996
   20.02499962   -1.00000000    4.90999985    2.03999996
   20.02805519   -1.00000000    4.90999985    2.01999998
   20.03138924   -1.00000000    4.90999985    2.03999996
   20.03444481   -1.00000000    4.90999985    2.03999996
   20.03805542   -1.00000000    4.90999985    2.07999992
   20.04111099   -1.00000000    4.90999985    2.05999994
   20.04444313   -1.00000000    4.90999985    2.07999992
   20.05499840   -1.00000000    4.90999985    2.07999992
   20.05805397   -1.00000000    4.90999985    2.07999992
   20.06138802   -1.00000000    4.90999985    2.09999990
   20.06444359   -1.00000000    4.90999985    2.09999990
   20.06777954   -1.00000000    4.90999985    2.09999990
   20.07139015   -1.00000000    4.90999985    2.09999990
   20.07444572   -1.00000000    4.90999985    2.07999992
   20.07777786   -1.00000000    4.90999985    2.07999992
   20.08111191   -1.00000000    4.90999985    2.07999992
   20.08416748   -1.00000000    4.90999985    2.07999992
   20.08750153   -1.00000000    4.90999985    2.07999992
   20.09777832   -1.00000000    4.90999985    2.07999992
   20.10111237   -1.00000000    4.90999985    2.05999994
   20.10444450   -1.00000000    4.90999985    2.07999992
   20.10750008   -1.00000000    4.90999985    2.07999992
   20.11083412   -1.00000000    4.90999985    2.07999992
   20.11416626   -1.00000000    4.90999985    2.07999992
   20.11722183   -1.00000000    4.90999985    2.07999992
   20.12055588   -1.00000000    4.90999985    2.09999990
   20.12361145   -1.00000000    4.90999985    2.07999992
   20.12694550   -1.00000000    4.90999985    2.07999992
   20.13000107   -1.00000000    4.90999985    2.09999990
