    HOUR (UT)   FLARE FACTOR    SKY TESTER    SUN TESTER
   11.96638870   -1.00000000   -1.00000000   -1.00000000
   11.99611092  181.12300110    0.00000000    0.00000000
   11.99916649  187.56900024    0.00000000    0.00000000
   12.00249958  169.30000305    0.00000000    0.00000000
   12.00555515  199.43899536    0.00000000    0.00000000
   12.00888920  194.12399292    0.00000000    0.00000000
   12.01222229  175.81199646    0.00000000    0.00000000
   12.01638889  175.81199646    0.00000000    0.00000000
   12.02027798  174.95799255    0.00000000    0.00000000
   12.02361107  179.51899719    0.00000000    0.00000000
   12.02694416  151.28100586    0.00000000    0.00000000
   12.02916622  159.07000732    0.00000000    0.00000000
   12.03055573  181.89999390    0.00000000    0.00000000
   12.03388977  158.23899841    0.00000000    0.00000000
   12.03694534  187.50100708    0.00000000    0.00000000
   12.04027843  161.63999939    0.00000000    0.00000000
   12.04361153  162.07400513    0.00000000    0.00000000
   12.04666710  170.15199280    0.00000000    0.00000000
   12.05000019  176.71299744    0.00000000    0.00000000
   12.05305576  178.94999695    0.00000000    0.00000000
   12.05916691  178.94999695    0.00000000    0.00000000
   12.06333351  198.81500244    0.00000000    0.00000000
   12.06694412  201.68600464    0.00000000    0.00000000
   12.06999969  282.51800537    0.00000000    0.00000000
   12.07333374  367.66000366    0.00000000    0.00000000
   12.07638836  271.41101074    0.00000000    0.00000000
   12.07972240  141.25599670    0.00000000    0.00000000
   12.08305550   77.44640350    0.00000000    0.00000000
   12.08611107   80.65480042    0.00000000    0.00000000
   12.08944416   -1.00000000    0.00000000    0.00000000
   12.09277725   -1.00000000    0.00000000    0.00000000
   12.09638882   -1.00000000    0.00000000    0.00000000
   12.10194492   -1.00000000    0.00000000    0.00000000
   12.10611153   -1.00000000    0.00000000    0.00000000
   12.10944462   -1.00000000    0.00000000    0.00000000
   12.11250019   -1.00000000    4.90999985    1.00000000
   12.11583328   -1.00000000    4.90999985    1.00000000
   12.11888885   -1.00000000    4.90999985    1.00000000
   12.12222195   -1.00000000    4.90999985    1.00000000
   12.12555599   -1.00000000    4.90999985    1.00000000
   12.12861156   -1.00000000    4.90999985    1.00000000
   12.13222218   -1.00000000    4.90999985    1.00000000
   12.13527775   -1.00000000    4.90999985    1.00000000
   12.13861084   -1.00000000    4.90999985    1.00000000
   12.14888859   -1.00000000    4.90999985    1.00000000
   12.15194416   -1.00000000    4.90999985    1.00000000
   12.15527725   -1.00000000    4.90999985    1.00000000
   12.15861034   -1.00000000    4.90999985    1.00000000
   12.16222191   -1.00000000    4.90999985    1.00000000
   12.16555500   -1.00000000    4.90999985    1.00000000
   12.16861153   -1.00000000    4.90999985    1.00000000
   12.17194462   -1.00000000    4.90999985    1.00000000
   12.17527771   58.73120117    4.90999985    1.00000000
   12.17833328  101.27799988    4.90999985    1.00000000
   12.18166733   -1.00000000    4.90999985    1.00000000
   12.18777752   -1.00000000    4.90999985    1.00000000
   12.19166660   -1.00000000    4.90999985    1.00000000
   12.19499969   -1.00000000    4.90999985    1.00000000
   12.19861126   -1.00000000    4.90999985    1.00000000
   12.20166683   -1.00000000    4.90999985    1.00000000
   12.20499992   -1.00000000    4.90999985    1.00000000
   12.20833302   -1.00000000    4.90999985    1.00000000
   12.21138859   -1.00000000    4.90999985    1.00000000
   12.21472168   -1.00000000    4.90999985    1.00000000
   12.21805477   -1.00000000    4.90999985    1.00000000
   12.22111034   -1.00000000    4.90999985    1.00000000
   12.22444439   -1.00000000    4.90999985    1.00000000
   12.23444462   -1.00000000    4.90999985    1.00000000
   12.23777771   -1.00000000    4.90999985    1.00000000
   12.24111176   -1.00000000    4.90999985    1.00000000
   12.24416733   -1.00000000    4.90999985    1.00000000
   12.24750042   -1.00000000    4.90999985    1.00000000
   12.25055599   -1.00000000    4.90999985    1.00000000
   12.25388908   -1.00000000    4.90999985    1.00000000
   12.25722218   -1.00000000    4.90999985    1.00000000
   12.26027775   -1.00000000    4.90999985    1.00000000
   12.26388931   -1.00000000    4.90999985    1.00000000
   12.26694393   -1.00000000    4.90999985    1.00000000
   12.27750015   -1.00000000    4.90999985    1.00000000
   12.28055573   -1.00000000    4.90999985    1.00000000
   12.28388977   -1.00000000    4.90999985    1.00000000
   12.28694534   -1.00000000    4.90999985    1.00000000
   12.29027843   -1.00000000    4.90999985    1.00000000
   12.29361153   -1.00000000    4.90999985    1.00000000
   12.29722309   -1.00000000    4.90999985    1.00000000
   12.30027771   -1.00000000    4.90999985    1.00000000
   12.30361176   -1.00000000    4.90999985    1.00000000
   12.30694485   -1.00000000    4.90999985    1.00000000
   12.31000042   -1.00000000    4.90999985    1.00000000
   12.32027817   -1.00000000    4.90999985    1.00000000
   12.32333374   -1.00000000    4.90999985    1.00000000
   12.32666683   -1.00000000    4.90999985    1.00000000
   12.33027744   -1.00000000    4.90999985    1.00000000
   12.33333302   -1.00000000    4.90999985    1.00000000
   12.33666611   -1.00000000    4.90999985    1.00000000
   12.34000015   -1.00000000    4.90999985    1.00000000
   12.34305477   -1.00000000    4.90999985    1.00000000
   12.34638882   -1.00000000    4.90999985    1.00000000
   12.34972191   -1.00000000    4.90999985    1.00000000
   12.35277843   70.92510223    4.90999985    1.00000000
   12.35916710   70.92510223    4.90999985    1.00000000
   12.36305618   -1.00000000    4.90999985    1.00000000
   12.36638927   -1.00000000    4.90999985    1.00000000
   12.36972237   -1.00000000    4.90999985    1.00000000
   12.37277794   -1.00000000    4.90999985    1.00000000
   12.37611103   -1.00000000    4.90999985    1.00000000
   12.37944412   -1.00000000    4.90999985    1.00000000
   12.38249969   -1.00000000    4.90999985    1.00000000
   12.38583279   -1.00000000    4.90999985    1.00000000
   12.38888836   -1.00000000    4.90999985    1.00000000
   12.39222240   -1.00000000    4.90999985    1.00000000
   12.39555550   -1.00000000    4.90999985    1.00000000
   12.40583324   -1.00000000    4.90999985    1.00000000
   12.40916634   -1.00000000    4.90999985    1.00000000
   12.41249943   -1.00000000    4.90999985    1.00000000
   12.41555500   -1.00000000    4.90999985    1.00000000
   12.41888905   -1.00000000    4.90999985    1.00000000
   12.42194462   -1.00000000    4.90999985    1.00000000
   12.42527771   -1.00000000    4.90999985    1.00000000
   12.42861176   -1.00000000    4.90999985    1.00000000
   12.43194485   -1.00000000    4.90999985    1.00000000
   12.43527794   -1.00000000    4.90999985    1.00000000
   12.43833351   -1.00000000    4.90999985    1.00000000
   12.44888878   -1.00000000    4.90999985    1.00000000
   12.45194435   -1.00000000    4.90999985    1.00000000
   12.45527744   -1.00000000    4.90999985    1.00000000
   12.45833302   -1.00000000    4.90999985    1.00000000
   12.46166611   -1.00000000    4.90999985    1.00000000
   12.46527767   -1.00000000    4.90999985    1.00000000
   12.46861076   -1.00000000    4.90999985    1.00000000
   12.47166634   -1.00000000    4.90999985    1.00000000
   12.47499943   -1.00000000    4.90999985    1.00000000
   12.47805500   -1.00000000    4.90999985    1.00000000
   12.48138809   -1.00000000    4.90999985    1.00000000
   12.49166679   -1.00000000    4.90999985    1.00000000
   12.49472237   -1.00000000    4.90999985    1.00000000
   12.49833393   -1.00000000    4.90999985    1.00000000
   12.50166702   -1.00000000    4.90999985    1.00000000
   12.50472260   -1.00000000    4.90999985    1.00000000
   12.50805569   -1.00000000    4.90999985    1.00000000
   12.51111126   -1.00000000    4.90999985    1.00000000
   12.51444435   -1.00000000    4.90999985    1.00000000
   12.51777744   -1.00000000    4.90999985    1.00000000
   12.52083302   -1.00000000    4.90999985    1.00000000
   12.52416611   -1.00000000    4.90999985    1.00000000
   12.53444481   -1.00000000    4.90999985    1.00000000
   12.53777790   -1.00000000    4.90999985    1.00000000
   12.54083347   -1.00000000    4.90999985    1.00000000
   12.54416752   -1.00000000    4.90999985    1.00000000
   12.54750061   -1.00000000    4.90999985    1.00000000
   12.55055618   -1.00000000    4.90999985    1.00000000
   12.55388927   -1.00000000    4.90999985    1.00000000
   12.55694485   -1.00000000    4.90999985    1.00000000
   12.56027794   -1.00000000    4.90999985    1.00000000
   12.56388950   -1.00000000    4.90999985    1.00000000
   12.56722260   -1.00000000    4.90999985    1.00000000
   12.57722187   -1.00000000    4.90999985    1.00000000
   12.58055592   -1.00000000    4.90999985    1.00000000
   12.58388901   -1.00000000    4.90999985    1.00000000
   12.58694458   -1.00000000    4.90999985    1.00000000
   12.59027767   -1.00000000    4.90999985    1.00000000
   12.59361076   -1.00000000    4.90999985    1.00000000
   12.59694386   -1.00000000    4.90999985    1.00000000
   12.60027790   -1.00000000    4.90999985    1.00000000
   12.60333347   -1.00000000    4.90999985    1.00000000
   12.60666752   -1.00000000    4.90999985    1.00000000
   12.60972214   -1.00000000    4.90999985    1.00000000
   12.61611176   -1.00000000    4.90999985    1.00000000
   12.62027836   -1.00000000    4.90999985    1.00000000
   12.62361145   -1.00000000    4.90999985    1.00000000
   12.62666702   -1.00000000    4.90999985    1.00000000
   12.63027763   -1.00000000    4.90999985    1.00000000
   12.63361073   -1.00000000    4.90999985    1.00000000
   12.63666630   -1.00000000    4.90999985    1.00000000
   12.64000034   -1.00000000    4.90999985    1.00000000
   12.64305496   -1.00000000    4.90999985    1.00000000
   12.64638901   -1.00000000    4.90999985    1.00000000
   12.64972210   -1.00000000    4.90999985    1.00000000
   12.65277767   -1.00000000    4.90999985    1.00000000
   12.66305542   -1.00000000    4.90999985    1.00000000
   12.66611099   -1.00000000    4.90999985    1.00000000
   12.66944504   -1.00000000    4.90999985    1.00000000
   12.67277813   -1.00000000    4.90999985    1.00000000
   12.67583370   -1.00000000    4.90999985    1.00000000
   12.67916679   -1.00000000    4.90999985    1.00000000
   12.68249989   -1.00000000    4.90999985    1.00000000
   12.68555546   -1.00000000    4.90999985    1.00000000
   12.68888855   -1.00000000    4.90999985    1.00000000
   12.69194412   -1.00000000    4.90999985    1.00000000
   12.69527817   -1.00000000    4.90999985    1.00000000
   12.70583344   -1.00000000    4.90999985    1.00000000
   12.70916653   -1.00000000    4.90999985    1.00000000
   12.71222210   -1.00000000    4.90999985    1.00000000
   12.71555519   -1.00000000    4.90999985    1.00000000
   12.71888828   -1.00000000    4.90999985    1.00000000
   12.72194386   -1.00000000    4.90999985    1.00000000
   12.72527695   -1.00000000    4.90999985    1.00000000
   12.72833252   -1.00000000    4.90999985    1.00000000
   12.73194408   -1.00000000    4.90999985    1.00000000
   12.73527813   -1.00000000    4.90999985    1.00000000
   12.73833370   -1.00000000    4.90999985    1.00000000
   12.74861145   -1.00000000    4.90999985    1.00000000
   12.75194454   -1.00000000    4.90999985    1.00000000
   12.75527763   -1.00000000    4.90999985    1.00000000
   12.75833321   -1.00000000    4.90999985    1.00000000
   12.76166630   -1.00000000    4.90999985    1.00000000
   12.76500034   -1.00000000    4.90999985    1.00000000
   12.76833344   -1.00000000    4.90999985    1.00000000
   12.77138901   -1.00000000    4.90999985    1.00000000
   12.77472210   -1.00000000    4.90999985    1.00000000
   12.77805519   -1.00000000    4.90999985    1.00000000
   12.78111076   -1.00000000    4.90999985    1.00000000
   12.79166698   -1.00000000    4.90999985    1.00000000
   12.79472256   -1.00000000    4.90999985    1.00000000
   12.79833412   -1.00000000    4.90999985    1.00000000
   12.80166721   -1.00000000    4.90999985    1.00000000
   12.80472279   -1.00000000    4.90999985    1.00000000
   12.80805588   -1.00000000    4.90999985    1.00000000
   12.81138897   -1.00000000    4.90999985    1.00000000
   12.81444454   -1.00000000    4.90999985    1.00000000
   12.81777763   -1.00000000    4.90999985    1.00000000
   12.82083321   -1.00000000    4.90999985    1.00000000
   12.82416630   -1.00000000    4.90999985    1.00000000
   12.83444405   -1.00000000    4.90999985    1.00000000
   12.83749962   -1.00000000    4.90999985    1.00000000
   12.84083271   -1.00000000    4.90999985    1.00000000
   12.84416676   -1.00000000    4.90999985    1.00000000
   12.84722233   -1.00000000    4.90999985    1.00000000
   12.85055637   -1.00000000    4.90999985    1.00000000
   12.85388947   -1.00000000    4.90999985    1.00000000
   12.85694504   -1.00000000    4.90999985    1.00000000
   12.86027813   -1.00000000    4.90999985    1.00000000
   12.86361122   -1.00000000    4.90999985    1.00000000
   12.86694431   -1.00000000    4.90999985    1.00000000
   12.87722206   -1.00000000    4.90999985    1.00000000
   12.88055611   -1.00000000    4.90999985    1.00000000
   12.88361073   -1.00000000    4.90999985    1.00000000
   12.88694477   -1.00000000    4.90999985    1.00000000
   12.89027786   -1.00000000    4.90999985    1.00000000
   12.89333344   -1.00000000    4.90999985    1.00000000
   12.89694405   -1.00000000    4.90999985    1.00000000
   12.90027714   -1.00000000    4.90999985    1.00000000
   12.90333271   -1.00000000    4.90999985    1.00000000
   12.90666676   -1.00000000    4.90999985    1.00000000
   12.90999985   -1.00000000    4.90999985    1.00000000
   12.92000008   -1.00000000    4.90999985    1.00000000
   12.92333412   -1.00000000    4.90999985    1.00000000
   12.92666721   -1.00000000    4.90999985    1.00000000
   12.93000031   -1.00000000    4.90999985    1.00000000
   12.93333340   -1.00000000    4.90999985    1.00000000
   12.93638897   -1.00000000    4.90999985    1.00000000
   12.93972206   -1.00000000    4.90999985    1.00000000
   12.94305515   -1.00000000    4.90999985    1.00000000
   12.94611073   -1.00000000    4.90999985    1.00000000
   12.94944477   -1.00000000    4.90999985    1.00000000
   12.95249939   -1.00000000    4.90999985    1.00000000
   12.96305561   -1.00000000    4.90999985    1.00000000
   12.96611118   -1.00000000    4.90999985    1.00000000
   12.96944427   -1.00000000    4.90999985    1.00000000
   12.97249985   -1.00000000    4.90999985    1.00000000
   12.97583294   -1.00000000    4.90999985    1.00000000
   14.03666687  263.82101440    4.90999985    1.00000000
   14.03972244   23.57019997    4.90999985    1.00000000
   14.04305553   -1.00000000    4.90999985    1.00000000
   14.04611111  205.91999817    4.90999985    1.00000000
   14.04944515  245.12500000    4.90999985    1.00000000
   14.05361176  245.12500000    4.90999985    1.00000000
   14.05777836  109.56999969    4.90999985    1.00000000
   14.06111145  109.72200012    4.90999985    1.00000000
   14.06416702  109.97799683    4.90999985    1.00000000
   14.06666660  129.73899841    4.90999985    1.00000000
   14.06805515  146.55900574    4.90999985    1.00000000
   14.07138920  166.40800476    4.90999985    1.00000000
   14.07444477  143.93099976    4.90999985    1.00000000
   14.07777786  149.66099548    4.90999985    1.00000000
   14.08083344  119.43299866    4.90999985    1.00000000
   14.08416653  139.97999573    4.90999985    1.00000000
   14.08749962  148.88000488    4.90999985    1.00000000
   14.09055519  191.58799744    4.90999985    1.00000000
   14.09638882  191.58799744    4.90999985    1.00000000
   14.10055637  115.85199738    4.90999985    1.00000000
   14.10388947  144.83299255    4.90999985    1.00000000
   14.10722256  287.94601440    4.90999985    1.00000000
   14.11027813  253.92999268    4.90999985    1.00000000
   14.11361122  258.06100464    4.90999985    1.00000000
   14.11666679  130.10499573    4.90999985    1.00000000
   14.11999989  246.49299622    4.90999985    1.00000000
   14.12333393  278.75900269    4.90999985    1.00000000
   14.12638855  220.91799927    4.90999985    1.00000000
   14.12972260  311.18399048    4.90999985    1.00000000
   14.13305569  232.92599487    4.90999985    1.00000000
   14.13333321  163.20899963    4.90999985    1.00000000
   14.13944435  163.20899963    4.90999985    1.00000000
   14.14361095   -1.00000000    4.90999985    1.00000000
   14.14666653   68.59200287    4.90999985    1.00000000
   14.14999962   -1.00000000    4.90999985    1.00000000
   14.15305519   -1.00000000    4.90999985    1.00000000
   14.15638828   -1.00000000    4.90999985    1.00000000
   14.15972137   -1.00000000    4.90999985    1.00000000
   14.16277695   -1.00000000    4.90999985    1.00000000
   14.16611099   -1.00000000    4.90999985    1.00000000
   14.16972256   -1.00000000    4.90999985    1.00000000
   14.17277813   -1.00000000    4.90999985    1.00000000
   14.17611122  114.15699768    4.90999985    1.00000000
   14.18222237  114.15699768    4.90999985    1.00000000
   14.18638897   -1.00000000   -1.00000000   -1.00000000
   14.18944454   95.14260101    4.90999985    1.00000000
   14.19277763  106.49199677    4.90999985    1.00000000
   14.19611073  276.00201416    4.90999985    1.00000000
   14.19916630  215.88600159    4.90999985    1.00000000
   14.19999981  105.74299622    4.90999985    1.00000000
   14.20277786   -1.00000000    4.90999985    1.00000000
   14.20611095  214.38600159    4.90999985    1.00000000
   14.20916653  110.31900024    4.90999985    1.00000000
   14.21249962  294.54299927    4.90999985    1.00000000
   14.21583271   89.44010162    4.90999985    1.00000000
   14.21888828  113.58699799    4.90999985    1.00000000
   14.22499943  113.58699799    4.90999985    1.00000000
   14.22916603  154.09899902    4.90999985    1.00000000
   14.23249912  113.95800018    4.90999985    1.00000000
   14.23361111  111.67900085    4.90999985    1.00000000
   14.23611164  105.29900360    4.90999985    1.00000000
   14.23944473  109.21800232    4.90999985    1.00000000
   14.24250031  110.89900208    4.90999985    1.00000000
   14.24583340  151.33799744    4.90999985    1.00000000
   14.24916649  196.48500061    4.90999985    1.00000000
   14.25222206  148.00500488    4.90999985    1.00000000
   14.25555515  122.55100250    4.90999985    1.00000000
   14.25888920  149.07200623    4.90999985    1.00000000
   14.26194477  116.63200378    4.90999985    1.00000000
   14.26777744  116.63200378    4.90999985    1.00000000
   14.27194405  177.99299622    4.90999985    1.00000000
   14.27527714   -1.00000000    4.90999985    1.00000000
   14.27861118   -1.00000000    4.90999985    1.00000000
   14.28166676   -1.00000000    4.90999985    1.00000000
   14.28500080   -1.00000000    4.90999985    1.00000000
   14.28833389   -1.00000000    4.90999985    1.00000000
   14.29138947   -1.00000000    4.90999985    1.00000000
   14.29472256   -1.00000000    4.90999985    1.00000000
   14.29777813   -1.00000000    4.90999985    1.00000000
   14.30138874   -1.00000000    4.90999985    1.00000000
   14.30444431   -1.00000000    4.90999985    1.00000000
   14.31083393   -1.00000000    4.90999985    1.00000000
   14.31500053  129.40499878    4.90999985    1.00000000
   14.31805515  139.68899536    4.90999985    1.00000000
   14.32138920  161.68499756    4.90999985    1.00000000
   14.32444477  119.48400116    4.90999985    1.00000000
   14.32777786  208.65100098    4.90999985    1.00000000
   14.33111095  255.88999939    4.90999985    1.00000000
   14.33361053  148.94400024    4.90999985    1.00000000
   14.33472157  135.95700073    4.90999985    1.00000000
   14.33805561  128.05000305    4.90999985    1.00000000
   14.34111118  119.06900024    4.90999985    1.00000000
   14.34444427  109.81999969    4.90999985    1.00000000
   14.34777737  108.23799896    4.90999985    1.00000000
   14.35361195  108.23799896    4.90999985    1.00000000
   14.35777855  123.74199677    4.90999985    1.00000000
   14.36083412  118.76599884    4.90999985    1.00000000
   14.36416721  139.70700073    4.90999985    1.00000000
   14.36694431  149.48599243    4.90999985    1.00000000
   14.36777782  157.85000610    4.90999985    1.00000000
   14.37111092  135.74000549    4.90999985    1.00000000
   14.37416649  147.42399597    4.90999985    1.00000000
   14.37750053  118.99700165    4.90999985    1.00000000
   14.38083363  121.22799683    4.90999985    1.00000000
   14.38388920  164.79800415    4.90999985    1.00000000
   14.38722229  161.44799805    4.90999985    1.00000000
   14.39055538  119.89600372    4.90999985    1.00000000
   14.39638901  119.89600372    4.90999985    1.00000000
   14.40055561  162.46699524    4.90999985    1.00000000
   14.40388870  325.02301025    4.90999985    1.00000000
   14.40694427   -1.00000000    4.90999985    1.00000000
   14.41027737   -1.00000000    4.90999985    1.00000000
   14.41361046   35.00699997    4.90999985    1.00000000
   14.41666698   -1.00000000    4.90999985    1.00000000
   14.42000008  198.91299438    4.90999985    1.00000000
   14.42305565  134.08200073    4.90999985    1.00000000
   14.42638874  161.99699402    4.90999985    1.00000000
   14.42972279  179.27299500    4.90999985    1.00000000
   14.43277836  144.85200500    4.90999985    1.00000000
   14.43361092  134.64300537    4.90999985    1.00000000
   14.43916702  134.64300537    4.90999985    1.00000000
   14.44333363  122.30300140    4.90999985    1.00000000
   14.44666672  117.43000031    4.90999985    1.00000000
   14.44999981  113.15599823    4.90999985    1.00000000
   14.45305538  120.07099915    4.90999985    1.00000000
   14.45638847  115.77300262    4.90999985    1.00000000
   14.45944405  118.49800110    4.90999985    1.00000000
   14.46277714  131.98800659    4.90999985    1.00000000
   14.46611118  105.80699921    4.90999985    1.00000000
   14.46694374  110.54299927    4.90999985    1.00000000
   14.46944427  115.82299805    4.90999985    1.00000000
   14.47277737  115.78099823    4.90999985    1.00000000
   14.47611046  109.31199646    4.90999985    1.00000000
   14.48222160  109.31199646    4.90999985    1.00000000
   14.48638916  294.77301025    4.90999985    1.00000000
   14.48944473  246.16200256    4.90999985    1.00000000
   14.49277782  259.58801270    4.90999985    1.00000000
   14.49611092   23.57019997    4.90999985    1.00000000
   14.49916649  233.55999756    4.90999985    1.00000000
   14.50027752  310.10501099    4.90999985    1.00000000
   14.50277805  298.21099854    4.90999985    1.00000000
   14.50611115  199.89999390    4.90999985    1.00000000
   14.50944424  310.68899536    4.90999985    1.00000000
   14.51249981  155.15899658    4.90999985    1.00000000
   14.51583290   -1.00000000    4.90999985    1.00000000
   14.51888847  271.25500488    4.90999985    1.00000000
   14.52499962  271.25500488    4.90999985    1.00000000
   14.52916622  223.51400757    4.90999985    1.00000000
   14.53222179  238.72999573    4.90999985    1.00000000
   14.53361130  280.49700928    4.90999985    1.00000000
   14.53583336  290.91799927    4.90999985    1.00000000
   14.53916740  296.31600952    4.90999985    1.00000000
   14.54250050  225.29299927    4.90999985    1.00000000
   14.54555607  211.79499817    4.90999985    1.00000000
   14.54888916  203.28700256    4.90999985    1.00000000
   14.55194473  156.91799927    4.90999985    1.00000000
   14.55527782  190.72300720    4.90999985    1.00000000
   14.55861092  294.79000854    4.90999985    1.00000000
   14.56166649  275.12298584    4.90999985    1.00000000
   14.56777763  275.12298584    4.90999985    1.00000000
   14.57194424  142.43499756    4.90999985    1.00000000
   14.57527733  240.01499939    4.90999985    1.00000000
   14.57833290   64.82319641    4.90999985    1.00000000
   14.58166695   90.81639862    4.90999985    1.00000000
   14.58500004  307.94500732    4.90999985    1.00000000
   14.58805561  299.25100708    4.90999985    1.00000000
   14.59138870  168.85800171    4.90999985    1.00000000
   14.59444427  154.80900574    4.90999985    1.00000000
   14.59777737  267.47000122    4.90999985    1.00000000
   14.60027790  180.28900146    4.90999985    1.00000000
   14.60138893  100.72599792    4.90999985    1.00000000
   14.60472298   93.43009949    4.90999985    1.00000000
   14.61083412   93.43009949    4.90999985    1.00000000
   14.61472225  118.97299957    4.90999985    1.00000000
   14.61805534   68.91220093    4.90999985    1.00000000
   14.62138939  269.28900146    4.90999985    1.00000000
   14.62444496  151.30599976    4.90999985    1.00000000
   14.62777805  103.07900238    4.90999985    1.00000000
   14.63111115   -1.00000000    4.90999985    1.00000000
   14.63444424   -1.00000000    4.90999985    1.00000000
   14.63777733   -1.00000000    4.90999985    1.00000000
   14.64083290   -1.00000000    4.90999985    1.00000000
   14.64416695   -1.00000000    4.90999985    1.00000000
   14.64722252   -1.00000000    4.90999985    1.00000000
   14.65361118   -1.00000000    4.90999985    1.00000000
   14.65777779  329.52600098    4.90999985    1.00000000
   14.66083336  182.05099487    4.90999985    1.00000000
   14.66416645  191.16999817    4.90999985    1.00000000
   14.66694450  142.68699646    4.90999985    1.00000000
   14.66777802  153.53399658    4.90999985    1.00000000
   14.67111111  143.22700500    4.90999985    1.00000000
   14.67444515  179.06500244    4.90999985    1.00000000
   14.67750072  123.16500092    4.90999985    1.00000000
   14.68083382  120.97799683    4.90999985    1.00000000
   14.68388939  105.52100372    4.90999985    1.00000000
   14.68722248  123.97299957    4.90999985    1.00000000
   14.69055557  103.46299744    4.90999985    1.00000000
   14.69638920  103.46299744    4.90999985    1.00000000
   14.70055580  109.60900116    4.90999985    1.00000000
   14.70361137  103.00099945    4.90999985    1.00000000
   14.70694447  107.28099823    4.90999985    1.00000000
   14.71027756  104.97899628    4.90999985    1.00000000
   14.71361065  115.70200348    4.90999985    1.00000000
   14.71666622  108.17299652    4.90999985    1.00000000
   14.71999931  106.17500305    4.90999985    1.00000000
   14.72305489  114.55599976    4.90999985    1.00000000
   14.72638798  119.27999878    4.90999985    1.00000000
   14.72972202  123.59999847    4.90999985    1.00000000
   14.73277760  128.13999939    4.90999985    1.00000000
   14.73361111  132.65400696    4.90999985    1.00000000
   14.73916721  132.65400696    4.90999985    1.00000000
   14.74333382  120.53900146    4.90999985    1.00000000
   14.74666691  130.28100586    4.90999985    1.00000000
   14.74972248  255.50000000    4.90999985    1.00000000
   14.75305557  307.84698486    4.90999985    1.00000000
   14.75638866   -1.00000000    4.90999985    1.00000000
   14.75944424   -1.00000000    4.90999985    1.00000000
   14.76277733   -1.00000000    4.90999985    1.00000000
   14.76583290   -1.00000000    4.90999985    1.00000000
   14.76944447   -1.00000000    4.90999985    1.00000000
   14.77277756   -1.00000000    4.90999985    1.00000000
   14.77583313   -1.00000000    4.90999985    1.00000000
   14.78611183   -1.00000000    4.90999985    1.00000000
   14.78944492   -1.00000000    4.90999985    1.00000000
   14.79250050   -1.00000000    4.90999985    1.00000000
   14.79583359   -1.00000000    4.90999985    1.00000000
   14.79916668   -1.00000000    4.90999985    1.00000000
   14.80249977   -1.00000000    4.90999985    1.00000000
   14.80583382   -1.00000000    4.90999985    1.00000000
   14.80888939   -1.00000000    4.90999985    1.00000000
   14.81222248  198.16400146    4.90999985    1.00000000
   14.81555557  249.08099365    4.90999985    1.00000000
   14.81861115   44.95869827    4.90999985    1.00000000
   14.82499981   44.95869827    4.90999985    1.00000000
   14.82916641  201.75999451    4.90999985    1.00000000
   14.83222198  127.83899689    4.90999985    1.00000000
   14.83361053  123.63999939    4.90999985    1.00000000
   14.83583260  114.58599854    4.90999985    1.00000000
   14.83916664  154.14599609    4.90999985    1.00000000
   14.84249973  176.27099609    4.90999985    1.00000000
   14.84555531  114.81700134    4.90999985    1.00000000
   14.84888840  118.37000275    4.90999985    1.00000000
   14.85222244  109.50499725    4.90999985    1.00000000
   14.85527802  127.97899628    4.90999985    1.00000000
   14.85861111  119.41000366    4.90999985    1.00000000
   14.86166668  111.22799683    4.90999985    1.00000000
   14.86777782  111.22799683    4.90999985    1.00000000
   14.87194443  121.68599701    4.90999985    1.00000000
   14.87500000  101.58499908    4.90999985    1.00000000
   14.87833309  103.26499939    4.90999985    1.00000000
   14.88166714  107.16400146    4.90999985    1.00000000
   14.88472176  106.56300354    4.90999985    1.00000000
   14.88805580  107.08200073    4.90999985    1.00000000
   14.89138889  103.12200165    4.90999985    1.00000000
   14.89444447   96.05970001    4.90999985    1.00000000
   14.89777756  106.95300293    4.90999985    1.00000000
   14.90027714  102.86399841    4.90999985    1.00000000
   14.90111065   96.40550232    4.90999985    1.00000000
   14.90444374   99.53620148    4.90999985    1.00000000
   14.91055489   99.53620148    4.90999985    1.00000000
   14.91472149  109.37200165    4.90999985    1.00000000
   14.91805553  101.93299866    4.90999985    1.00000000
   14.92111111  107.90000153    4.90999985    1.00000000
   14.92444515  100.34100342    4.90999985    1.00000000
   14.92777824   99.57810211    4.90999985    1.00000000
   14.93083382  103.35299683    4.90999985    1.00000000
   14.93361092  104.21099854    4.90999985    1.00000000
   14.93444443  113.91100311    4.90999985    1.00000000
   14.93777752  104.29399872    4.90999985    1.00000000
   14.94111156  102.87300110    4.90999985    1.00000000
   14.94416714   95.74189758    4.90999985    1.00000000
   14.94750023  103.57599640    4.90999985    1.00000000
   14.95333290  103.57599640    4.90999985    1.00000000
   14.95749950  103.31999969    4.90999985    1.00000000
   14.96083355  101.16799927    4.90999985    1.00000000
   14.96416664  101.35800171    4.90999985    1.00000000
   14.96694374  104.98200226    4.90999985    1.00000000
   14.96777725   98.01200104    4.90999985    1.00000000
   14.97083282  104.44000244    4.90999985    1.00000000
   14.97416592  104.99600220    4.90999985    1.00000000
   14.97722149   98.61990356    4.90999985    1.00000000
   14.98055553  104.69699860    4.90999985    1.00000000
   14.98388958   93.88549805    4.90999985    1.00000000
   14.98694515  107.95999908    4.90999985    1.00000000
   14.99027824  108.09500122    4.90999985    1.00000000
   14.99638939  108.09500122    4.90999985    1.00000000
   15.00055599  111.57499695    4.90999985    1.00000000
   15.10083389   -1.00000000   -1.00000000   -1.00000000
   15.20472240   -1.00000000   -1.00000000   -1.00000000
   15.31444454   -1.00000000   -1.00000000   -1.00000000
   15.51472187  125.29199982    4.90999985    1.00000000
   15.51805496  128.42300415    4.90999985    1.00000000
   15.52138901  136.64999390    4.90999985    1.00000000
   15.52444458  137.45500183    4.90999985    1.00000000
   15.52777767  136.22799683    4.90999985    1.00000000
   15.53111076  141.07099915    4.90999985    1.00000000
   15.53527832  141.07099915    4.90999985    1.00000000
   15.53916740  152.16600037    4.90999985    1.00000000
   15.54250050  144.76199341    4.90999985    1.00000000
   15.54583359  186.20100403    4.90999985    1.00000000
   15.54805565  140.58900452    4.90999985    1.00000000
   15.54944515  168.77099609    4.90999985    1.00000000
   15.55277824  152.91700745    4.90999985    1.00000000
   15.55583382  168.92599487    4.90999985    1.00000000
   15.55916691  186.30299377    4.90999985    1.00000000
   15.56250000  194.00399780    4.90999985    1.00000000
   15.56555557  169.14500427    4.90999985    1.00000000
   15.56888866  307.42401123    4.90999985    1.00000000
   15.57194424  196.17999268    4.90999985    1.00000000
   15.57805538  196.17999268    4.90999985    1.00000000
   15.58222198  147.19000244    4.90999985    1.00000000
   15.58527756  280.12500000    4.90999985    1.00000000
   15.58861065  208.10000610    4.90999985    1.00000000
   15.59166622   -1.00000000    4.90999985    1.00000000
   15.59499931   -1.00000000    4.90999985    1.00000000
   15.59833336   -1.00000000    4.90999985    1.00000000
   15.60138893   52.49869919    4.90999985    1.00000000
   15.60472298   -1.00000000    4.90999985    1.00000000
   15.60805607   -1.00000000    4.90999985    1.00000000
   15.61111164  293.92401123    4.90999985    1.00000000
   15.61444473  154.74899292    4.90999985    1.00000000
   15.61500072  100.13500214    4.90999985    1.00000000
   15.62083340  100.13500214    4.90999985    1.00000000
   15.62500000  253.45799255    4.90999985    1.00000000
   15.62805557  228.60200500    4.90999985    1.00000000
   15.63138866  306.23300171    4.90999985    1.00000000
   15.63472176   -1.00000000    4.90999985    1.00000000
   15.63777733  232.24800110    4.90999985    1.00000000
   15.64111137  251.53999329    4.90999985    1.00000000
   15.64444447  185.67799377    4.90999985    1.00000000
   15.64750004  180.30599976    4.90999985    1.00000000
   15.64833355  192.55299377    4.90999985    1.00000000
   15.65111065  236.23399353    4.90999985    1.00000000
   15.65444374  172.35000610    4.90999985    1.00000000
   15.65777779  155.08000183    4.90999985    1.00000000
   15.66361046  155.08000183    4.90999985    1.00000000
   15.66777802  324.09600830    4.90999985    1.00000000
   15.67111111  192.09599304    4.90999985    1.00000000
   15.67416668  168.58500671    4.90999985    1.00000000
   15.67750072  212.95799255    4.90999985    1.00000000
   15.68083382  150.94799805    4.90999985    1.00000000
   15.68166733  152.95899963    4.90999985    1.00000000
   15.68416691  126.76000214    4.90999985    1.00000000
   15.68750000  126.60700226    4.90999985    1.00000000
   15.69083309  131.44000244    4.90999985    1.00000000
   15.69388866  114.57700348    4.90999985    1.00000000
   15.69722271  114.84200287    4.90999985    1.00000000
   15.70055580  113.82700348    4.90999985    1.00000000
   15.70666695  113.82700348    4.90999985    1.00000000
   15.71055508  121.84999847    4.90999985    1.00000000
   15.71388912  125.14099884    4.90999985    1.00000000
   15.71500015  134.37199402    4.90999985    1.00000000
   15.71749973  122.22200012    4.90999985    1.00000000
   15.72083282  115.18800354    4.90999985    1.00000000
   15.72416592  106.00000000    4.90999985    1.00000000
   15.72722149  116.71399689    4.90999985    1.00000000
   15.73055553  116.99199677    4.90999985    1.00000000
   15.73388958  133.39799500    4.90999985    1.00000000
   15.73694515  148.62800598    4.90999985    1.00000000
   15.74027824  154.91499329    4.90999985    1.00000000
   15.74333382  145.27600098    4.90999985    1.00000000
   15.74944496  145.27600098    4.90999985    1.00000000
   15.75361156  158.49200439    4.90999985    1.00000000
   15.75666714  273.28500366    4.90999985    1.00000000
   15.76000023  178.01400757    4.90999985    1.00000000
   15.76305580  258.43399048    4.90999985    1.00000000
   15.76638889  124.88700104    4.90999985    1.00000000
   15.76972198  121.92299652    4.90999985    1.00000000
   15.77277756  201.97399902    4.90999985    1.00000000
   15.77611065   71.59349823    4.90999985    1.00000000
   15.77944374  293.58599854    4.90999985    1.00000000
   15.78166676  173.51199341    4.90999985    1.00000000
   15.78305531  157.76699829    4.90999985    1.00000000
   15.78611183  201.47700500    4.90999985    1.00000000
   15.79222298  201.47700500    4.90999985    1.00000000
   15.79638958  124.43000031    4.90999985    1.00000000
   15.79972267  125.02799988    4.90999985    1.00000000
   15.80277824  113.88999939    4.90999985    1.00000000
   15.80611134  125.48000336    4.90999985    1.00000000
   15.80916691  119.57299805    4.90999985    1.00000000
   15.81250000  102.25700378    4.90999985    1.00000000
   15.81500053  115.41200256    4.90999985    1.00000000
   15.81638908  110.78700256    4.90999985    1.00000000
   15.81944466  123.16699982    4.90999985    1.00000000
   15.82277775  129.41299438    4.90999985    1.00000000
   15.82583332  111.80599976    4.90999985    1.00000000
   15.82916641  102.72699738    4.90999985    1.00000000
   15.83500004  102.72699738    4.90999985    1.00000000
   15.83916664   93.56710052    4.90999985    1.00000000
   15.84249973  110.18299866    4.90999985    1.00000000
   15.84555531  113.24099731    4.90999985    1.00000000
   15.84833336  108.91100311    4.90999985    1.00000000
   15.84916592  108.45899963    4.90999985    1.00000000
   15.85249996  107.86900330    4.90999985    1.00000000
   15.85583401  105.81600189    4.90999985    1.00000000
   15.85916710  103.29799652    4.90999985    1.00000000
   15.86222267  108.95999908    4.90999985    1.00000000
   15.86555576   96.20259857    4.90999985    1.00000000
   15.86888885  106.44200134    4.90999985    1.00000000
   15.87194443  106.09500122    4.90999985    1.00000000
   15.87805557  106.09500122    4.90999985    1.00000000
   15.88194466  105.07800293    4.90999985    1.00000000
   15.88527775  109.85900116    4.90999985    1.00000000
   15.88861084  114.60700226    4.90999985    1.00000000
   15.89166641  103.84999847    4.90999985    1.00000000
   15.89499950   98.82060242    4.90999985    1.00000000
   15.89805508  102.16899872    4.90999985    1.00000000
   15.90138817  104.17500305    4.90999985    1.00000000
   15.90472221  106.17700195    4.90999985    1.00000000
   15.90777779   94.34390259    4.90999985    1.00000000
   15.91111088  112.13200378    4.90999985    1.00000000
   15.91444397  108.05300140    4.90999985    1.00000000
   15.91499996  124.11499786    4.90999985    1.00000000
   15.92083359  124.11499786    4.90999985    1.00000000
   15.92500019  103.48300171    4.90999985    1.00000000
   15.92805576  109.35099792    4.90999985    1.00000000
   15.93138885  118.21099854    4.90999985    1.00000000
   15.93444443  128.54600525    4.90999985    1.00000000
   15.93777752  131.28999329    4.90999985    1.00000000
   15.94111156  119.58799744    4.90999985    1.00000000
   15.94416714  109.35299683    4.90999985    1.00000000
   15.94750023  106.37699890    4.90999985    1.00000000
   15.94833374  104.98600006    4.90999985    1.00000000
   15.95138836  112.89499664    4.90999985    1.00000000
   15.95444393  108.43099976    4.90999985    1.00000000
   15.95777798  107.09700012    4.90999985    1.00000000
   15.96361065  107.09700012    4.90999985    1.00000000
   15.96777725  102.95300293    4.90999985    1.00000000
   15.97083282   99.11769867    4.90999985    1.00000000
   15.97416592  105.26000214    4.90999985    1.00000000
   15.97749996  105.93299866    4.90999985    1.00000000
   15.98055553  104.94400024    4.90999985    1.00000000
   15.98166656  102.77600098    4.90999985    1.00000000
   15.98444462  104.67700195    4.90999985    1.00000000
   15.98750019   98.85230255    4.90999985    1.00000000
   15.99083328   97.80699921    4.90999985    1.00000000
   15.99416733  101.46199799    4.90999985    1.00000000
   15.99722290  105.40799713    4.90999985    1.00000000
   16.00055504  102.81300354    4.90999985    1.00000000
   16.00638962  102.81300354    4.90999985    1.00000000
   16.01055527  103.10199738    4.90999985    1.00000000
   16.01388931   96.71040344    4.90999985    1.00000000
   16.01499939  104.22000122    4.90999985    1.00000000
   16.01749992   98.92610168    4.90999985    1.00000000
   16.02055550  100.05200195    4.90999985    1.00000000
   16.02388954  109.04299927    4.90999985    1.00000000
   16.02694511  101.67299652    4.90999985    1.00000000
   16.03027725  102.83899689    4.90999985    1.00000000
   16.03361130  104.81800079    4.90999985    1.00000000
   16.03666687  100.35800171    4.90999985    1.00000000
   16.03999901  104.81500244    4.90999985    1.00000000
   16.04333305  105.37400055    4.90999985    1.00000000
   16.04916573  105.37400055    4.90999985    1.00000000
   16.05333328  102.81600189    4.90999985    1.00000000
   16.05666542   96.06420135    4.90999985    1.00000000
   16.05972099  103.14800262    4.90999985    1.00000000
   16.06305504   97.06510162    4.90999985    1.00000000
   16.06638718  105.57499695    4.90999985    1.00000000
   16.06944466  107.97399902    4.90999985    1.00000000
   16.07277870  112.20099640    4.90999985    1.00000000
   16.07611275  107.36699677    4.90999985    1.00000000
   16.07916832  104.88300323    4.90999985    1.00000000
   16.08166695  102.34899902    4.90999985    1.00000000
   16.08305550   93.70929718    4.90999985    1.00000000
   16.08611107  110.44300079    4.90999985    1.00000000
   16.09222221  110.44300079    4.90999985    1.00000000
   16.09611130  111.93800354    4.90999985    1.00000000
   16.09944534  114.13800049    4.90999985    1.00000000
   16.10277748  113.88800049    4.90999985    1.00000000
   16.10583305  112.02500153    4.90999985    1.00000000
   16.10916710  107.81300354    4.90999985    1.00000000
   16.11250114  111.30799866    4.90999985    1.00000000
   16.11499977  105.30100250    4.90999985    1.00000000
   16.11611176  115.64600372    4.90999985    1.00000000
   16.11916733  113.34899902    4.90999985    1.00000000
   16.12249947  108.61399841    4.90999985    1.00000000
   16.12555504  100.79000092    4.90999985    1.00000000
   16.12888908  112.69999695    4.90999985    1.00000000
   16.13500023  112.69999695    4.90999985    1.00000000
   16.13916588  102.23000336    4.90999985    1.00000000
   16.14222145  105.00499725    4.90999985    1.00000000
   16.14555550   97.79199982    4.90999985    1.00000000
   16.14833260  104.85099792    4.90999985    1.00000000
   16.14916611  108.01399994    4.90999985    1.00000000
   16.15222168  106.86399841    4.90999985    1.00000000
   16.15555573  100.53099823    4.90999985    1.00000000
   16.15861130  107.06999969    4.90999985    1.00000000
   16.16194344   98.54589844    4.90999985    1.00000000
   16.16527748  107.04199982    4.90999985    1.00000000
   16.16833305  105.59600067    4.90999985    1.00000000
   16.17166519  104.01699829    4.90999985    1.00000000
   16.17777634  104.01699829    4.90999985    1.00000000
   16.18194389  120.55000305    4.90999985    1.00000000
   16.18527603  122.30899811    4.90999985    1.00000000
   16.18833160  143.51499939    4.90999985    1.00000000
   16.19166565  104.58399963    4.90999985    1.00000000
   16.19499969  135.62199402    4.90999985    1.00000000
   16.19805527  128.45599365    4.90999985    1.00000000
   16.20138931  138.88000488    4.90999985    1.00000000
   16.20472336  291.53100586    4.90999985    1.00000000
   16.20777893  158.37399292    4.90999985    1.00000000
   16.21111107  149.69799805    4.90999985    1.00000000
   16.21444511  133.61000061    4.90999985    1.00000000
   16.21500015  167.14100647    4.90999985    1.00000000
   16.22055626  167.14100647    4.90999985    1.00000000
   16.22472191  117.30000305    4.90999985    1.00000000
   16.22805595  155.90199280    4.90999985    1.00000000
   16.23111153  129.55799866    4.90999985    1.00000000
   16.23444557   -1.00000000    4.90999985    1.00000000
   16.23777771   -1.00000000    4.90999985    1.00000000
   16.24083328  181.31799316    4.90999985    1.00000000
   16.24416733  193.07699585    4.90999985    1.00000000
   16.24749947  304.29098511    4.90999985    1.00000000
   16.24833298  280.32598877    4.90999985    1.00000000
   16.25111198  264.55200195    4.90999985    1.00000000
   16.25416756  180.43899536    4.90999985    1.00000000
   16.25749969  126.59100342    4.90999985    1.00000000
   16.26361084  126.59100342    4.90999985    1.00000000
   16.26749992  160.35699463    4.90999985    1.00000000
   16.27083397  118.56400299    4.90999985    1.00000000
   16.27416611  131.13499451    4.90999985    1.00000000
   16.27722168  133.47000122    4.90999985    1.00000000
   16.28055573  150.93899536    4.90999985    1.00000000
   16.28166580  127.82599640    4.90999985    1.00000000
   16.28416634  122.89800262    4.90999985    1.00000000
   16.28722191  137.16499329    4.90999985    1.00000000
   16.29055595  125.57199860    4.90999985    1.00000000
   16.29388809  110.77100372    4.90999985    1.00000000
   16.29694366  127.88700104    4.90999985    1.00000000
   16.30027771  133.47700500    4.90999985    1.00000000
   16.30638885  133.47700500    4.90999985    1.00000000
   16.31055450  127.82800293    4.90999985    1.00000000
   16.31361008  115.86299896    4.90999985    1.00000000
   16.31499863  100.67500305    4.90999985    1.00000000
   16.31750107  106.98799896    4.90999985    1.00000000
   16.32055664  102.26399994    4.90999985    1.00000000
   16.32389069  102.74099731    4.90999985    1.00000000
   16.32722282  102.19300079    4.90999985    1.00000000
   16.33027840  110.45099640    4.90999985    1.00000000
   16.33361244  109.07800293    4.90999985    1.00000000
   16.33666801  104.12300110    4.90999985    1.00000000
   16.34000015  103.92600250    4.90999985    1.00000000
   16.34333420   97.05989838    4.90999985    1.00000000
   16.34916687   97.05989838    4.90999985    1.00000000
   16.35333443  101.41300201    4.90999985    1.00000000
   16.35666656  105.10199738    4.90999985    1.00000000
   16.35972214  105.07199860    4.90999985    1.00000000
   16.36305618  112.17600250    4.90999985    1.00000000
   16.36638832  106.38600159    4.90999985    1.00000000
   16.36944389  106.57599640    4.90999985    1.00000000
   16.37277794  101.84600067    4.90999985    1.00000000
   16.37583351  101.76499939    4.90999985    1.00000000
   16.37916756  103.10399628    4.90999985    1.00000000
   16.38166618  103.31199646    4.90999985    1.00000000
   16.38277817   99.69930267    4.90999985    1.00000000
   16.38583374   99.86540222    4.90999985    1.00000000
   16.39194489   99.86540222    4.90999985    1.00000000
   16.39611053  110.90699768    4.90999985    1.00000000
   16.39944458  108.86399841    4.90999985    1.00000000
   16.40250015   95.88970184    4.90999985    1.00000000
   16.40583229   97.19570160    4.90999985    1.00000000
   16.40916634   97.54479980    4.90999985    1.00000000
   16.41222191  101.71800232    4.90999985    1.00000000
   16.41499901   98.05010223    4.90999985    1.00000000
   16.41611099   96.59519958    4.90999985    1.00000000
   16.41916656   99.15660095    4.90999985    1.00000000
   16.42249870  104.61399841    4.90999985    1.00000000
   16.42583275  105.49199677    4.90999985    1.00000000
   16.42888832  105.70500183    4.90999985    1.00000000
   16.43499947  105.70500183    4.90999985    1.00000000
   16.43888855  107.28199768    4.90999985    1.00000000
   16.44222069   99.55599976    4.90999985    1.00000000
   16.44555473   98.83699799    4.90999985    1.00000000
   16.44833183   99.54419708    4.90999985    1.00000000
   16.44916534   97.42539978    4.90999985    1.00000000
   16.45222282   97.77809906    4.90999985    1.00000000
   16.45555687  107.11199951    4.90999985    1.00000000
   16.45888901   99.94309998    4.90999985    1.00000000
   16.46194458  102.86799622    4.90999985    1.00000000
   16.46527863   96.02649689    4.90999985    1.00000000
   16.46861076  106.93099976    4.90999985    1.00000000
   16.47166634  102.20700073    4.90999985    1.00000000
   16.47777748  102.20700073    4.90999985    1.00000000
   16.48194504  104.92700195    4.90999985    1.00000000
   16.48500061  102.62799835    4.90999985    1.00000000
   16.48833275  102.42700195    4.90999985    1.00000000
   16.49166679  103.20300293    4.90999985    1.00000000
   16.49472237  101.41999817    4.90999985    1.00000000
   16.49805641   99.67019653    4.90999985    1.00000000
   16.50111198   99.21759796    4.90999985    1.00000000
   16.50444412   96.81340027    4.90999985    1.00000000
   16.50777817  106.98500061    4.90999985    1.00000000
   16.51083374  105.90000153    4.90999985    1.00000000
   16.51416588   94.29229736    4.90999985    1.00000000
   16.51499939  105.51499939    4.90999985    1.00000000
   16.53583336  105.51499939    4.90999985    1.00000000
   16.53999901   93.75499725    4.90999985    1.00000000
   16.54305458   94.74440002    4.90999985    1.00000000
   16.54638863   97.30940247    4.90999985    1.00000000
   16.54833221   97.87100220    4.90999985    1.00000000
   16.54999924   94.94550323    4.90999985    1.00000000
   16.55333328   95.22090149    4.90999985    1.00000000
   16.55638885  101.27899933    4.90999985    1.00000000
   16.55972099   98.22769928    4.90999985    1.00000000
   16.56277657   99.96739960    4.90999985    1.00000000
   16.56611061  100.97399902    4.90999985    1.00000000
   16.56944466   97.71040344    4.90999985    1.00000000
   16.57250023   88.54049683    4.90999985    1.00000000
   16.57861137   88.54049683    4.90999985    1.00000000
   16.58277893   99.11430359    4.90999985    1.00000000
   16.58583450   94.98179626    4.90999985    1.00000000
   16.58916664  100.51499939    4.90999985    1.00000000
   16.59222221  101.90499878    4.90999985    1.00000000
   16.59555626   98.06439972    4.90999985    1.00000000
   16.59889030  104.13600159    4.90999985    1.00000000
   16.60194397  105.76000214    4.90999985    1.00000000
   16.60527802  105.98999786    4.90999985    1.00000000
   16.60861206  111.37000275    4.90999985    1.00000000
   16.61166763   98.70690155    4.90999985    1.00000000
   16.61499977  117.91699982    4.90999985    1.00000000
   16.61555672  119.65000153    4.90999985    1.00000000
   16.62138939  119.65000153    4.90999985    1.00000000
   16.62555504   98.42359924    4.90999985    1.00000000
   16.62861061   95.13549805    4.90999985    1.00000000
   16.63194466  100.14099884    4.90999985    1.00000000
   16.63527679  104.96199799    4.90999985    1.00000000
   16.63833237  105.30500031    4.90999985    1.00000000
   16.64166641  105.73799896    4.90999985    1.00000000
   16.64500046   97.07119751    4.90999985    1.00000000
   16.64805603  109.97200012    4.90999985    1.00000000
   16.64888954  105.85600281    4.90999985    1.00000000
   16.65166664  103.70600128    4.90999985    1.00000000
   16.65499878  101.12100220    4.90999985    1.00000000
   16.65833282  100.39499664    4.90999985    1.00000000
   16.66416550  100.39499664    4.90999985    1.00000000
   16.66833305  106.23500061    4.90999985    1.00000000
   16.67166519  104.70899963    4.90999985    1.00000000
   16.67472076  108.69999695    4.90999985    1.00000000
   16.67805481   99.42099762    4.90999985    1.00000000
   16.68138885   98.88249969    4.90999985    1.00000000
   16.68222237  101.64299774    4.90999985    1.00000000
   16.68472099  108.22499847    4.90999985    1.00000000
   16.68805504  109.27899933    4.90999985    1.00000000
   16.69138718  106.48400116    4.90999985    1.00000000
   16.69444275  104.17900085    4.90999985    1.00000000
   16.69777679  102.65499878    4.90999985    1.00000000
   16.70111275  105.56199646    4.90999985    1.00000000
   16.70694542  105.56199646    4.90999985    1.00000000
   16.71111107  103.35500336    4.90999985    1.00000000
   16.71444511  107.76599884    4.90999985    1.00000000
   16.71555710  106.10099792    4.90999985    1.00000000
   16.71777916  103.22000122    4.90999985    1.00000000
   16.72111130  100.78099823    4.90999985    1.00000000
   16.72444534   96.92299652    4.90999985    1.00000000
   16.72750092   96.95169830    4.90999985    1.00000000
   16.73083305   96.55740356    4.90999985    1.00000000
   16.73416710   86.11810303    4.90999985    1.00000000
   16.73722267  101.55699921    4.90999985    1.00000000
   16.74055672   98.49590302    4.90999985    1.00000000
   16.74361229   97.23390198    4.90999985    1.00000000
   16.75000000   97.23390198    4.90999985    1.00000000
   16.75388908   97.62670135    4.90999985    1.00000000
   16.75722313  106.86599731    4.90999985    1.00000000
   16.76055527  104.78500366    4.90999985    1.00000000
   16.76361084  100.78900146    4.90999985    1.00000000
   16.76694489  107.00700378    4.90999985    1.00000000
   16.77027702  101.98400116    4.90999985    1.00000000
   16.77333260   98.34609985    4.90999985    1.00000000
   16.77666664  108.28299713    4.90999985    1.00000000
   16.78000069   98.71330261    4.90999985    1.00000000
   16.78222275   98.76470184    4.90999985    1.00000000
   16.78333282   88.75240326    4.90999985    1.00000000
   16.78666687   97.57089996    4.90999985    1.00000000
   16.79277802   97.57089996    4.90999985    1.00000000
   16.79694366  102.59100342    4.90999985    1.00000000
   16.79999924   99.85220337    4.90999985    1.00000000
   16.80333328  100.75900269    4.90999985    1.00000000
   16.80666542   95.50499725    4.90999985    1.00000000
   16.80972099  101.80699921    4.90999985    1.00000000
   16.81305504  104.98400116    4.90999985    1.00000000
   16.81555557  100.19100189    4.90999985    1.00000000
   16.81638718  102.97399902    4.90999985    1.00000000
   16.81972313   97.47550201    4.90999985    1.00000000
   16.82305717  104.94599915    4.90999985    1.00000000
   16.82611275  105.98300171    4.90999985    1.00000000
   16.82944489  117.12500000    4.90999985    1.00000000
   16.83555603  117.12500000    4.90999985    1.00000000
   16.83972359  120.11199951    4.90999985    1.00000000
   16.84305573  166.16000366    4.90999985    1.00000000
   16.84611130  139.50199890    4.90999985    1.00000000
   16.84889030  137.95500183    4.90999985    1.00000000
   16.85000038  152.00999451    4.90999985    1.00000000
   16.85305595  165.07699585    4.90999985    1.00000000
   16.85639000  143.66600037    4.90999985    1.00000000
   16.85944557  137.78199768    4.90999985    1.00000000
   16.86277771  145.64700317    4.90999985    1.00000000
   16.86611176  200.78999329    4.90999985    1.00000000
   16.86944389   -1.00000000    4.90999985    1.00000000
   16.87249947  146.45300293    4.90999985    1.00000000
   16.87833405  146.45300293    4.90999985    1.00000000
   16.88249969  115.72299957    4.90999985    1.00000000
   16.88583374  101.10800171    4.90999985    1.00000000
   16.88888931  104.75099945    4.90999985    1.00000000
   16.89222145  101.52999878    4.90999985    1.00000000
   16.89555550  109.32399750    4.90999985    1.00000000
   16.89861107  102.62300110    4.90999985    1.00000000
   16.90194321  101.91699982    4.90999985    1.00000000
   16.90527725  104.77400208    4.90999985    1.00000000
   16.90833282  103.60099792    4.90999985    1.00000000
   16.91166687  104.37699890    4.90999985    1.00000000
   16.91472244  103.79900360    4.90999985    1.00000000
   16.91555595  104.66999817    4.90999985    1.00000000
   16.92138863  104.66999817    4.90999985    1.00000000
   16.92527771  100.46299744    4.90999985    1.00000000
   16.92860985   99.72119904    4.90999985    1.00000000
   16.93194389   96.83570099    4.90999985    1.00000000
   16.93499947   99.88289642    4.90999985    1.00000000
   16.93833160   99.26349640    4.90999985    1.00000000
   16.94166565   90.81539917    4.90999985    1.00000000
   16.94472122  100.50199890    4.90999985    1.00000000
   16.94805527   97.91670227    4.90999985    1.00000000
   16.94888878   99.34140015    4.90999985    1.00000000
   16.95166779   97.45839691    4.90999985    1.00000000
   16.95472336   99.76969910    4.90999985    1.00000000
   16.95805550   95.97039795    4.90999985    1.00000000
   16.96416664   95.97039795    4.90999985    1.00000000
   16.96833420  104.71099854    4.90999985    1.00000000
   16.97138977  109.50000000    4.90999985    1.00000000
   16.97472191   94.47270203    4.90999985    1.00000000
   16.97805595   97.07189941    4.90999985    1.00000000
   16.98111153  103.52200317    4.90999985    1.00000000
   16.98222351   94.83560181    4.90999985    1.00000000
   16.98500061   96.58519745    4.90999985    1.00000000
   16.98805618   91.57050323    4.90999985    1.00000000
   16.99138832   95.90630341    4.90999985    1.00000000
   16.99444389  101.75000000    4.90999985    1.00000000
   16.99777794   95.60449982    4.90999985    1.00000000
   17.00111198   94.12100220    4.90999985    1.00000000
   17.00694466   94.12100220    4.90999985    1.00000000
   17.01111031   96.05999756    4.90999985    1.00000000
   17.01444435   99.31950378    4.90999985    1.00000000
   17.01555634  101.84899902    4.90999985    1.00000000
   17.01805496   99.84089661    4.90999985    1.00000000
   17.02111053  105.25599670    4.90999985    1.00000000
   17.02444458  102.20800018    4.90999985    1.00000000
   17.02750015   96.14420319    4.90999985    1.00000000
   17.03083229   96.56510162    4.90999985    1.00000000
   17.03416634   95.55899811    4.90999985    1.00000000
   17.03722191  112.19400024    4.90999985    1.00000000
   17.04055595  108.67299652    4.90999985    1.00000000
   17.04388809  109.67600250    4.90999985    1.00000000
   17.04972076  109.67600250    4.90999985    1.00000000
   17.05388832  105.20099640    4.90999985    1.00000000
   17.05722237  123.54299927    4.90999985    1.00000000
   17.06027794  108.00499725    4.90999985    1.00000000
   17.06361008  106.71700287    4.90999985    1.00000000
   17.06694603   97.37310028    4.90999985    1.00000000
   17.07000160  106.07499695    4.90999985    1.00000000
   17.07333374   99.11959839    4.90999985    1.00000000
   17.07666779  103.24700165    4.90999985    1.00000000
   17.07972336  108.34400177    4.90999985    1.00000000
   17.08222389  103.58899689    4.90999985    1.00000000
   17.08361244  100.99700165    4.90999985    1.00000000
   17.08666801  101.85199738    4.90999985    1.00000000
   17.09277916  101.85199738    4.90999985    1.00000000
   17.09666824   92.15190125    4.90999985    1.00000000
   17.10000038   99.40550232    4.90999985    1.00000000
   17.10333443   93.49929810    4.90999985    1.00000000
   17.10639000   96.59680176    4.90999985    1.00000000
   17.10972214  107.29799652    4.90999985    1.00000000
   17.11305618  101.19100189    4.90999985    1.00000000
   17.11555672  104.95999908    4.90999985    1.00000000
   17.11666679   96.80960083    4.90999985    1.00000000
   17.11972237   99.74449921    4.90999985    1.00000000
   17.12305641   98.51770020    4.90999985    1.00000000
   17.12638855  107.26000214    4.90999985    1.00000000
   17.12944412   89.49669647    4.90999985    1.00000000
   17.13555527   89.49669647    4.90999985    1.00000000
   17.13972282  102.34400177    4.90999985    1.00000000
   17.14277840   99.86360168    4.90999985    1.00000000
   17.14611053  100.71900177    4.90999985    1.00000000
   17.14888954  107.28900146    4.90999985    1.00000000
   17.14972115  104.47799683    4.90999985    1.00000000
   17.15277672  103.29199982    4.90999985    1.00000000
   17.15611076  102.78199768    4.90999985    1.00000000
   17.15916634   93.30970001    4.90999985    1.00000000
   17.16250038  105.55799866    4.90999985    1.00000000
   17.16583252  102.87400055    4.90999985    1.00000000
   17.16888809   96.79979706    4.90999985    1.00000000
   17.17222214  106.82599640    4.90999985    1.00000000
   17.17833328  106.82599640    4.90999985    1.00000000
   17.18249893   99.68370056    4.90999985    1.00000000
   17.18583298   97.59159851    4.90999985    1.00000000
   17.18888855  106.12699890    4.90999985    1.00000000
   17.19222069  100.37400055    4.90999985    1.00000000
   17.19555473  105.37400055    4.90999985    1.00000000
   17.19861031  103.30500031    4.90999985    1.00000000
   17.20194435  103.67199707    4.90999985    1.00000000
   17.20499992   98.10900116    4.90999985    1.00000000
   17.20833397   93.70510101    4.90999985    1.00000000
   17.21166801   94.74729919    4.90999985    1.00000000
   17.21472359  104.82299805    4.90999985    1.00000000
   17.21555710  100.38600159    4.90999985    1.00000000
   17.22111130  100.38600159    4.90999985    1.00000000
   17.22527885  110.60199738    4.90999985    1.00000000
   17.22861099   97.86470032    4.90999985    1.00000000
   17.23166656   99.44709778    4.90999985    1.00000000
   17.23500061  100.54199982    4.90999985    1.00000000
   17.23833275   98.17169952    4.90999985    1.00000000
   17.24138832   99.09279633    4.90999985    1.00000000
   17.24472237  101.69999695    4.90999985    1.00000000
   17.24805641   96.98310089    4.90999985    1.00000000
   17.24888992   94.11750031    4.90999985    1.00000000
   17.25166702   94.82050323    4.90999985    1.00000000
   17.25472260   95.79509735    4.90999985    1.00000000
   17.25805473  103.43599701    4.90999985    1.00000000
   17.26416588  103.43599701    4.90999985    1.00000000
   17.26805496   94.28250122    4.90999985    1.00000000
   17.27138901   94.25129700    4.90999985    1.00000000
   17.27472115   93.95809937    4.90999985    1.00000000
   17.27777672   98.03949738    4.90999985    1.00000000
   17.28111076   97.67739868    4.90999985    1.00000000
   17.28222275   98.74440002    4.90999985    1.00000000
   17.28472137   93.15399933    4.90999985    1.00000000
   17.28777695   95.71869659    4.90999985    1.00000000
   17.29111099   97.12509918    4.90999985    1.00000000
   17.29444313   97.90280151    4.90999985    1.00000000
   17.29749870   98.27960205    4.90999985    1.00000000
   17.30083275  105.29100037    4.90999985    1.00000000
   17.30694389  105.29100037    4.90999985    1.00000000
   17.31110954   97.88670349    4.90999985    1.00000000
   17.31416512   99.44309998    4.90999985    1.00000000
   17.31555557   99.91059875    4.90999985    1.00000000
   17.31805611   97.70210266    4.90999985    1.00000000
   17.32111168   97.38140106    4.90999985    1.00000000
   17.32444572   97.33869934    4.90999985    1.00000000
   17.32777786   97.68160248    4.90999985    1.00000000
   17.33083344  100.09500122    4.90999985    1.00000000
   17.33416748   93.26959991    4.90999985    1.00000000
   17.33722305  102.74299622    4.90999985    1.00000000
   17.34055710   94.62660217    4.90999985    1.00000000
   17.34388924   94.52780151    4.90999985    1.00000000
   17.34972191   94.52780151    4.90999985    1.00000000
   17.35388947  102.85399628    4.90999985    1.00000000
   17.35722351   98.01920319    4.90999985    1.00000000
   17.36027908   93.89990234    4.90999985    1.00000000
   17.36361122  104.28500366    4.90999985    1.00000000
   17.36666679  108.29199982    4.90999985    1.00000000
   17.37000084   96.15989685    4.90999985    1.00000000
   17.37333298  105.55899811    4.90999985    1.00000000
   17.37638855   96.96350098    4.90999985    1.00000000
   17.37972260   99.70929718    4.90999985    1.00000000
   17.38222313   99.53759766    4.90999985    1.00000000
   17.38333321   97.21299744    4.90999985    1.00000000
   17.38638878  102.69100189    4.90999985    1.00000000
   17.39249992  102.69100189    4.90999985    1.00000000
   17.39666748  100.63899994    4.90999985    1.00000000
   17.39999962   94.08989716    4.90999985    1.00000000
   17.40305519   97.95169830    4.90999985    1.00000000
   17.40638924  101.79599762    4.90999985    1.00000000
   17.40972137   95.65270233    4.90999985    1.00000000
   17.41277695   99.15589905    4.90999985    1.00000000
   17.41555595  104.36900330    4.90999985    1.00000000
   17.41666603  101.99299622    4.90999985    1.00000000
   17.42000008  110.40599823    4.90999985    1.00000000
   17.42305565   99.81610107    4.90999985    1.00000000
   17.42638779  106.71499634    4.90999985    1.00000000
   17.42944336  110.70099640    4.90999985    1.00000000
   17.43555450  110.70099640    4.90999985    1.00000000
   17.43972206  103.00199890    4.90999985    1.00000000
   17.44277763   98.03530121    4.90999985    1.00000000
   17.44610977   96.65820313    4.90999985    1.00000000
   17.44888878  102.87899780    4.90999985    1.00000000
   17.44972038   98.10540009    4.90999985    1.00000000
   17.45277786  104.57800293    4.90999985    1.00000000
   17.45611191   99.38580322    4.90999985    1.00000000
   17.45944595  104.40299988    4.90999985    1.00000000
   17.46250153   97.15200043    4.90999985    1.00000000
   17.46583366  100.71299744    4.90999985    1.00000000
   17.46916771  100.33100128    4.90999985    1.00000000
   17.47222328   98.92289734    4.90999985    1.00000000
   17.47833443   98.92289734    4.90999985    1.00000000
   17.48250008  101.38800049    4.90999985    1.00000000
   17.48555565  104.30200195    4.90999985    1.00000000
   17.48888969  106.12400055    4.90999985    1.00000000
   17.49222183  102.59799957    4.90999985    1.00000000
   17.49527740  128.83099365    4.90999985    1.00000000
   17.49861145  101.81500244    4.90999985    1.00000000
   17.50166702  104.88700104    4.90999985    1.00000000
   17.50499916  102.99900055    4.90999985    1.00000000
   17.50833321  105.73300171    4.90999985    1.00000000
   17.51138878  100.29100037    4.90999985    1.00000000
   17.51472282  108.05999756    4.90999985    1.00000000
   17.51555634  102.51899719    4.90999985    1.00000000
   17.52111053  102.51899719    4.90999985    1.00000000
   17.52527809  102.48400116    4.90999985    1.00000000
   17.52861023  106.30400085    4.90999985    1.00000000
   17.53166580  108.28299713    4.90999985    1.00000000
   17.54944420  104.91200256    4.90999985    1.00000000
   17.55166626  108.51699829    4.90999985    1.00000000
   17.55499840  119.35800171    4.90999985    1.00000000
   17.55833244  143.61399841    4.90999985    1.00000000
   17.56416512  143.61399841    4.90999985    1.00000000
   17.56833458   -1.00000000    4.90999985    1.00000000
   17.57166672   -1.00000000    4.90999985    1.00000000
   17.57472229   -1.00000000    4.90999985    1.00000000
   17.57805634   -1.00000000    4.90999985    1.00000000
   17.58111191   -1.00000000    4.90999985    1.00000000
   17.58500099   -1.00000000    4.90999985    1.00000000
   17.58805656   -1.00000000    4.90999985    1.00000000
   17.59138870   -1.00000000    4.90999985    1.00000000
   17.59472275   -1.00000000    4.90999985    1.00000000
   17.59777832   -1.00000000    4.90999985    1.00000000
