    HOUR (UT)   FLARE FACTOR    SKY TESTER    SUN TESTER
   11.23277760   -1.00000000   -1.00000000   -1.00000000
   11.26999950  181.12600708    4.90999985    1.96000004
   11.27583313  194.90600586    4.90999985    1.98000002
   11.27888870  200.27799988    4.90999985    1.98000002
   11.28222179  198.18099976    4.90999985    1.98000002
   11.28555584  179.56599426    4.90999985    1.98000002
   11.28861141  181.08799744    4.90999985    1.98000002
   11.29194450  190.53399658    4.90999985    1.98000002
   11.29500008  183.83900452    4.90999985    1.98000002
   11.29833412  204.98800659    4.90999985    2.00000000
   11.30166721  183.12100220    4.90999985    2.00000000
   11.30333328  195.95399475    4.90999985    2.00000000
   11.30527782  195.38299561    4.90999985    1.98000002
   11.30833340  194.31500244    4.90999985    2.00000000
   11.31166649  188.50399780    4.90999985    2.01999998
   11.31500053  185.79899597    4.90999985    2.00000000
   11.31805515  172.06799316    4.90999985    2.01999998
   11.32138920  197.93299866    4.90999985    2.01999998
   11.32472229  187.42700195    4.90999985    2.01999998
   11.32777786  186.03799438    4.90999985    2.01999998
   11.33111095  189.15499878    4.90999985    2.01999998
   11.33416653  184.38299561    4.90999985    2.01999998
   11.33666611  186.28799438    4.90999985    2.03999996
   11.33805561  197.04800415    4.90999985    2.01999998
   11.34111118  180.66400146    4.90999985    2.01999998
   11.34444427  189.10699463    4.90999985    2.03999996
   11.34777737  177.32899475    4.90999985    2.03999996
   11.35083389  179.00199890    4.90999985    2.03999996
   11.35416698  179.89300537    4.90999985    2.03999996
   11.35750008  177.84700012    4.90999985    2.03999996
   11.36055565  184.92199707    4.90999985    2.03999996
   11.36388969  195.62399292    4.90999985    2.03999996
   11.36694431  190.18699646    4.90999985    2.05999994
   11.37111092  185.07600403    4.90999985    2.03999996
   11.37194443  197.02000427    4.90999985    2.05999994
   11.37500000  186.19299316    4.90999985    2.05999994
   11.37833309  192.13099670    4.90999985    2.07999992
   11.38166714  185.60400391    4.90999985    2.07999992
   11.38472176  180.86300659    4.90999985    2.07999992
   11.38805580  182.55999756    4.90999985    2.07999992
   11.39111137  184.50999451    4.90999985    2.07999992
   11.39444447  192.86099243    4.90999985    2.07999992
   11.39777756  189.81399536    4.90999985    2.07999992
   11.40083313  185.70300293    4.90999985    2.09999990
   11.40333271  176.08500671    4.90999985    2.09999990
   11.40472221  185.07499695    4.90999985    2.09999990
   11.40777779  172.51899719    4.90999985    2.07999992
   11.41111088  193.08799744    4.90999985    2.09999990
   11.41444397  179.15199280    4.90999985    2.09999990
   11.41750050  168.63999939    4.90999985    2.09999990
   11.42083359  182.76100159    4.90999985    2.09999990
   11.42416668  179.04800415    4.90999985    2.09999990
   11.42722225  180.32699585    4.90999985    2.09999990
   11.43055630  160.88200378    4.90999985    2.09999990
   11.43361092  191.47900391    4.90999985    2.09999990
   11.43666649  171.51600647    4.90999985    2.09999990
   11.43750000  172.07200623    4.90999985    2.11999989
   11.44055557  174.00599670    4.90999985    2.11999989
   11.44388866  180.84199524    4.90999985    2.11999989
   11.44722271  168.91000366    4.90999985    2.11999989
   11.45027733  170.73300171    4.90999985    2.13000011
   11.45361137  168.57099915    4.90999985    2.13000011
   11.45694447  176.87399292    4.90999985    2.13000011
   11.46000004  194.83900452    4.90999985    2.13000011
   11.46333313  184.54400635    4.90999985    2.13000011
   11.46638870  170.53700256    4.90999985    2.11999989
   11.47027779  161.82099915    4.90999985    2.13000011
   11.47083282  153.22700500    4.90999985    2.13000011
   11.47416592  169.53399658    4.90999985    2.13000011
   11.47722149  168.35800171    4.90999985    2.13000011
   11.48055553  162.50599670    4.90999985    2.13000011
   11.48388958  163.10800171    4.90999985    2.15000010
   11.48694515  166.04899597    4.90999985    2.13000011
   11.49027824  150.22799683    4.90999985    2.15000010
   11.49361134  173.91900635    4.90999985    2.13000011
   11.49666691  158.34199524    4.90999985    2.13000011
   11.50000000  162.65699768    4.90999985    2.13000011
   11.50305557  166.31199646    4.90999985    2.17000008
   11.50416660  164.12800598    4.90999985    2.15000010
   11.50694466  172.33500671    4.90999985    2.15000010
   11.51000023  163.30000305    4.90999985    2.17000008
   11.51333332  179.85699463    4.90999985    2.17000008
   11.51666641  162.21400452    4.90999985    2.15000010
   11.51972198  157.37600708    4.90999985    2.15000010
   11.52305508  160.18299866    4.90999985    2.17000008
   11.52638817  159.90499878    4.90999985    2.17000008
   11.52944374  168.51800537    4.90999985    2.17000008
   11.53277779  162.68899536    4.90999985    2.17000008
   11.53583336  159.16900635    4.90999985    2.17000008
   11.53750038  163.47399902    4.90999985    2.17000008
   11.53972244  159.33299255    4.90999985    2.17000008
   11.54277802  152.76400757    4.90999985    2.17000008
   11.54611111  144.93600464    4.90999985    2.19000006
   11.54944515  152.41600037    4.90999985    2.17000008
   11.55249977  154.34800720    4.90999985    2.19000006
   11.55583382  139.21400452    4.90999985    2.17000008
   11.55916691  156.08099365    4.90999985    2.19000006
   11.56222248  151.45399475    4.90999985    2.19000006
   11.56555557  153.08999634    4.90999985    2.21000004
   11.56861115  158.35800171    4.90999985    2.21000004
   11.57083321  154.43200684    4.90999985    2.21000004
   11.57250023  146.43699646    4.90999985    2.21000004
   11.57583332  159.91000366    4.90999985    2.21000004
   11.57888889  142.97500610    4.90999985    2.21000004
   11.58222198  158.55799866    4.90999985    2.21000004
   11.58527756  153.86099243    4.90999985    2.21000004
   11.58861065  147.13600159    4.90999985    2.21000004
   11.59194374  150.61500549    4.90999985    2.21000004
   11.59527779  149.86099243    4.90999985    2.23000002
   11.59833336  156.05900574    4.90999985    2.23000002
   11.60166740  165.92399597    4.90999985    2.23000002
   11.60416698  164.28599548    4.90999985    2.23000002
   11.60527802  170.28700256    4.90999985    2.23000002
   11.60833359  157.44900513    4.90999985    2.23000002
   11.61166668  150.74899292    4.90999985    2.23000002
   11.61500072  153.83500671    4.90999985    2.23000002
   11.61805534  140.40199280    4.90999985    2.23000002
   11.62138939  168.35099792    4.90999985    2.23000002
   11.62472248  156.83900452    4.90999985    2.23000002
   11.62777805  156.27299500    4.90999985    2.23000002
   11.63111115  169.90199280    4.90999985    2.25000000
   11.63416672  157.08700562    4.90999985    2.25000000
   11.63749981  145.73500061    4.90999985    2.26999998
   11.63805580  170.77699280    4.90999985    2.25000000
   11.64111137  154.39300537    4.90999985    2.26999998
   11.64444447  179.02900696    4.90999985    2.25000000
   11.64777756  143.21299744    4.90999985    2.25000000
   11.65083313  151.75199890    4.90999985    2.25000000
   11.65416622  150.23699951    4.90999985    2.26999998
   11.65749931  153.89300537    4.90999985    2.26999998
   11.66055489  175.94999695    4.90999985    2.26999998
   11.66388893  156.94700623    4.90999985    2.26999998
   11.66694450  159.77799988    4.90999985    2.26999998
   11.67027855  153.16099548    4.90999985    2.26999998
   11.67083359  169.30999756    4.90999985    2.26999998
   11.67388916  154.08200073    4.90999985    2.25000000
   11.67722225  164.52699280    4.90999985    2.26999998
   11.68027782  184.53700256    4.90999985    2.26999998
   11.68361092  183.82600403    4.90999985    2.26999998
   11.68666649  157.46000671    4.90999985    2.28999996
   11.69000053  162.30200195    4.90999985    2.26999998
   11.69333363  165.97000122    4.90999985    2.26999998
   11.69638920  174.67900085    4.90999985    2.28999996
   11.69972229  167.51600647    4.90999985    2.28999996
   11.70305538  196.18400574    4.90999985    2.28999996
   11.70416641  166.95500183    4.90999985    2.26999998
   11.70666695  187.36700439    4.90999985    2.28999996
   11.71000004  175.06300354    4.90999985    2.30999994
   11.71305561  187.30000305    4.90999985    2.28999996
   11.71638870  180.96299744    4.90999985    2.28999996
   11.71944427  183.75999451    4.90999985    2.28999996
   11.72277737  165.66799927    4.90999985    2.28999996
   11.72611046  206.80900574    4.90999985    2.28999996
   11.72916603  193.55900574    4.90999985    2.28999996
   11.73249912  212.70700073    4.90999985    2.28999996
   11.73583317  184.89700317    4.90999985    2.30999994
   11.73750019  193.58099365    4.90999985    2.30999994
   11.73944473  202.16400146    4.90999985    2.30999994
   11.74277782  196.30400085    4.90999985    2.28999996
   11.74583340  214.03100586    4.90999985    2.30999994
   11.74916649  195.38600159    4.90999985    2.30999994
   11.75222206  178.41000366    4.90999985    2.32999992
   11.75555515  193.89100647    4.90999985    2.30999994
   11.75888920  201.90899658    4.90999985    2.30999994
   11.76194477  199.45199585    4.90999985    2.30999994
   11.76527786  195.64300537    4.90999985    2.32999992
   11.76861095  204.66999817    4.90999985    2.32999992
   11.77083302  205.67999268    4.90999985    2.30999994
   11.77222157  208.25700378    4.90999985    2.30999994
   11.77555561  187.53999329    4.90999985    2.32999992
   11.77861118  220.99800110    4.90999985    2.32999992
   11.78194427  196.91400146    4.90999985    2.32999992
   11.78500080  205.26699829    4.90999985    2.32999992
   11.78833389  179.47500610    4.90999985    2.30999994
   11.79166698  201.67900085    4.90999985    2.32999992
   11.79472256  201.26499939    4.90999985    2.34999990
   11.79805565  202.38400269    4.90999985    2.32999992
   11.80138874  189.55999756    4.90999985    2.34999990
   11.80416679  190.22999573    4.90999985    2.34999990
   11.80500031  196.47999573    4.90999985    2.34999990
   11.80833340  192.43800354    4.90999985    2.32999992
   11.81138897  160.36399841    4.90999985    2.34999990
   11.81472206  207.77999878    4.90999985    2.32999992
   11.81777763  199.92599487    4.90999985    2.32999992
   11.82111073  168.91999817    4.90999985    2.34999990
   11.82444477  185.65899658    4.90999985    2.34999990
   11.82750034  198.04600525    4.90999985    2.34999990
   11.83083344  169.50000000    4.90999985    2.36999989
   11.83416653  168.49200439    4.90999985    2.34999990
   11.83722210  175.32800293    4.90999985    2.34999990
   11.83777714  162.74299622    4.90999985    2.34999990
   11.84111118  163.32099915    4.90999985    2.34999990
   11.84416676  180.51499939    4.90999985    2.34999990
   11.84749985  176.93400574    4.90999985    2.36999989
   11.85083389  163.99299622    4.90999985    2.36999989
   11.85388947  167.56799316    4.90999985    2.36999989
   11.85722256  172.91700745    4.90999985    2.36999989
   11.86055565  173.11199951    4.90999985    2.36999989
   11.86361122  192.51400757    4.90999985    2.36999989
   11.86694431  171.84199524    4.90999985    2.36999989
   11.86999989  173.49299622    4.90999985    2.36999989
   11.87111092  172.20500183    4.90999985    2.36999989
   11.87388897  177.33099365    4.90999985    2.36999989
   11.87694454  167.94400024    4.90999985    2.36999989
   11.88027763  163.55499268    4.90999985    2.36999989
   11.88361073  174.67700195    4.90999985    2.39000010
   11.88666630  159.48399353    4.90999985    2.39000010
   11.89000034  156.07600403    4.90999985    2.36999989
   11.89333344  163.65600586    4.90999985    2.39000010
   11.89638901  163.05000305    4.90999985    2.39000010
   11.89972210  157.00799561    4.90999985    2.36999989
   11.90277767  163.93200684    4.90999985    2.39000010
   11.90444374  179.72000122    4.90999985    2.39000010
   11.90666676  160.94299316    4.90999985    2.36999989
   11.90972137  149.44000244    4.90999985    2.39000010
   11.91305542  163.60899353    4.90999985    2.39000010
   11.91638851  181.38200378    4.90999985    2.36999989
   11.91944504  153.76300049    4.90999985    2.39000010
   11.92277813  190.08200073    4.90999985    2.36999989
   11.92611122  190.30200195    4.90999985    2.40000010
   11.92916679  151.67500305    4.88999987    2.39000010
   11.93249989  187.80799866    4.88999987    2.40000010
   11.93555546  151.56199646    4.90999985    2.40000010
   11.93777752  184.75999451    4.88999987    2.39000010
   11.93944454  163.93200684    4.90999985    2.39000010
   11.94250011  183.02099609    4.90999985    2.39000010
   11.94583321  184.42399597    4.90999985    2.39000010
   11.94916630  211.82699585    4.90999985    2.39000010
   11.95222187  167.88299561    4.90999985    2.40000010
   11.95555496  163.57499695    4.90999985    2.40000010
   11.95888901  160.10499573    4.90999985    2.40000010
   11.96194458  165.31300354    4.90999985    2.40000010
   11.96527767  181.25100708    4.90999985    2.40000010
   11.96833324  181.69299316    4.90999985    2.40000010
   11.97111034  180.19700623    4.90999985    2.40000010
   11.97222137  196.80900574    4.90999985    2.40000010
   11.97555542  158.19999695    4.90999985    2.39000010
   11.97861099  194.21899414    4.90999985    2.42000008
   11.98194408  182.43400574    4.88999987    2.42000008
   11.98500061  179.19099426    4.86999989    2.40000010
   11.98833370  166.78599548    4.84999990    2.44000006
   11.99166679  177.78599548    4.80999994    2.40000010
   11.99472237  170.91299438    4.80000019    2.42000008
   11.99805546  164.62199402    4.78000021    2.42000008
   12.00138855  155.46800232    4.76000023    2.40000010
   12.00444412  216.05000305    4.73999977    2.42000008
   12.00500011  179.88600159    4.71999979    2.42000008
   12.00833321  165.39900208    4.69999981    2.42000008
   12.01138878  169.54899597    4.67999983    2.42000008
   12.01472187  176.81399536    4.67999983    2.42000008
   12.01777744  175.48500061    4.65999985    2.42000008
   12.02111053  177.65899658    4.65999985    2.44000006
   12.02444458  194.33099365    4.65999985    2.42000008
   12.02750015  163.28500366    4.65999985    2.44000006
   12.03083324  147.14599609    4.65999985    2.42000008
   12.03416729  180.33099365    4.65999985    2.44000006
   12.03722286  137.52699280    4.67999983    2.42000008
   12.03777790  144.57800293    4.69999981    2.44000006
   12.04083347  136.51800537    4.67999983    2.44000006
   12.04416752  148.79699707    4.67999983    2.44000006
   12.04722309  138.77099609    4.65999985    2.42000008
   12.05055618  165.86000061    4.65999985    2.42000008
   12.05388927  161.99800110    4.65999985    2.44000006
   12.05694485  146.78900146    4.63999987    2.46000004
   12.06027794  163.46600342    4.61999989    2.46000004
   12.06333351  143.55599976    4.59999990    2.46000004
   12.06666660  181.40499878    4.57999992    2.44000006
   12.06999969  150.28700256    4.57999992    2.44000006
   12.07111073  137.07499695    4.55999994    2.46000004
   12.07361126  155.11700439    4.55999994    2.46000004
   12.07694435  147.36900330    4.55999994    2.44000006
   12.07999992  166.65299988    4.57999992    2.46000004
   12.08333302  154.12399292    4.57999992    2.48000002
   12.08666611  147.54899597    4.59999990    2.46000004
   12.08972168  149.15600586    4.61999989    2.46000004
   12.09305477  146.97200012    4.63999987    2.46000004
   12.09611034  147.82200623    4.63999987    2.46000004
   12.09944439  158.87399292    4.61999989    2.46000004
   12.10277843  144.19500732    4.61999989    2.46000004
   12.10444450  142.76100159    4.59999990    2.46000004
   12.10638905  147.92999268    4.57999992    2.46000004
   12.10972214  155.06700134    4.55999994    2.46000004
   12.11277771  139.11700439    4.53999996    2.46000004
   12.11611176  138.40400696    4.53000021    2.46000004
   12.12083340  148.24800110    4.53000021    2.46000004
   12.12388897  150.95199585    4.51000023    2.46000004
   12.12722206  140.42300415    4.51000023    2.46000004
   12.13055611  132.42500305    4.48999977    2.46000004
   12.13361073  138.01699829    4.44999981    2.46000004
   12.13694477  142.48599243    4.42999983    2.46000004
   12.13777733  151.58500671    4.42999983    2.46000004
   12.14055538  163.45599365    4.40999985    2.46000004
   12.14388847  145.69299316    4.38999987    2.48000002
   12.14694405  143.72700500    4.36999989    2.46000004
   12.15027714  138.27900696    4.34999990    2.48000002
   12.15361118  153.47700500    4.32999992    2.46000004
   12.15666676  140.70799255    4.30999994    2.48000002
   12.15999985  144.51300049    4.26999998    2.48000002
   12.16305542  140.00900269    4.26000023    2.48000002
   12.16638851  146.00300598    4.21999979    2.48000002
   12.16972256  138.58700562    4.19999981    2.48000002
   12.17111111  135.07400513    4.17999983    2.48000002
   12.17333412  139.17799377    4.17999983    2.48000002
   12.17666721  155.79600525    4.13999987    2.50000000
   12.17972279  146.07800293    4.13999987    2.50000000
   12.18305588  142.86799622    4.11999989    2.50000000
   12.18638897  142.76199341    4.11999989    2.48000002
   12.18944454  143.63999939    4.11999989    2.50000000
   12.19277763  147.67199707    4.13999987    2.48000002
   12.19583321  153.87899780    4.11999989    2.50000000
   12.19916630  152.83999634    4.11999989    2.50000000
   12.20249939  140.32600403    4.09999990    2.48000002
   12.20444393  137.40600586    4.09999990    2.50000000
   12.20611095  130.87899780    4.05999994    2.50000000
   12.20944405  145.00399780    4.03999996    2.48000002
   12.21249962  148.91600037    4.01999998    2.50000000
   12.21583271  151.75300598    3.99000001    2.51999998
   12.21916580  142.54200745    3.99000001    2.50000000
   12.22222137  133.16200256    4.00000000    2.50000000
   12.22555542  144.97599792    4.03999996    2.50000000
   12.22861099  132.35000610    4.03999996    2.51999998
   12.23194408  154.82200623    4.07999992    2.50000000
   12.23527813  131.52499390    4.09999990    2.50000000
   12.23805618  143.57499695    4.09999990    2.50000000
   12.23888874  133.81900024    4.07999992    2.50000000
   12.24222279  153.41200256    4.07999992    2.51999998
   12.24527836  146.27000427    4.05999994    2.51999998
   12.24861145  139.05400085    4.05999994    2.51999998
   12.25194454  135.80999756    4.05999994    2.51999998
   12.25527763  137.03399658    4.03999996    2.50000000
   12.25833321  137.42399597    4.03999996    2.51999998
   12.26166630  141.74200439    4.03999996    2.51999998
   12.26472187  136.46200562    4.01999998    2.50000000
   12.26805496  136.43600464    4.03999996    2.51999998
   12.28750038  127.00900269    4.03999996    2.51999998
   12.28833389  141.66200256    4.03999996    2.51999998
   12.29166698  142.63099670    4.05999994    2.51999998
   12.29472256  137.65400696    4.05999994    2.51999998
   12.29805565  158.15600586    4.05999994    2.51999998
   12.30138874  149.04299927    4.05999994    2.53999996
   12.30444431  160.80700684    4.09999990    2.51999998
   12.30777836  145.59500122    4.11999989    2.51999998
   12.31083393  166.47399902    4.13999987    2.51999998
   12.31416702  161.05599976    4.13999987    2.51999998
   12.31750011  169.91299438    4.15999985    2.51999998
   12.32055569  158.56300354    4.17999983    2.51999998
   12.32083321  161.75000000    4.17999983    2.51999998
   12.32416630  143.71200562    4.17999983    2.51999998
   12.32750034  154.81199646    4.19999981    2.53999996
   12.33055592  156.94900513    4.19999981    2.55999994
   12.33388901  133.38400269    4.19999981    2.50000000
   12.33722210  129.77699280    4.19999981    2.53999996
   12.34027767  134.03399658    4.15999985    2.53999996
   12.34361076  129.23100281    4.13999987    2.53999996
   12.34694386  138.67599487    4.11999989    2.53999996
   12.35000038  133.44999695    4.07999992    2.53999996
   12.35333347  138.69299316    4.05999994    2.53999996
   12.35388947  136.24499512    4.05999994    2.53999996
   12.35694504  136.87699890    4.03999996    2.55999994
   12.36000061  124.34400177    4.01999998    2.53999996
   12.36333370  127.41400146    4.00000000    2.55999994
   12.36666679  149.07600403    3.99000001    2.53999996
   12.36972237  129.21499634    3.97000003    2.53999996
   12.37305546  128.08999634    3.97000003    2.53999996
   12.37638855  125.38800049    3.95000005    2.55999994
   12.37944412  132.49299622    3.93000007    2.53999996
   12.38277817  148.16000366    3.91000009    2.53999996
   12.38583279  135.75399780    3.93000007    2.55999994
   12.38722229  147.23599243    3.91000009    2.55999994
   12.38972187  129.14300537    3.89000010    2.51999998
   12.39277744  123.73500061    3.89000010    2.55999994
   12.39611053  139.25000000    3.89000010    2.55999994
   12.39944458  136.62500000    3.89000010    2.55999994
   12.40249920  133.09700012    3.89000010    2.53999996
   12.40583324  140.99000549    3.89000010    2.57999992
   12.40916634  132.75000000    3.89000010    2.53999996
   12.41222191  134.84100342    3.86999989    2.55999994
   12.41555500  137.05499268    3.89000010    2.53999996
   12.41861153  133.68800354    3.89000010    2.55999994
   12.42055607  122.74800110    3.84999990    2.53999996
   12.42250061  136.61399841    3.84999990    2.55999994
   12.42555618  134.09399414    3.82999992    2.55999994
   12.42888927  130.78399658    3.76999998    2.55999994
   12.43222237  121.60700226    3.73000002    2.55999994
   12.43527794  133.43499756    3.73000002    2.55999994
   12.43861103  129.26199341    3.73000002    2.55999994
   12.44194412  122.08799744    3.72000003    2.55999994
   12.44499969  133.94700623    3.70000005    2.55999994
   12.44833374  127.92299652    3.70000005    2.55999994
   12.45166683  120.71900177    3.68000007    2.55999994
   12.45388889  135.84599304    3.68000007    2.55999994
   12.45527744  126.94699860    3.68000007    2.55999994
   12.45861053  127.32900238    3.70000005    2.55999994
   12.46166611  125.93800354    3.70000005    2.55999994
   12.46500015  129.34500122    3.68000007    2.55999994
   12.46805477  140.50000000    3.68000007    2.57999992
   12.47138882  130.55000305    3.68000007    2.55999994
   12.47472191  125.07399750    3.68000007    2.57999992
   12.47777748  123.93800354    3.66000009    2.55999994
   12.48111057  118.12200165    3.68000007    2.57999992
   12.48444462  128.81199646    3.66000009    2.55999994
   12.48722267  119.35600281    3.66000009    2.55999994
   12.48805618  121.24400330    3.66000009    2.55999994
   12.49111176  135.40100098    3.66000009    2.57999992
   12.49444485  123.42900085    3.64000010    2.57999992
   12.49777794  119.20200348    3.61999989    2.57999992
   12.50083351  124.27100372    3.61999989    2.59999990
   12.50416660  131.30599976    3.59999990    2.57999992
   12.50749969  123.09300232    3.59999990    2.57999992
   12.51055527  138.27900696    3.57999992    2.59999990
   12.51388931  126.51999664    3.59999990    2.57999992
   12.51694393  138.08200073    3.57999992    2.57999992
   12.52027798  123.88800049    3.55999994    2.59999990
   12.52083302  135.05200195    3.55999994    2.59999990
   12.52416611  119.06300354    3.53999996    2.59999990
   12.52750015  117.52700043    3.50000000    2.57999992
   12.53055573  115.21700287    3.48000002    2.59999990
   12.53388977  122.30200195    3.46000004    2.59999990
   12.53694534  134.91900635    3.46000004    2.57999992
   12.54027843  138.26100159    3.45000005    2.59999990
   12.54361153  126.49500275    3.45000005    2.59999990
   12.54666710  120.11799622    3.43000007    2.59999990
   12.55000019  119.66000366    3.43000007    2.59999990
   12.55305576  128.82899475    3.45000005    2.59999990
   12.55416679  119.76999664    3.43000007    2.59999990
   12.55694485  118.49600220    3.45000005    2.57999992
   12.56000042  116.84799957    3.45000005    2.57999992
   12.56333351  126.64499664    3.45000005    2.59999990
   12.56666660  117.48000336    3.45000005    2.59999990
   12.56972218  119.13999939    3.45000005    2.57999992
   12.57305527  125.10700226    3.41000009    2.59999990
   12.57611084  127.08799744    3.41000009    2.59999990
   12.57944393  117.00099945    3.41000009    2.59999990
   12.58277798  113.50299835    3.41000009    2.59999990
   12.58583260  132.61599731    3.41000009    2.57999992
   12.58749962  123.99199677    3.41000009    2.57999992
   12.58972168  107.28099823    3.41000009    2.59999990
   12.59277725  118.02500153    3.39000010    2.59999990
   12.59611034  119.86699677    3.36999989    2.59999990
   12.59944439  120.77899933    3.34999990    2.59999990
   12.60249996  126.16400146    3.32999992    2.59999990
   12.60583401  130.26699829    3.32999992    2.61999989
   12.60888958  130.53300476    3.32999992    2.59999990
   12.61222267  126.26100159    3.32999992    2.59999990
   12.61555576  119.77999878    3.32999992    2.59999990
   12.61861134  128.24899292    3.32999992    2.59999990
   12.62083340  122.83300018    3.30999994    2.59999990
   12.62250042  117.21800232    3.30999994    2.61999989
   12.62555599  120.73699951    3.30999994    2.61999989
   12.62888908  123.42099762    3.28999996    2.61999989
   12.63222218  114.98400116    3.26999998    2.61999989
   12.64361095  117.97399902    0.00000000    0.00000000
   12.64694405  112.65599823    3.20000005    2.59999990
   12.64999962  109.45800018    3.20000005    2.61999989
   12.65333271  134.11099243    3.20000005    2.61999989
   12.65666676  116.80300140    3.20000005    2.61999989
   12.65944386  111.89399719    3.20000005    2.59999990
   12.66055489  113.18099976    3.21000004    2.61999989
   12.66361046  111.97299957    3.21000004    2.61999989
   12.66694450  117.78800201    3.21000004    2.59999990
   12.67027855  122.18099976    3.21000004    2.61999989
   12.67333412  113.56999969    3.23000002    2.61999989
   12.67666721  117.87400055    3.28999996    2.61999989
   12.67972279  124.71800232    3.30999994    2.61999989
   12.68305588  109.50499725    3.30999994    2.61999989
   12.68638897  121.73100281    3.32999992    2.61999989
   12.68944454  117.30500031    3.32999992    2.64000010
   12.69277763  126.15299988    3.34999990    2.61999989
   12.69305515  128.61000061    3.32999992    2.61999989
   12.69666672  124.42299652    3.34999990    2.61999989
   12.69999981  121.25399780    3.32999992    2.61999989
   12.70305538  124.21299744    3.32999992    2.61999989
   12.70638847  111.85199738    3.30999994    2.61999989
   12.70972157  120.11299896    3.28999996    2.61999989
   12.71277714  116.88800049    3.25000000    2.61999989
   12.71611118  113.84700012    3.21000004    2.61999989
   12.71916580  123.94200134    3.21000004    2.64000010
   12.72249985  117.95800018    3.18000007    2.64000010
   12.72583294  117.78099823    3.18000007    2.64000010
   12.72638798  111.55899811    3.16000009    2.61999989
   12.72944355  118.07800293    3.16000009    2.64000010
   12.73277760  112.35399628    3.16000009    2.61999989
   12.73611164  119.25399780    3.14000010    2.61999989
   12.73916721  122.76799774    3.14000010    2.61999989
   12.74250031  120.59200287    3.16000009    2.64000010
   12.74555588  127.19000244    3.18000007    2.61999989
   12.74888897  122.99800110    3.18000007    2.61999989
   12.75222206  134.90299988    3.18000007    2.61999989
   12.75527763  126.41999817    3.18000007    2.64000010
   12.75861073  121.30000305    3.18000007    2.64000010
   12.75972176  114.59799957    3.20000005    2.61999989
   12.76222229  112.99800110    3.20000005    2.64000010
   12.76555538  130.99000549    3.18000007    2.64000010
   12.76888847  122.24400330    3.18000007    2.64000010
   12.77194405  125.14700317    3.16000009    2.64000010
   12.77527714  119.04900360    3.14000010    2.64000010
   12.77833271  123.94699860    3.14000010    2.64000010
   12.78166676  121.77100372    3.11999989    2.66000009
   12.78500080  115.82700348    3.09999990    2.64000010
   12.78805637  115.08100128    3.09999990    2.64000010
   12.79138947  116.93499756    3.05999994    2.64000010
   12.79305553  122.12100220    3.07999992    2.66000009
   12.79500008  126.86100006    3.05999994    2.64000010
   12.79833412  119.87699890    3.05999994    2.64000010
   12.80166721  112.46399689    3.05999994    2.64000010
   12.80472279  114.71299744    3.03999996    2.64000010
   12.80805588  115.74400330    3.00000000    2.64000010
   12.81111145  110.40299988    2.98000002    2.64000010
   12.81444454  116.48000336    3.00000000    2.64000010
   12.81777763  120.02899933    2.96000004    2.66000009
   12.82083321  131.68299866    2.94000006    2.66000009
   12.82416630  114.40000153    2.93000007    2.64000010
   12.82638836  114.06400299    2.91000009    2.66000009
   12.82777786  116.80599976    2.91000009    2.64000010
   12.83111095  115.22499847    2.89000010    2.64000010
   12.83444405  118.16699982    2.86999989    2.66000009
   12.83749962  110.90899658    2.84999990    2.66000009
   12.84083271  114.76200104    2.84999990    2.66000009
   12.84388828  123.90599823    2.86999989    2.66000009
   12.84722233  114.26899719    2.86999989    2.64000010
   12.85055637  118.32900238    2.86999989    2.66000009
   12.85361195  108.86100006    2.89000010    2.66000009
   12.85694504  112.58499908    2.91000009    2.66000009
   12.85972214  123.62000275    2.93000007    2.66000009
   12.86055565  115.65399933    2.94000006    2.66000009
   12.86388969  116.97399902    2.94000006    2.64000010
   12.86722279  109.37500000    2.94000006    2.66000009
   12.87027836  109.02500153    2.96000004    2.66000009
   12.87361145  122.55400085    2.96000004    2.67000008
   12.87694454  117.97899628    2.96000004    2.67000008
   12.88000011  116.49099731    2.98000002    2.66000009
   12.88333321  110.96900177    2.96000004    2.66000009
   12.88666630  119.44699860    2.96000004    2.66000009
   12.88972187  119.74700165    2.96000004    2.66000009
   12.89305496  114.37999725    2.96000004    2.66000009
   12.89333344  112.71499634    2.96000004    2.66000009
   12.89666653  115.74099731    2.96000004    2.64000010
   12.89999962  118.69200134    2.98000002    2.67000008
   12.90305519  106.07199860    2.98000002    2.66000009
   12.90638828  110.73899841    2.98000002    2.66000009
   12.90972137  118.83799744    3.00000000    2.66000009
   12.91277695  113.72200012    3.01999998    2.66000009
   12.91611099  114.49600220    3.03999996    2.66000009
   12.91916656  113.91200256    3.05999994    2.66000009
   12.92250061  119.31999969    3.05999994    2.66000009
   12.92583370  119.83200073    3.07999992    2.66000009
   12.92638874  111.43800354    3.09999990    2.66000009
   12.92916679  123.92400360    3.11999989    2.66000009
   12.93249989  116.41400146    3.07999992    2.66000009
   12.93583298  122.49600220    3.07999992    2.66000009
   12.93888855  121.85700226    3.05999994    2.67000008
   12.94222260  122.43699646    3.05999994    2.66000009
   12.94527817  121.27999878    3.05999994    2.67000008
   12.94861126  115.13800049    3.03999996    2.67000008
   12.95194435  118.77500153    3.01999998    2.66000009
   12.95499992  118.47599792    3.03999996    2.66000009
   12.95833302  123.73699951    3.03999996    2.66000009
   12.95972157  118.47299957    3.01999998    2.67000008
   12.96194458  127.37699890    3.01999998    2.67000008
   12.96527767  121.23100281    2.98000002    2.66000009
   12.96861076  124.82399750    3.00000000    2.67000008
   12.97166634  126.66400146    2.98000002    2.67000008
   12.97499943  117.73799896    2.98000002    2.66000009
   12.97833252  131.29899597    3.00000000    2.67000008
   12.98138809  121.84999847    3.00000000    2.67000008
   12.98472214  118.80000305    3.00000000    2.67000008
   12.98805618  132.49200439    3.00000000    2.67000008
   12.99111176  132.48399353    3.00000000    2.67000008
   12.99305534  132.46800232    3.00000000    2.67000008
   12.99472237  128.34300232    3.00000000    2.67000008
   12.99805546  130.15299988    2.98000002    2.67000008
   13.00138855  133.96699524    2.98000002    2.66000009
   13.00444412  129.84599304    2.96000004    2.67000008
   13.00777817  137.09399414    2.94000006    2.66000009
   13.01111126  123.93000031    2.94000006    2.67000008
   13.01416683  141.72900391    2.94000006    2.67000008
   13.01749992  133.15400696    2.93000007    2.67000008
   13.02055550  118.58699799    2.93000007    2.67000008
   13.02388859  131.02299500    2.93000007    2.67000008
   13.02638817  142.97099304    2.91000009    2.69000006
   13.02750015  121.73899841    2.91000009    2.67000008
   13.03083324  135.62100220    2.91000009    2.69000006
   13.03416729  115.74199677    2.91000009    2.67000008
   13.03722286  120.97200012    2.91000009    2.69000006
   13.04055595  134.29899597    2.89000010    2.67000008
   13.04388905  127.54699707    2.91000009    2.67000008
   13.04694462  116.69100189    2.91000009    2.69000006
   13.05027771  126.29699707    2.91000009    2.67000008
   13.05333328  126.40799713    2.91000009    2.69000006
   13.05666733  118.36799622    2.89000010    2.67000008
   13.05972195  128.98500061    2.91000009    2.67000008
   13.06027794  125.14800262    2.91000009    2.67000008
   13.06361103  131.74099731    2.91000009    2.69000006
   13.06694412  141.42700195    2.91000009    2.69000006
   13.07027817  135.26400757    2.91000009    2.69000006
   13.07333374  130.41499329    2.89000010    2.67000008
   13.07666683  135.58999634    2.89000010    2.69000006
   13.07972240  135.93400574    2.89000010    2.69000006
   13.08305550  130.76800537    2.89000010    2.67000008
   13.08638859  126.61199951    2.86999989    2.69000006
   13.08944416  125.54100037    2.89000010    2.71000004
   13.09277725  118.27700043    2.86999989    2.67000008
   13.09333324  124.41899872    2.89000010    2.66000009
   13.09666634  120.00000000    2.86999989    2.69000006
   13.09972191  108.49600220    2.86999989    2.69000006
   13.10305595  130.96400452    2.86999989    2.69000006
   13.10611153  123.36799622    2.86999989    2.67000008
   13.21361065   -1.00000000   -1.00000000   -1.00000000
   13.31361103   -1.00000000   -1.00000000   -1.00000000
   13.42833328   -1.00000000   -1.00000000   -1.00000000
   13.45583344   85.61460114    2.86999989    2.73000002
   13.45888901  140.20599365    2.91000009    2.71000004
   13.46222210  147.69000244    2.89000010    2.73000002
   13.46527767  151.13800049    2.91000009    2.71000004
   13.46861076  147.79499817    2.91000009    2.73000002
   13.47194386  146.36999512    2.94000006    2.73000002
   13.47611046  146.36999512    2.98000002    2.73000002
   13.48027706  148.88900757    3.00000000    2.71000004
   13.48333359  122.94799805    3.03999996    2.73000002
   13.48666668  142.77400208    3.05999994    2.73000002
   13.48916721  144.04800415    3.07999992    2.71000004
   13.49027824  141.74600220    3.07999992    2.73000002
   13.49361134  148.65100098    3.09999990    2.71000004
   13.49666691  138.30000305    3.05999994    2.73000002
   13.50000000  142.49299622    3.05999994    2.73000002
   13.50333309  135.28500366    3.07999992    2.73000002
   13.50638866  128.66499329    3.09999990    2.71000004
   13.50972176  143.66999817    3.11999989    2.73000002
   13.51305580  140.28599548    3.09999990    2.73000002
   13.51888847  140.28599548    3.11999989    2.73000002
   13.52305508  137.02900696    3.14000010    2.71000004
   13.52611065  136.44500732    3.11999989    2.71000004
   13.52944374  137.32800293    3.16000009    2.71000004
   13.53277779  136.55700684    3.18000007    2.71000004
   13.53583336  134.28799438    3.18000007    2.73000002
   13.53916740  141.25300598    3.18000007    2.71000004
   13.54222298  128.36399841    3.20000005    2.71000004
   13.54555607  123.22799683    3.21000004    2.73000002
   13.54888916  134.37800598    3.23000002    2.71000004
   13.55194473  124.03900146    3.21000004    2.73000002
   13.55527782  130.97300720    3.21000004    2.71000004
   13.55583382  127.74600220    3.21000004    2.71000004
   13.56166649  127.74600220    3.20000005    2.73000002
   13.56583309  130.91900635    3.16000009    2.71000004
   13.56916618  130.47000122    3.16000009    2.73000002
   13.57222176  138.59100342    3.18000007    2.75000000
   13.57555580  139.44500732    3.21000004    2.71000004
   13.57861137  127.98699951    3.20000005    2.71000004
   13.58194447  121.43099976    3.21000004    2.73000002
   13.58527756  129.66600037    3.18000007    2.73000002
   13.58833313  124.36900330    3.20000005    2.73000002
   13.58916664  120.65499878    3.20000005    2.73000002
   13.59222221  132.58599854    3.20000005    2.73000002
   13.59527779  118.27999878    3.16000009    2.73000002
   13.59861088  124.64399719    3.14000010    2.73000002
   13.60444450  124.64399719    3.11999989    2.73000002
   13.60861111  125.68499756    3.09999990    2.75000000
   13.61194515  136.36599731    3.09999990    2.73000002
   13.61500072  119.95700073    3.05999994    2.73000002
   13.61833382  130.78399658    3.05999994    2.73000002
   13.62166691  129.70100403    3.07999992    2.73000002
   13.62250042  132.78399658    3.11999989    2.75000000
   13.62527752  126.70899963    3.05999994    2.73000002
   13.62833309  136.76699829    3.07999992    2.75000000
   13.63166714  139.02900696    3.05999994    2.75000000
   13.63472176  124.99400330    3.09999990    2.73000002
   13.63805580  133.68499756    3.09999990    2.73000002
   13.64138889  136.73100281    3.09999990    2.73000002
   13.64750004  136.73100281    3.11999989    2.73000002
   13.65138817  118.47799683    3.11999989    2.73000002
   13.65472221  117.31199646    3.14000010    2.73000002
   13.65583324  131.56300354    3.14000010    2.75000000
   13.65861034  128.21299744    3.11999989    2.73000002
   13.66166592  122.38600159    3.11999989    2.75000000
   13.66499996  120.58100128    3.14000010    2.75000000
   13.66805553  125.40200043    3.11999989    2.75000000
   13.67138958  121.16300201    3.14000010    2.71000004
   13.67472267  122.47299957    3.11999989    2.73000002
   13.67777824  113.60199738    3.11999989    2.73000002
   13.68111134  122.30000305    3.09999990    2.73000002
   13.68444443  121.84300232    3.09999990    2.73000002
   13.69027805  121.84300232    3.05999994    2.73000002
   13.69444466  129.00399780    3.03999996    2.75000000
   13.69750023  120.84300232    3.03999996    2.75000000
   13.70083332  140.75000000    3.00000000    2.75000000
   13.70416641  137.21099854    3.01999998    2.75000000
   13.70722198  119.49500275    3.00000000    2.75000000
   13.71055508  124.04699707    3.00000000    2.73000002
   13.71361065  130.13000488    2.96000004    2.75000000
   13.71694374  133.69000244    2.98000002    2.73000002
   13.72027779  133.42399597    2.96000004    2.75000000
   13.72249985  128.39300537    2.96000004    2.73000002
   13.72388840  130.58700562    2.98000002    2.75000000
   13.72694397  122.59700012    3.01999998    2.73000002
   13.73305511  122.59700012    3.00000000    2.75000000
   13.73722267  125.48300171    3.05999994    2.75000000
   13.74055576  126.73600006    3.09999990    2.75000000
   13.74361134  120.31600189    3.09999990    2.75000000
   13.74694443  116.75199890    3.09999990    2.75000000
   13.75000000  129.52699280    3.11999989    2.76999998
   13.75333309  116.55899811    3.09999990    2.73000002
   13.75583363  126.10299683    3.14000010    2.75000000
   13.75722218  120.24600220    3.11999989    2.73000002
   13.76027775  127.84700012    3.14000010    2.75000000
   13.76361084  120.42700195    3.14000010    2.73000002
   13.76666641  124.99500275    3.14000010    2.73000002
   13.76999950  118.93099976    3.14000010    2.75000000
   13.77583313  118.93099976    3.16000009    2.73000002
   13.77999973  128.53700256    3.16000009    2.75000000
   13.78333378  118.25299835    3.16000009    2.75000000
   13.78638935  121.81800079    3.14000010    2.75000000
   13.78916740  122.39800262    3.14000010    2.73000002
   13.79027843  109.87400055    3.14000010    2.75000000
   13.79333401  122.42199707    3.11999989    2.75000000
   13.79666710  121.13600159    3.11999989    2.75000000
   13.79972267  112.71499634    3.09999990    2.75000000
   13.80305576  119.02600098    3.09999990    2.75000000
   13.80638885  121.45899963    3.11999989    2.75000000
   13.80944443  121.11399841    3.14000010    2.76999998
   13.81277752  114.74099731    3.16000009    2.75000000
   13.81888866  114.74099731    3.21000004    2.75000000
   13.82277775  114.87999725    3.23000002    2.75000000
   13.82611084  128.17500305    3.25000000    2.76999998
   13.82944393  114.61199951    3.26999998    2.75000000
   13.83249950  118.71700287    3.28999996    2.75000000
   13.83583260  114.54799652    3.28999996    2.73000002
   13.83916664  114.41100311    3.26999998    2.75000000
   13.84222221  114.25399780    3.26999998    2.75000000
   13.84555531  120.02999878    3.26999998    2.73000002
   13.84861088  128.80599976    3.25000000    2.75000000
   13.85194492  116.40000153    3.25000000    2.75000000
   13.85527802  114.14600372    3.26999998    2.76999998
   13.85583401  121.86599731    3.25000000    2.75000000
   13.86166668  121.86599731    3.25000000    2.75000000
   13.86583328  118.79000092    3.21000004    2.75000000
   13.86888885  114.25199890    3.21000004    2.75000000
   13.87222195  121.76399994    3.21000004    2.75000000
   13.87555599  120.22899628    3.21000004    2.76999998
   13.87861156  114.09700012    3.20000005    2.75000000
   13.88194466  119.01599884    3.20000005    2.75000000
   13.88500023  125.21700287    3.21000004    2.75000000
   13.88833332  119.23600006    3.21000004    2.75000000
   13.88916683  121.45300293    3.20000005    2.75000000
   13.89194393  124.08000183    3.21000004    2.75000000
   13.89499950  125.27400208    3.21000004    2.75000000
   13.89833355  128.25500488    3.21000004    2.75000000
   13.90444374  128.25500488    3.28999996    2.75000000
   13.90861034  124.68599701    3.30999994    2.75000000
   13.91194439  128.80900574    3.32999992    2.75000000
   13.91499996  129.05799866    3.34999990    2.75000000
   13.91833401  124.08599854    3.39000010    2.75000000
   13.92138958  132.97200012    3.41000009    2.75000000
   13.92250061  124.66799927    3.41000009    2.75000000
   13.92527771  125.62899780    3.45000005    2.75000000
   13.92833328  121.50700378    3.43000007    2.75000000
   13.93166733  122.79699707    3.43000007    2.75000000
   13.93500042  125.88800049    3.45000005    2.75000000
   13.93805599  119.58699799    3.46000004    2.75000000
   13.94138908  116.44599915    3.41000009    2.75000000
   13.94722271  116.44599915    3.36999989    2.75000000
   13.95138836  118.08799744    3.32999992    2.75000000
   13.95472240  124.49500275    3.36999989    2.75000000
   13.95583344  120.16100311    3.30999994    2.76999998
   13.95833302  113.48899841    3.28999996    2.75000000
   13.96138859  115.71199799    3.21000004    2.75000000
   13.96472168  108.11100006    3.21000004    2.75000000
   13.96805477  126.11100006    3.18000007    2.76999998
   13.97111034  117.38600159    3.18000007    2.75000000
   13.97444439  125.63200378    3.18000007    2.75000000
   13.97749996  107.62200165    3.18000007    2.75000000
   13.98083305  111.68099976    3.23000002    2.75000000
   13.98416710  121.38400269    3.25000000    2.75000000
   13.99027824  121.38400269    3.26999998    2.75000000
   13.99416733  114.30999756    3.32999992    2.76999998
   13.99750042  115.13700104    3.39000010    2.76999998
   14.00083351  116.55899811    3.43000007    2.76999998
   14.00388908  122.86799622    3.43000007    2.76999998
   14.00722218  118.26699829    3.41000009    2.75000000
   14.01055527  132.68400574    3.45000005    2.76999998
   14.01361084  123.54100037    3.45000005    2.76999998
   14.01694393  115.49199677    3.45000005    2.76999998
   14.01999950  137.30400085    3.46000004    2.75000000
   14.02250004  118.50000000    3.46000004    2.75000000
   14.02388859  132.50500488    3.48000002    2.76999998
   14.02694416  125.24600220    3.46000004    2.75000000
   14.03305531  125.24600220    3.43000007    2.75000000
   14.03722286  128.91099548    3.39000010    2.76999998
   14.04027843  120.65200043    3.41000009    2.75000000
   14.04361153  127.55000305    3.36999989    2.76999998
   14.04694462  124.11699677    3.41000009    2.76999998
   14.05000019  129.27299500    3.36999989    2.76999998
   14.05333328  131.95599365    3.36999989    2.76999998
   14.05583382  127.26699829    3.34999990    2.76999998
   14.05694485  124.59999847    3.36999989    2.76999998
   14.06000042  120.98600006    3.36999989    2.75000000
   14.06333351  125.95899963    3.30999994    2.76999998
   14.06666660  124.01699829    3.30999994    2.76999998
   14.06972218  123.01300049    3.32999992    2.76999998
   14.07583332  123.01300049    3.36999989    2.76999998
   14.07999992  138.83599854    3.34999990    2.76999998
   14.08333302  121.28900146    3.36999989    2.76999998
   14.08638859  116.09899902    3.41000009    2.75000000
   14.08916664  132.48100281    3.41000009    2.75000000
   14.09027767  125.24800110    3.41000009    2.76999998
   14.09333324  126.93099976    3.41000009    2.76999998
   14.09666634  134.92999268    3.45000005    2.76999998
   14.10000038  129.11500549    3.45000005    2.76999998
   14.10305595  139.46499634    3.43000007    2.76999998
   14.10638905  142.69799805    3.36999989    2.76999998
   14.10972214  131.94799805    3.43000007    2.76999998
   14.11277771  134.30599976    3.36999989    2.76999998
   14.11861134  134.30599976    3.36999989    2.76999998
   14.13138866  142.25199890    3.34999990    2.75000000
   14.13444424  143.20500183    3.39000010    2.76999998
   14.13777733  136.05299377    3.32999992    2.76999998
   14.14111137  132.84800720    3.30999994    2.78999996
   14.14527798  146.23699951    3.34999990    2.75000000
   14.14833355  150.19299316    3.36999989    2.76999998
   14.15166664  159.77600098    3.91000009    2.76999998
   14.15472221  130.94299316    4.90999985    2.76999998
   14.15583324  126.86199951    4.90999985    2.75000000
   14.16166592  126.86199951    4.90999985    2.76999998
   14.16555500  139.27299500    4.90999985    2.76999998
   14.16888905  140.07099915    4.90999985    2.76999998
   14.17222214  145.07499695    4.90999985    2.76999998
   14.17527771  135.99400330    4.90999985    2.76999998
   14.17861176  129.92399597    4.90999985    2.76999998
   14.18194485  131.34399414    4.90999985    2.76999998
   14.18500042  126.66300201    4.90999985    2.76999998
   14.18833351  146.44999695    4.90999985    2.76999998
   14.18916702  143.63200378    4.90999985    2.76999998
   14.19194412  134.30999756    4.90999985    2.76999998
   14.19499969  127.49299622    4.90999985    2.76999998
   14.19833374  130.05499268    4.90999985    2.75000000
   14.20444393  130.05499268    4.90999985    2.76999998
   14.20861053  134.74000549    4.90999985    2.76999998
   14.21166611  149.43299866    4.90999985    2.76999998
   14.21500015  124.47000122    4.90999985    2.75000000
   14.21833324  132.05099487    4.90999985    2.78999996
   14.22138882  115.82399750    4.90999985    2.76999998
   14.22249985  124.00800323    4.90999985    2.76999998
   14.22499943  145.07600403    4.90999985    2.76999998
   14.22833252  142.44400024    4.90999985    2.76999998
   14.23138809  137.13299561    4.90999985    2.76999998
   14.23472214  153.36199951    4.90999985    2.76999998
   14.23805618  126.64499664    4.90999985    2.76999998
   14.24111176  167.65100098    4.90999985    2.76999998
   14.24722290  167.65100098    4.90999985    2.76999998
   14.25138855  133.44999695    4.90999985    2.76999998
   14.25472260  136.53900146    4.90999985    2.78999996
   14.25583363  152.47099304    4.90999985    2.76999998
   14.25833321  146.07400513    4.90999985    2.76999998
   14.26138878  146.46899414    4.90999985    2.76999998
   14.26472187  146.87500000    4.90999985    2.75000000
   14.26805496  126.61100006    4.90999985    2.76999998
   14.27111053  134.03199768    4.90999985    2.78999996
   14.27444458  134.41099548    4.90999985    2.76999998
   14.27777767  131.61999512    4.90999985    2.76999998
   14.28083324  145.90699768    4.90999985    2.78999996
   14.28416729  144.50900269    4.90999985    2.78999996
   14.29000092  144.50900269    4.90999985    2.76999998
   14.29416752  124.63200378    4.90999985    2.78999996
   14.29750061  128.68800354    4.90999985    2.76999998
   14.30055618  118.73799896    4.90999985    2.78999996
   14.30388927  134.41299438    4.90999985    2.76999998
   14.30722237  121.03600311    4.90999985    2.78999996
   14.31027794  115.93499756    4.90999985    2.78999996
   14.31361103  116.78800201    4.90999985    2.76999998
   14.31694412  125.55200195    4.90999985    2.78999996
   14.31999969  125.27400208    4.90999985    2.82999992
   14.32250023  119.99800110    4.90999985    2.78999996
   14.32361126  116.42500305    4.90999985    2.76999998
   14.32666683  127.02799988    4.90999985    2.78999996
   14.33305550  127.02799988    4.90999985    2.76999998
   14.33722210  128.43600464    4.90999985    2.76999998
   14.34027767  124.83100128    4.90999985    2.78999996
   14.34361076  132.49899292    4.90999985    2.76999998
   14.34666634  119.19300079    4.84999990    2.78999996
   14.35000038  121.41699982    3.59999990    2.76999998
   14.35333347  125.37999725    3.59999990    2.78999996
   14.35583401  126.14299774    3.59999990    2.78999996
   14.35694504  117.71800232    3.64000010    2.78999996
   14.36027813  138.35499573    3.61999989    2.76999998
   14.36333370  115.26100159    3.57999992    2.76999998
   14.36666679  125.52899933    3.61999989    2.78999996
   14.36972237  123.06500244    3.59999990    2.78999996
   14.37583351  123.06500244    3.59999990    2.76999998
   14.38000011  120.22100067    3.59999990    2.76999998
   14.38305569  125.51399994    3.59999990    2.78999996
   14.38638878  126.54299927    3.57999992    2.78999996
   14.38916683  122.12200165    3.89000010    2.76999998
   14.39000034  111.65399933    3.89000010    2.76999998
   14.39333344  125.31500244    4.13999987    2.76999998
   14.39638901  125.75099945    4.90999985    2.76999998
   14.39972210  112.64099884    4.90999985    2.78999996
   14.40305519  120.88400269    4.90999985    2.76999998
   14.40611076  123.01999664    4.90999985    2.78999996
   14.40944386  125.40599823    4.90999985    2.78999996
   14.41249943  118.56099701    4.90999985    2.76999998
   14.41861153  118.56099701    4.90999985    2.78999996
   14.42277813  121.72899628    4.90999985    2.78999996
   14.42611122  124.46299744    4.90999985    2.78999996
   14.42916679  128.24699402    4.90999985    2.78999996
   14.43249989  118.60900116    4.90999985    2.78999996
   14.43583298  114.55599976    4.90999985    2.78999996
   14.43888855  121.30799866    4.90999985    2.78999996
   14.44222260  124.13099670    4.90999985    2.78999996
   14.44527817  124.19200134    4.90999985    2.78999996
   14.44861126  115.10399628    4.90999985    2.78999996
   14.45194435  123.40000153    4.90999985    2.78999996
   14.45499992  105.23999786    4.90999985    2.78999996
   14.45583344  101.34500122    4.90999985    2.78999996
   14.47555542   71.48780060    4.90999985    2.78999996
   14.47611046   81.51719666    4.90999985    2.78999996
   14.47944355  122.87799835    4.90999985    2.80999994
   14.48249912  132.99400330    4.90999985    2.76999998
   14.48583317  119.41500092    4.90999985    2.78999996
   14.48916721  135.82299805    4.90999985    2.78999996
   14.48972225  137.14700317    4.90999985    2.78999996
   14.49277782  133.68499756    4.90999985    2.76999998
   14.49611092  139.59300232    4.90999985    2.78999996
   14.49916649  144.83399963    4.90999985    2.78999996
   14.50444412  144.83399963    4.90999985    2.78999996
   14.50833321  138.19700623    4.90999985    2.78999996
   14.51166630  118.91400146    4.90999985    2.78999996
   14.51500034  121.17299652    4.90999985    2.78999996
   14.51805496  120.75900269    4.90999985    2.78999996
   14.52138901  124.42700195    4.90999985    2.78999996
   14.52305508  117.93900299    4.90999985    2.78999996
   14.52499962  127.85500336    4.90999985    2.78999996
   14.52833271  126.87999725    4.90999985    2.78999996
   14.53138828  124.64499664    4.90999985    2.78999996
   14.53472233  110.68000031    4.90999985    2.78999996
   14.53805637  119.08799744    4.90999985    2.78999996
   14.54111195  117.87899780    4.90999985    2.78999996
   14.54722309  117.87899780    4.90999985    2.78999996
   14.55138874  115.40799713    4.90999985    2.78999996
   14.55444431  112.73699951    4.90999985    2.76999998
   14.55638885  124.44499969    4.90999985    2.78999996
   14.55805588  115.92600250    4.90999985    2.76999998
   14.56138897  121.73300171    4.90999985    2.78999996
   14.56444454  117.76999664    4.90999985    2.78999996
   14.56777763  117.13099670    4.90999985    2.78999996
   14.57111073  117.51699829    4.90999985    2.78999996
   14.57416630  116.02500153    4.90999985    2.78999996
   14.57750034  123.41000366    4.90999985    2.76999998
   14.58083344  118.14800262    4.90999985    2.78999996
   14.58388901  115.65200043    4.90999985    2.78999996
   14.59000015  115.65200043    4.90999985    2.78999996
   14.59416676  116.48699951    4.90999985    2.76999998
   14.59749985  120.69400024    4.90999985    2.78999996
   14.60055637  114.08899689    4.90999985    2.78999996
   14.60388947  122.91200256    4.90999985    2.80999994
   14.60694504  111.57900238    4.90999985    2.78999996
   14.61027813  109.59600067    4.90999985    2.78999996
   14.61361122  118.40000153    4.90999985    2.78999996
   14.61666679  117.74099731    4.90999985    2.78999996
   14.61999989  121.27899933    4.90999985    2.78999996
   14.62305546  117.45500183    4.90999985    2.78999996
   14.62361145  119.10399628    4.90999985    2.78999996
   14.62694454  116.36100006    4.90999985    2.80999994
   14.63277817  116.36100006    4.90999985    2.78999996
   14.63694477  122.11299896    4.90999985    2.78999996
   14.64027786  126.04699707    4.90999985    2.78999996
   14.64361095  108.92199707    4.90999985    2.78999996
   14.64666653  123.17700195    4.90999985    2.78999996
   14.64999962  120.33899689    4.90999985    2.78999996
   14.65305519  112.04699707    4.90999985    2.78999996
   14.65638828  121.43299866    4.90999985    2.78999996
   14.65666676  110.55300140    4.90999985    2.80999994
   14.65999985  115.61799622    4.90999985    2.78999996
   14.66305542  124.90599823    4.90999985    2.80999994
   14.66638851  116.94200134    4.90999985    2.78999996
   14.66972256  112.41699982    4.90999985    2.78999996
   14.67583370  112.41699982    4.90999985    2.78999996
   14.67972279  117.87799835    4.90999985    2.80999994
   14.68305588  125.50499725    4.90999985    2.80999994
   14.68638897  122.46600342    4.90999985    2.78999996
   14.68972206  138.50900269    4.90999985    2.80999994
   14.69000053  130.55799866    4.90999985    2.80999994
   14.69333363  122.80899811    4.90999985    2.80999994
   14.69638920  131.84500122    4.90999985    2.80999994
   14.69972229  130.01800537    4.90999985    2.80999994
   14.70305538  122.24099731    4.90999985    2.80999994
   14.70611095  123.87300110    4.90999985    2.78999996
   14.70944405  128.63699341    4.90999985    2.78999996
   14.71277714  130.89999390    4.90999985    2.82999992
   14.71861076  130.89999390    4.90999985    2.80999994
   14.72277737  118.02700043    4.90999985    2.80999994
   14.72333336  131.98399353    4.90999985    2.80999994
   14.72638798  127.57199860    4.90999985    2.78999996
   14.72972202  130.06399536    4.90999985    2.80999994
   14.73305511  125.58300018    4.90999985    2.78999996
   14.73611164  121.23200226    4.90999985    2.78999996
   14.73944473  134.06199646    4.90999985    2.78999996
   14.74250031  136.59399414    4.90999985    2.78999996
   14.74583340  127.73500061    4.90999985    2.78999996
   14.75805569  132.48300171    4.90999985    2.80999994
   14.75861073  134.18800354    4.90999985    2.78999996
   14.76166630  122.83699799    4.90999985    2.80999994
   14.76749992  122.83699799    4.90999985    2.80999994
   14.78027725  119.04900360    0.00000000    0.00000000
   14.78361130  141.67799377    4.90999985    2.78999996
   14.78666687  132.00399780    4.90999985    2.80999994
   14.79000092  129.84599304    4.90999985    2.78999996
   14.79333401  130.19700623    4.90999985    2.80999994
   14.79583359  126.81800079    4.90999985    2.80999994
   14.79694462  136.19599915    4.90999985    2.78999996
   14.80027771  132.88600159    4.90999985    2.80999994
   14.80333328  139.28999329    4.90999985    2.80999994
   14.81027794  139.28999329    4.90999985    2.78999996
   14.81444454  138.49499512    4.90999985    2.78999996
   14.81777763  129.57600403    4.90999985    2.80999994
   14.82111073  135.20399475    4.90999985    2.78999996
   14.82416630  122.90899658    4.90999985    2.78999996
   14.82750034  120.15799713    4.90999985    2.78999996
   14.82944393  128.93099976    4.90999985    2.80999994
   14.83111095  131.37600708    4.90999985    2.78999996
   14.83444405  138.04400635    4.90999985    2.80999994
   14.83749962  124.61399841    4.90999985    2.80999994
   14.84083271  125.99600220    4.90999985    2.80999994
   14.84416676  121.26799774    4.90999985    2.80999994
   14.84722233  127.86299896    4.90999985    2.80999994
   14.85333347  127.86299896    4.90999985    2.80999994
   14.85750008  133.18800354    3.75000000    2.82999992
   14.86055565  127.06800079    3.73000002    2.80999994
   14.86277771  121.65599823    3.73000002    2.80999994
   14.86416721  118.71299744    3.78999996    2.80999994
   14.86750031  122.59899902    3.82999992    2.82999992
   14.87055588  124.08399963    3.84999990    2.80999994
   14.87388897  114.96600342    3.91000009    2.80999994
   14.87722206  112.92600250    4.00000000    2.80999994
   14.88027763  115.40399933    4.01999998    2.80999994
   14.88361073  118.76200104    4.00000000    2.80999994
   14.88694477  116.42400360    4.17999983    2.80999994
   14.89000034  117.73400116    4.09999990    2.80999994
   14.89666653  117.73400116    4.11999989    2.80999994
   14.90083313  123.94599915    4.07999992    2.80999994
   14.90416622  117.33200073    4.07999992    2.80999994
   14.90749931  116.05599976    4.05999994    2.80999994
   14.91055489  124.63700104    4.05999994    2.80999994
   14.91388893  117.98000336    4.32999992    2.82999992
   14.91694450  122.41000366    4.90999985    2.80999994
   14.92027855  127.70200348    4.90999985    2.80999994
   14.92361164  118.92099762    4.90999985    2.80999994
   14.92666721  115.49700165    4.90999985    2.80999994
   14.92944431  119.78199768    4.90999985    2.80999994
   14.93027782  130.45700073    4.90999985    2.80999994
   14.93361092  124.29299927    4.90999985    2.80999994
   14.93888855  124.29299927    4.90999985    2.80999994
   14.94305515  117.99400330    4.90999985    2.78999996
   14.94638920  120.91300201    4.90999985    2.80999994
   14.94944477  112.24800110    4.90999985    2.80999994
   14.95277786  119.29100037    4.90999985    2.80999994
   14.95583344  116.61799622    4.90999985    2.80999994
   14.95916653  107.86399841    4.90999985    2.80999994
   14.96249962  111.85099792    4.90999985    2.80999994
   14.96305561  111.44599915    4.90999985    2.82999992
   14.96611118  111.86599731    4.90999985    2.82999992
   14.96944427  110.37200165    4.90999985    2.82999992
   14.97277737  114.22299957    4.90999985    2.82999992
   14.97583294  104.18000031    4.90999985    2.82999992
   14.98166656  104.18000031    4.90999985    2.82999992
   14.98583317  116.03600311    4.90999985    2.80999994
   14.98916721  112.59799957    4.90999985    2.80999994
   14.99222279  112.10700226    4.90999985    2.78999996
   14.99555588  112.74700165    4.90999985    2.80999994
   14.99638939  126.95500183    4.90999985    2.80999994
   14.99916649  114.73400116    4.90999985    2.80999994
   15.00249958  119.51499939    4.90999985    2.80999994
   15.00583363  121.07599640    4.90999985    2.80999994
   15.00888920  127.56600189    4.90999985    2.80999994
   15.01222229  119.99099731    4.90999985    2.80999994
   15.01583290  114.98200226    4.90999985    2.80999994
   15.01888847  119.46199799    4.90999985    2.80999994
   15.02472210  119.46199799    4.90999985    2.78999996
   15.02861118  114.32900238    4.90999985    2.78999996
   15.02972221  121.09400177    4.90999985    2.78999996
   15.03222179  118.62100220    4.90999985    2.80999994
   15.03555584  110.37799835    4.90999985    2.80999994
   15.03888893  116.60399628    4.90999985    2.80999994
   15.04194450  112.67600250    4.90999985    2.80999994
   15.04527855  116.00800323    4.90999985    2.80999994
   15.04833412  115.36799622    4.90999985    2.80999994
   15.05166721  106.93499756    4.90999985    2.82999992
   15.05500031  117.83899689    4.90999985    2.82999992
   15.05805588  120.56500244    4.90999985    2.82999992
   15.06138897  113.47100067    4.90999985    2.82999992
   15.06305599  123.86599731    4.90999985    2.80999994
   15.06750011  123.86599731    4.90999985    2.80999994
   15.07166672  123.62200165    4.90999985    2.80999994
   15.07472229  116.04699707    4.90999985    2.80999994
   15.07805538  124.93800354    4.90999985    2.80999994
   15.08138847  124.32299805    4.90999985    2.80999994
   15.08444405  125.18800354    4.90999985    2.82999992
   15.08777714  114.89600372    4.90999985    2.82999992
   15.09111118  111.57599640    4.90999985    2.82999992
   15.09416676  117.27899933    4.90999985    2.82999992
   15.09638882  108.94799805    4.90999985    2.82999992
   15.09777737  115.30500031    4.90999985    2.82999992
   15.10111141  115.01499939    4.90999985    2.80999994
   15.10444450  120.23200226    4.90999985    2.80999994
   15.11027813  120.23200226    4.90999985    2.82999992
   15.11444473  117.34500122    4.90999985    2.82999992
   15.11777782  114.77100372    4.90999985    2.82999992
   15.12083340  117.01999664    4.90999985    2.82999992
   15.12416649  118.32700348    4.90999985    2.82999992
   15.12722206  112.56400299    4.90999985    2.80999994
   15.12972260  117.70600128    4.90999985    2.80999994
   15.13083363  121.45999908    4.90999985    2.80999994
   15.13416672  119.85099792    4.90999985    2.80999994
   15.13749981  109.07199860    4.90999985    2.82999992
   15.14055538  107.65399933    4.90999985    2.82999992
   15.14388847  125.87500000    4.90999985    2.80999994
   15.14694405  116.22100067    4.90999985    2.82999992
   15.15305519  116.22100067    4.90999985    2.82999992
   15.15722179  124.61199951    4.90999985    2.82999992
   15.16055489  110.11900330    4.90999985    2.82999992
   15.16305542  113.91799927    4.90999985    2.82999992
   15.16416645  112.98400116    4.90999985    2.80999994
   15.16750050  112.56700134    4.90999985    2.82999992
   15.17083359  115.15599823    4.90999985    2.78999996
   15.17388916  123.15499878    4.90999985    2.80999994
   15.17722225  118.29299927    4.90999985    2.80999994
   15.18027782  149.63299561    4.90999985    2.80999994
   15.18361092  120.43499756    4.90999985    2.80999994
   15.18694496  106.61499786    4.90999985    2.82999992
   15.19000053  116.36299896    4.90999985    2.80999994
   15.19611073  116.36299896    4.90999985    2.82999992
   15.19999981  122.75199890    4.90999985    2.80999994
   15.20333290  138.35000610    4.90999985    2.82999992
   15.20666695  171.22500610    4.90999985    2.82999992
   15.20972157  164.28500366    4.26999998    2.80999994
   15.21305561  170.64100647    4.28999996    2.82999992
   15.21638870  169.86799622    4.23999977    2.82999992
   15.21944427  175.12600708    4.32999992    2.80999994
   15.22277737  198.01400757    4.34999990    2.80999994
   15.22583294  173.85000610    4.36999989    2.82999992
   15.22916603  165.23199463    4.42999983    2.82999992
   15.23111057  193.53799438    4.51000023    2.82999992
   15.23277760  172.56700134    4.44999981    2.82999992
   15.23888874  172.56700134    4.63999987    2.80999994
   15.24305534  172.35800171    4.63999987    2.82999992
   15.24611092  195.58000183    4.71999979    2.82999992
   15.24944496  181.19099426    4.67999983    2.80999994
   15.25277805  185.11000061    4.67999983    2.82999992
   15.25583363  171.84800720    4.76000023    2.82999992
   15.25916672  180.54400635    4.73999977    2.82999992
   15.26222229  204.78900146    4.71999979    2.82999992
   15.26444435  218.44900513    4.71999979    2.82999992
   15.26583290  192.62199402    4.69999981    2.82999992
   15.26916599  216.02200317    4.63999987    2.82999992
   15.27250004  190.05599976    4.65999985    2.82999992
   15.27555561  218.74400330    4.55999994    2.80999994
   15.28166676  218.74400330    4.57999992    2.82999992
   15.28583336  203.13200378    4.63999987    2.82999992
   15.28916740  220.78300476    4.46999979    2.82999992
   15.29222298  209.63099670    4.44999981    2.82999992
   15.29555607  231.13000488    4.46999979    2.80999994
   15.29777813  215.29600525    4.46999979    2.82999992
   15.29916668  241.75100708    4.42999983    2.82999992
   15.30249977  226.31100464    4.44999981    2.82999992
   15.30555534  223.37100220    4.42999983    2.82999992
   15.30888939  219.63499451    4.42999983    2.82999992
   15.31222248  209.06799316    4.46999979    2.82999992
   15.31527805  229.43200684    4.51000023    2.82999992
   15.31861115  228.63900757    4.51000023    2.82999992
   15.32444477  228.63900757    4.73999977    2.82999992
   15.32861137  237.53799438    4.78000021    2.82999992
   15.33111095  228.48199463    4.88999987    2.82999992
   15.33222198  256.03900146    4.82999992    2.82999992
   15.33555508  237.91499329    4.80999994    2.82999992
   15.33861065  231.97700500    4.80000019    2.82999992
   15.34194374  236.27600098    4.86999989    2.82999992
   15.34527779  237.38400269    4.80000019    2.82999992
   15.34833336  229.60800171    4.76000023    2.82999992
   15.35166740  228.45700073    4.80000019    2.82999992
   15.35500050  283.76000977    4.76000023    2.82999992
   15.35805607  279.11401367    4.73999977    2.80999994
   15.36138916  248.86900330    4.73999977    2.82999992
   15.36750031  248.86900330    4.59999990    2.82999992
   15.37138939  229.63499451    4.53000021    2.84999990
   15.37472248  263.28900146    4.53000021    2.82999992
   15.37833309  231.18499756    4.48999977    2.82999992
   15.38138866  254.85600281    4.46999979    2.82999992
   15.38472176  274.19400024    4.48999977    2.82999992
   15.38805580  238.33599854    4.40999985    2.82999992
   15.39111137  282.40600586    4.38999987    2.82999992
   15.39444447  234.83099365    4.34999990    2.82999992
   15.39750004  313.26901245    4.51000023    2.80999994
   15.39833355  234.51300049    4.44999981    2.82999992
   15.40111065  287.67401123    4.48999977    2.82999992
   15.40444374  364.02899170    4.53999996    2.82999992
   15.41027737  364.02899170    4.65999985    2.82999992
   15.41444397  322.34500122    4.71999979    2.84999990
   15.41750050  307.73599243    4.67999983    2.82999992
   15.42083359  281.18200684    4.80000019    2.84999990
   15.42416668  266.34399414    4.80000019    2.82999992
   15.42722225  283.34298706    4.82999992    2.82999992
   15.43055630  252.55599976    4.80999994    2.84999990
   15.43166733  313.55801392    4.80999994    2.84999990
   15.43388939  283.22698975    4.86999989    2.82999992
   15.43722248  276.04199219    4.84999990    2.82999992
   15.44055557  250.38999939    4.80999994    2.82999992
   15.44361115  253.91099548    4.80999994    2.84999990
   15.44694424  266.86999512    4.78000021    2.82999992
   15.45305538  266.86999512    4.73999977    2.82999992
   15.45722198  251.25500488    4.65999985    2.82999992
   15.46055508  291.05899048    4.65999985    2.82999992
   15.46361065  301.66000366    4.55999994    2.82999992
   15.46527767  279.63101196    4.57999992    2.84999990
   15.46722221  291.06698608    4.44999981    2.82999992
   15.47055531  247.00000000    4.53000021    2.82999992
   15.47388840  290.05099487    4.53000021    2.84999990
   15.49638939  290.05099487    4.73999977    2.84999990
   15.50055599  223.07899475    4.86999989    2.84999990
   15.50361156  228.92199707    4.88999987    2.82999992
   15.50694466  254.00599670    4.90999985    2.82999992
   15.51000023  224.07800293    4.90999985    2.82999992
   15.51333332  222.10400391    4.90999985    2.82999992
   15.51666641  186.82899475    4.90999985    2.82999992
   15.51972198  247.74000549    4.90999985    2.84999990
   15.52305508  232.81300354    4.90999985    2.82999992
   15.52638817  250.71299744    4.90999985    2.84999990
   15.52944374  248.78799438    4.90999985    2.84999990
   15.53194427  222.91299438    4.90999985    2.84999990
   15.53305531  220.02200317    4.90999985    2.82999992
   15.53916740  220.02200317    4.90999985    2.82999992
   15.54305553  222.03500366    4.84999990    2.82999992
   15.54638958  194.11700439    4.86999989    2.82999992
   15.54972267  213.25100708    4.82999992    2.82999992
   15.55277824  229.18699646    4.82999992    2.82999992
   15.55611134  230.71800232    4.73999977    2.82999992
   15.55944443  202.91799927    4.73999977    2.84999990
   15.56250000  227.14300537    4.65999985    2.84999990
   15.56527805  197.52000427    4.67999983    2.84999990
   15.56611156  220.26400757    4.73999977    2.82999992
   15.56944466  220.88600159    4.67999983    2.82999992
   15.57250023  215.90299988    4.76000023    2.84999990
   15.57583332  218.92700195    4.69999981    2.82999992
   15.58194447  218.92700195    4.80999994    2.84999990
   15.58611107  192.07299805    4.90999985    2.84999990
   15.58916664  213.35200500    4.90999985    2.86999989
   15.59249973  217.80400085    4.90999985    2.82999992
   15.59583282  203.94099426    4.90999985    2.82999992
   15.59861088  189.94599915    4.90999985    2.84999990
   15.59944439  224.55099487    4.90999985    2.82999992
   15.60277843  209.76899719    4.90999985    2.84999990
   15.60583401  204.43499756    4.90999985    2.82999992
   15.60916710  209.59800720    4.90999985    2.82999992
   15.61250019  185.09800720    4.90999985    2.84999990
   15.61555576  213.59500122    4.90999985    2.82999992
   15.61888885  179.50100708    4.90999985    2.84999990
   15.62472248  179.50100708    4.90999985    2.84999990
   15.62888908  201.28599548    4.90999985    2.84999990
   15.63194466  194.80999756    4.90999985    2.84999990
   15.63249969  200.60499573    4.90999985    2.84999990
   15.63583279  185.56500244    4.90999985    2.84999990
   15.63888836  191.19599915    4.90999985    2.84999990
   15.64222240  172.48199463    4.90999985    2.82999992
   15.64555550  201.18200684    4.90999985    2.82999992
   15.64861107  181.24299622    4.90999985    2.84999990
   15.65194416  190.78700256    4.90999985    2.82999992
   15.65527725  182.61300659    4.86999989    2.82999992
   15.65833282  190.20500183    4.84999990    2.84999990
   15.66166592  188.28799438    4.90999985    2.82999992
   15.66750050  188.28799438    4.88999987    2.84999990
   15.67166710  172.10800171    4.90999985    2.82999992
   15.67500019  179.17500305    4.90999985    2.84999990
   15.67805576  188.16700745    4.90999985    2.84999990
   15.68138885  191.95500183    4.90999985    2.84999990
   15.68472195  189.93800354    4.90999985    2.82999992
   15.68777752  200.81599426    4.90999985    2.84999990
   15.69166660  150.52699280    4.90999985    2.82999992
   15.69499969  187.22000122    4.90999985    2.84999990
   15.69805527  188.27900696    4.90999985    2.84999990
   15.69888878  173.82400513    4.90999985    2.84999990
   15.70166683  183.75999451    4.90999985    2.84999990
   15.70499992  200.21400452    4.90999985    2.82999992
   15.71055508  200.21400452    4.90999985    2.82999992
   15.71555519  160.32600403    4.90999985    2.80999994
   15.71861076  184.76100159    4.90999985    2.82999992
   15.72194386  175.13600159    4.90999985    2.84999990
   15.72527695  188.03999329    4.90999985    2.84999990
   15.72833252  175.85600281    4.90999985    2.84999990
   15.73166656  166.00399780    4.90999985    2.84999990
   15.73222160  161.03300476    4.90999985    2.82999992
   15.73527813  161.43099976    4.90999985    2.84999990
   15.73833370  157.98800659    4.90999985    2.84999990
   15.74166679  140.31799316    4.90999985    2.84999990
   15.74472237  184.68499756    4.90999985    2.84999990
   15.74805546  173.36399841    4.90999985    2.84999990
   15.75333309  173.36399841    4.90999985    2.84999990
   15.75749969  158.00000000    4.90999985    2.82999992
   15.76055527  176.49099731    4.90999985    2.82999992
   15.76388931  178.60800171    4.90999985    2.82999992
   15.76555538  154.12800598    4.90999985    2.84999990
   15.76749992  185.30400085    4.90999985    2.84999990
   15.77083302  154.61000061    4.90999985    2.82999992
   15.77388859  161.79499817    4.90999985    2.84999990
   15.77722168  172.10299683    4.90999985    2.84999990
   15.78055573  180.22999573    4.90999985    2.84999990
   15.78361130  187.74200439    4.90999985    2.86999989
   15.78694534  166.49000549    4.90999985    2.84999990
   15.79027843  189.61099243    4.90999985    2.84999990
   15.79611111  189.61099243    4.90999985    2.82999992
   15.80027771  176.31100464    4.90999985    2.82999992
   15.80361176  171.46899414    4.90999985    2.82999992
   15.80666733  183.75500488    4.90999985    2.84999990
   15.81000042  187.32099915    4.90999985    2.84999990
   15.81305599  171.85400391    4.90999985    2.84999990
   15.81638908  171.06700134    4.90999985    2.84999990
   15.81972218  174.06399536    4.90999985    2.82999992
   15.82277775  168.30400085    4.90999985    2.84999990
   15.82611084  175.52600098    4.90999985    2.84999990
   15.82944393  166.27400208    4.90999985    2.82999992
   15.83249950  155.63699341    4.90999985    2.84999990
   15.83277798  167.80200195    4.90999985    2.84999990
   15.83888817  167.80200195    4.90999985    2.82999992
   15.84305477  160.32000732    4.90999985    2.84999990
   15.84638882  151.94700623    4.90999985    2.84999990
   15.84944439  161.52699280    4.90999985    2.84999990
   15.85277843  147.24800110    4.90999985    2.84999990
   15.85611153  151.04899597    4.90999985    2.84999990
   15.85916710  155.61999512    4.90999985    2.86999989
   15.86250019  156.84199524    4.90999985    2.84999990
   15.86583328  157.07600403    4.90999985    2.86999989
   15.86611176  140.93499756    4.90999985    2.86999989
   15.86944485  151.55499268    4.90999985    2.86999989
   15.87250042  172.41900635    4.90999985    2.84999990
   15.87583351  164.35200500    4.90999985    2.84999990
   15.88194466  164.35200500    4.90999985    2.84999990
   15.88611126  142.10000610    4.90999985    2.84999990
   15.88944435  142.88600159    4.90999985    2.86999989
   15.89277744  136.58999634    4.90999985    2.84999990
   15.89583302  162.35699463    4.90999985    2.84999990
   15.89916611  153.83799744    4.90999985    2.82999992
   15.89944458  153.76300049    4.90999985    2.82999992
   15.90277767  154.47000122    4.90999985    2.84999990
   15.90583324  131.49600220    4.90999985    2.84999990
   15.90916634  135.41799927    4.90999985    2.84999990
   15.91249943  159.34100342    4.90999985    2.84999990
   15.91555500  167.15400696    4.90999985    2.86999989
   15.91888905  143.30400085    4.90999985    2.84999990
   15.92472267  143.30400085    4.90999985    2.84999990
   15.92888927  149.83000183    4.90999985    2.84999990
   15.93194485  130.96899414    4.90999985    2.84999990
   15.93249989  154.12199402    4.90999985    2.84999990
   15.93583298  130.67199707    4.90999985    2.84999990
   15.93916702  134.67900085    4.90999985    2.84999990
   15.94222260  154.22000122    4.90999985    2.86999989
   15.94555569  133.52699280    4.90999985    2.86999989
   15.94861126  149.28700256    4.90999985    2.84999990
   15.95194435  143.13400269    4.90999985    2.84999990
   15.95527744  136.98399353    4.90999985    2.84999990
   15.95833302  142.76199341    4.90999985    2.84999990
   15.96166611  146.54299927    4.90999985    2.86999989
   15.96749973  146.54299927    4.90999985    2.86999989
   15.97166634  130.52999878    4.90999985    2.86999989
   15.97499943  142.48699951    4.90999985    2.84999990
   15.97805500  156.11500549    4.90999985    2.84999990
   15.98138809  131.15899658    4.90999985    2.84999990
   15.98444462  121.26200104    4.90999985    2.84999990
   15.98777771  151.19700623    4.90999985    2.84999990
   15.99111176  150.75300598    4.90999985    2.84999990
   15.99416733  155.24699402    4.90999985    2.84999990
   15.99750042  159.12899780    4.90999985    2.84999990
   15.99916649  152.69700623    4.90999985    2.84999990
   16.00111198  151.05900574    4.90999985    2.84999990
   16.00444412  137.25300598    4.90999985    2.84999990
   16.01027870  137.25300598    4.90999985    2.84999990
   16.01444435  150.33599854    4.90999985    2.86999989
   16.01777840  144.15100098    4.90999985    2.84999990
   16.02083397  140.04600525    4.90999985    2.84999990
   16.02416611  151.29899597    4.90999985    2.84999990
   16.02750015  140.83900452    4.90999985    2.86999989
   16.03055573  146.26199341    4.90999985    2.86999989
   16.03249931  143.40100098    4.90999985    2.84999990
   16.03416634  153.44000244    4.90999985    2.86999989
   16.03750038  154.37699890    4.90999985    2.84999990
   16.04055595  159.79200745    4.90999985    2.84999990
   16.04388809  139.99400330    4.90999985    2.84999990
   16.04694366  147.25399780    4.90999985    2.86999989
   16.05333328  147.25399780    4.90999985    2.84999990
   16.05722237  141.41400146    4.90999985    2.84999990
   16.06055450  146.84500122    4.90999985    2.84999990
   16.06388855  151.22099304    4.90999985    2.84999990
   16.06583214  139.12199402    4.90999985    2.84999990
   16.06750107  145.40899658    4.90999985    2.84999990
   16.07083511  144.28399658    4.90999985    2.84999990
   16.07389069  153.27200317    4.90999985    2.84999990
   16.07722282  145.30799866    4.90999985    2.84999990
   16.08027840  145.73599243    4.90999985    2.84999990
   16.08361244  142.96299744    4.90999985    2.84999990
   16.08694458  133.39500427    4.90999985    2.86999989
   16.09000015  102.12799835    4.90999985    2.84999990
   16.09611130  102.12799835    4.90999985    2.86999989
   16.10027885  128.08500671    4.90999985    2.84999990
   16.10333443  128.16999817    4.90999985    2.86999989
   16.10722351  126.63099670    4.90999985    2.84999990
   16.11055565  127.70500183    4.90999985    2.84999990
   16.11361122  122.79000092    4.90999985    2.84999990
   16.11694527  112.51999664    4.90999985    2.84999990
   16.12027740  129.74600220    4.90999985    2.86999989
   16.12333298  123.56900024    4.90999985    2.84999990
   16.12666702  128.85000610    4.90999985    2.84999990
   16.13000107  108.51100159    4.90999985    2.84999990
   16.13249969  105.04599762    4.90999985    2.84999990
   16.13361168  119.77600098    4.90999985    2.86999989
   16.13888931  119.77600098    4.90999985    2.84999990
   16.14305496  127.76000214    4.90999985    2.84999990
   16.14611053  115.55799866    4.90999985    2.84999990
   16.14944458  128.71299744    4.90999985    2.84999990
   16.15277672  111.67500305    4.90999985    2.82999992
   16.15583229  116.86299896    4.90999985    2.84999990
   16.15916634  119.02600098    4.90999985    2.86999989
   16.16250038  103.80000305    4.90999985    2.84999990
   16.16555595  115.70999908    4.90999985    2.84999990
   16.16611099  128.27799988    4.90999985    2.84999990
   16.16944313  119.53399658    4.90999985    2.84999990
   16.17249870  117.19899750    4.90999985    2.84999990
   16.17583275  115.86599731    4.90999985    2.84999990
   16.18166542  115.86599731    4.90999985    2.84999990
   16.18583298  123.05899811    4.90999985    2.84999990
   16.18916512  122.56600189    4.90999985    2.84999990
   16.19222069  111.58200073    4.90999985    2.82999992
   16.19555473  119.75399780    4.90999985    2.84999990
   16.19888878  110.44499969    4.90999985    2.84999990
   16.19944382  118.80000305    4.90999985    2.84999990
   16.20250130  111.33599854    4.90999985    2.84999990
   16.20555687  122.08100128    4.90999985    2.84999990
   16.20888901  110.87300110    4.90999985    2.84999990
   16.21222305  122.23000336    4.90999985    2.84999990
   16.21527863  110.17900085    4.90999985    2.84999990
   16.21861076  127.75900269    4.90999985    2.84999990
   16.22444534  127.75900269    4.90999985    2.84999990
   16.22888947  117.72399902    4.90999985    2.84999990
   16.23194504  109.78299713    4.90999985    2.84999990
   16.23277855  110.11199951    4.90999985    2.86999989
   16.23555565  114.85399628    4.90999985    2.84999990
   16.23861122  110.72100067    4.90999985    2.86999989
   16.24194527  119.16000366    4.90999985    2.84999990
   16.24527740  117.28700256    4.90999985    2.86999989
   16.24833298  116.50800323    4.90999985    2.86999989
   16.25166702  112.88600159    4.90999985    2.84999990
   16.25499916  112.00000000    4.90999985    2.86999989
   16.25805473  116.83799744    4.90999985    2.84999990
   16.26138878  116.72599792    4.90999985    2.84999990
   16.26749992  116.72599792    4.90999985    2.84999990
   16.27166557  114.96299744    4.90999985    2.84999990
   16.27472115  118.24400330    4.90999985    2.84999990
   16.27805519  113.16600037    4.90999985    2.84999990
   16.28111076  114.50700378    4.90999985    2.84999990
   16.28444481  115.45700073    4.90999985    2.84999990
   16.28777695  116.30699921    4.90999985    2.84999990
   16.29083252  117.38099670    4.90999985    2.84999990
   16.29416656  118.25800323    4.90999985    2.84999990
   16.29749870  118.25900269    4.90999985    2.86999989
   16.29944420  106.79900360    4.90999985    2.84999990
   16.30111122  106.58699799    4.90999985    2.84999990
   16.30416679  114.34100342    4.90999985    2.86999989
   16.31027794  114.34100342    4.90999985    2.84999990
   16.31444359  126.34100342    4.90999985    2.84999990
   16.31750107  123.09799957    4.90999985    2.84999990
   16.32083511  119.77799988    4.90999985    2.84999990
   16.32416725  121.98899841    4.90999985    2.84999990
   16.32722282  120.60700226    4.90999985    2.84999990
   16.33055687  126.23400116    4.90999985    2.84999990
   16.33277893  120.08799744    4.90999985    2.84999990
   16.33416748  116.71800232    4.90999985    2.86999989
   16.33722305  118.32399750    4.90999985    2.84999990
   16.34055710  109.54699707    4.90999985    2.84999990
   16.34388924  119.59200287    4.90999985    2.84999990
   16.34694481  109.89800262    4.90999985    2.84999990
   16.35305595  109.89800262    4.90999985    2.82999992
   16.35722351  118.80000305    4.90999985    2.84999990
   16.36055565  113.41799927    4.90999985    2.84999990
   16.36444473  107.83699799    4.90999985    2.84999990
   16.36611176  119.07399750    4.90999985    2.82999992
   16.36833382  114.72499847    4.90999985    2.84999990
   16.37138939  120.81500244    4.90999985    2.84999990
   16.37472153  111.66400146    4.90999985    2.84999990
   16.37805557  112.31099701    4.90999985    2.84999990
   16.38111115  108.47599792    4.90999985    2.82999992
   16.38444519  116.52600098    4.90999985    2.84999990
   16.38777733  118.65699768    4.90999985    2.84999990
   16.39083290  121.92199707    4.90999985    2.84999990
   16.39583397  121.92199707    4.90999985    2.84999990
   16.39999962  113.45999908    4.90999985    2.84999990
   16.40333366  112.67199707    4.90999985    2.84999990
   16.40666580  119.93299866    4.90999985    2.84999990
   16.40972137  109.93199921    4.90999985    2.84999990
   16.41305542  118.24800110    4.90999985    2.84999990
   16.41611099  114.18699646    4.90999985    2.84999990
   16.41944313  118.91899872    4.90999985    2.84999990
   16.42277718  116.20099640    4.90999985    2.84999990
   16.42583275  116.98799896    4.90999985    2.86999989
   16.42916679  121.77200317    4.90999985    2.84999990
   16.43249893  113.42099762    4.90999985    2.82999992
   16.43277740  112.60900116    4.90999985    2.82999992
   16.43888855  112.60900116    4.90999985    2.84999990
   16.44305420  117.95999908    4.90999985    2.84999990
   16.44610977  119.56199646    4.90999985    2.84999990
   16.44944382  120.90899658    4.90999985    2.84999990
   16.45250130  111.94499969    4.90999985    2.84999990
   16.45583344  123.44000244    4.90999985    2.84999990
   16.45916748  116.04100037    4.90999985    2.84999990
   16.46222305  111.78299713    4.90999985    2.84999990
   16.46555710  109.14800262    4.90999985    2.84999990
   16.46611214  108.58699799    4.90999985    2.84999990
   16.46916771  106.18499756    4.90999985    2.84999990
   16.47249985  107.94899750    4.90999985    2.84999990
   16.47555542  111.79100037    4.90999985    2.84999990
   16.48166656  111.79100037    4.90999985    2.84999990
   16.48583412  115.33200073    4.90999985    2.84999990
   16.48888969  110.41999817    4.90999985    2.84999990
   16.49222183  110.97100067    4.90999985    2.84999990
   16.50972176  110.93399811    4.90999985    2.84999990
   16.51222229  106.18599701    4.90999985    2.84999990
   16.51555634  111.41500092    4.90999985    2.84999990
   16.51861000  120.13800049    4.90999985    2.84999990
   16.52472115  120.13800049    4.90999985    2.84999990
   16.52888870  127.61799622    4.90999985    2.84999990
   16.53194427  126.58699799    4.90999985    2.82999992
   16.53527641  121.74900055    4.90999985    2.84999990
   16.53861046  145.32699585    4.90999985    2.86999989
   16.54166603  135.15199280    4.90999985    2.86999989
   16.54305458  127.20500183    4.90999985    2.84999990
   16.54555511  138.05099487    4.90999985    2.86999989
   16.54861069  125.43099976    4.90999985    2.84999990
   16.55194283  128.71499634    4.90999985    2.86999989
   16.55527687  124.86900330    4.90999985    2.84999990
   16.55833244  123.02400208    4.90999985    2.84999990
   16.56166649  127.48000336    4.90999985    2.84999990
   16.56750107  127.48000336    4.90999985    2.84999990
   16.57166672  126.79100037    4.90999985    2.86999989
   16.57500076  130.23899841    4.90999985    2.86999989
   16.57638931  134.42900085    4.90999985    2.84999990
   16.57861137  126.52200317    4.90999985    2.84999990
   16.58166695  129.68499756    4.90999985    2.86999989
   16.58500099  145.51100159    4.90999985    2.84999990
   16.58805656  145.05000305    4.90999985    2.84999990
   16.59138870  164.99099731    4.90999985    2.86999989
   16.59472275  147.51800537    4.90999985    2.84999990
   16.59777832  161.18499756    4.90999985    2.84999990
   16.60111237  130.31300354    4.90999985    2.84999990
   16.60416794  149.76600647    4.90999985    2.84999990
   16.61916733  149.76600647    4.90999985    2.84999990
   16.62333298  134.07600403    4.90999985    2.84999990
   16.62666702  152.32000732    4.90999985    2.86999989
   16.63000107  134.81199646    4.90999985    2.84999990
   16.63305473  145.15499878    4.90999985    2.86999989
   16.63638878  141.57600403    4.90999985    2.84999990
   16.63972282  149.05400085    4.90999985    2.84999990
   16.64277840  139.09500122    4.90999985    2.84999990
   16.64333344  143.06300354    4.90999985    2.84999990
   16.64666748  165.39399719    4.90999985    2.86999989
   16.65333366  165.39399719    4.90999985    2.86999989
   16.65722275  146.51199341    4.90999985    2.86999989
   16.66055489  145.33900452    4.90999985    2.84999990
   16.66388893  148.75999451    4.90999985    2.84999990
   16.66694450  144.80499268    4.90999985    2.84999990
   16.67027664  133.54400635    4.90999985    2.84999990
   16.67361069  160.10699463    4.90999985    2.86999989
   16.67666626  156.69599915    4.90999985    2.84999990
   16.67722130  171.75900269    4.90999985    2.84999990
   16.68055534  160.96800232    4.90999985    2.84999990
   16.68361092  142.29200745    4.90999985    2.84999990
   16.68694305  137.40600586    4.90999985    2.86999989
   16.68999863  157.50599670    4.90999985    2.84999990
   16.69610977  157.50599670    4.90999985    2.84999990
   16.70027924  162.37500000    4.90999985    2.84999990
   16.70333481  166.65699768    4.90999985    2.84999990
   16.70666695  157.14900208    4.90999985    2.84999990
   16.71000099  146.51100159    4.90999985    2.84999990
   16.71027946  151.53700256    4.90999985    2.84999990
   16.71361160  129.32499695    4.90999985    2.84999990
   16.71694565  149.32800293    4.90999985    2.86999989
   16.72000122  149.74800110    4.90999985    2.84999990
   16.72333336  149.61700439    4.90999985    2.84999990
   16.72666740  151.02299500    4.90999985    2.84999990
   16.72972298  154.19900513    4.90999985    2.84999990
   16.73305511  163.95199585    4.90999985    2.84999990
   16.73888969  163.95199585    4.90999985    2.84999990
   16.74305534  151.90499878    4.90999985    2.82999992
   16.74361229  172.71000671    4.90999985    2.84999990
   16.74666786  159.92999268    4.90999985    2.84999990
   16.75000000  153.23199463    4.90999985    2.84999990
   16.75305557  168.98100281    4.90999985    2.84999990
   16.75638962  171.98100281    4.90999985    2.84999990
   16.75972176  142.32099915    4.90999985    2.84999990
   16.76277733  148.76300049    4.90999985    2.84999990
   16.76611137  156.20599365    4.90999985    2.84999990
   16.76916695  172.66200256    4.90999985    2.84999990
   16.77249908  159.75199890    4.90999985    2.86999989
   16.77583313  160.73100281    4.90999985    2.82999992
   16.77694511  152.91200256    4.90999985    2.84999990
   16.78166580  152.91200256    4.90999985    2.84999990
   16.78583336  145.16999817    4.90999985    2.84999990
   16.78916550  157.28199768    4.90999985    2.84999990
   16.79222107  164.90800476    4.90999985    2.86999989
   16.79555511  131.63400269    4.90999985    2.84999990
   16.79888916  137.43499756    4.90999985    2.84999990
   16.80194283  129.40499878    4.90999985    2.84999990
   16.80527687  136.24899292    4.90999985    2.84999990
   16.80833244  130.13999939    4.90999985    2.84999990
   16.81027794  135.38400269    4.90999985    2.82999992
   16.81194305  135.59399414    4.90999985    2.84999990
   16.81527710  138.39199829    4.90999985    2.84999990
   16.81833458  147.48599243    4.90999985    2.84999990
   16.82472229  147.48599243    4.90999985    2.84999990
   16.82861137  127.19899750    4.90999985    2.86999989
   16.83194542  140.85800171    4.90999985    2.86999989
   16.83527756  134.62800598    4.90999985    2.86999989
   16.83833313  134.74200439    4.90999985    2.84999990
   16.84166718  165.87699890    4.90999985    2.84999990
   16.84361267  144.14199829    4.90999985    2.84999990
   16.84527779  138.10899353    4.90999985    2.84999990
   16.84861183  143.98500061    4.90999985    2.84999990
   16.85166740  141.88499451    4.90999985    2.82999992
   16.85499954  146.15199280    4.90999985    2.84999990
   16.85833359  128.30000305    4.90999985    2.84999990
   16.86138916  141.33599854    4.90999985    2.84999990
   16.86750031  141.33599854    4.90999985    2.84999990
   16.87166595  151.43800354    4.90999985    2.84999990
   16.87472153  130.87800598    4.90999985    2.86999989
   16.87722206  126.66899872    4.90999985    2.86999989
   16.87833405  133.43699646    4.90999985    2.84999990
   16.88166618  133.79600525    4.90999985    2.84999990
   16.88472176  116.58300018    4.90999985    2.84999990
   16.88805580  132.01300049    4.90999985    2.86999989
   16.89138794  132.77699280    4.90999985    2.84999990
   16.89444351  134.20199585    4.90999985    2.84999990
   16.89777756  124.31199646    4.90999985    2.86999989
   16.90111160  125.51999664    4.90999985    2.84999990
   16.90416718  125.02200317    4.90999985    2.84999990
   16.91027832  125.02200317    4.90999985    2.86999989
   16.91444397  121.74500275    4.90999985    2.86999989
   16.91749954  132.31799316    4.90999985    2.84999990
   16.92083359  135.27699280    4.90999985    2.84999990
   16.92416573  130.58700562    4.90999985    2.84999990
   16.92722130  147.60000610    4.90999985    2.84999990
   16.93055534  149.43099976    4.90999985    2.84999990
   16.93388748  143.56300354    4.90999985    2.84999990
   16.93694305  138.95500183    4.90999985    2.84999990
   16.94027710  145.01699829    4.90999985    2.84999990
   16.94333267  140.16999817    4.90999985    2.84999990
   16.94527626  136.25399780    4.90999985    2.86999989
   16.94722176  127.38999939    4.90999985    2.86999989
   16.95305634  127.38999939    4.90999985    2.84999990
   16.95722389  121.08100128    4.90999985    2.84999990
   16.96055603  122.09200287    4.90999985    2.84999990
   16.96361160  125.48699951    4.90999985    2.84999990
   16.96694565  126.78500366    4.90999985    2.84999990
   16.97027779  129.50999451    4.90999985    2.86999989
   16.97333336  135.33200073    4.90999985    2.84999990
   16.97666740  124.12300110    4.90999985    2.86999989
   16.97861099  124.83300018    4.90999985    2.86999989
   16.98027802  120.74099731    4.90999985    2.86999989
   16.98333359  124.27799988    4.90999985    2.84999990
   16.98666763  121.16200256    4.90999985    2.82999992
   16.98999977  134.22999573    4.90999985    2.84999990
   16.99611092  134.22999573    4.90999985    2.84999990
   17.00000000  140.51600647    4.90999985    2.84999990
   17.00333405  141.76899719    4.90999985    2.86999989
   17.00666618  131.88699341    4.90999985    2.84999990
   17.00972176  139.10000610    4.90999985    2.84999990
   17.01222229  144.51300049    4.90999985    2.86999989
   17.01361084  134.11000061    4.90999985    2.84999990
   17.01666641  146.30900574    4.90999985    2.84999990
   17.02000046  152.25300598    4.90999985    2.84999990
   17.02333260  148.09599304    4.90999985    2.84999990
   17.02638817  151.44099426    4.90999985    2.84999990
   17.02972221  141.28999329    4.90999985    2.84999990
   17.03277779  151.28399658    4.90999985    2.84999990
   17.03888893  151.28399658    4.90999985    2.84999990
   17.04305458  151.07400513    4.90999985    2.84999990
   17.04555511  168.46499634    4.90999985    2.84999990
   17.04666710  151.26400757    4.90999985    2.84999990
   17.04972076  168.58200073    4.90999985    2.82999992
   17.05305481  153.33000183    4.90999985    2.84999990
   17.05638885  149.18299866    4.90999985    2.84999990
   17.05944443  150.48399353    4.90999985    2.84999990
   17.06277657  153.13699341    4.90999985    2.84999990
   17.06583214  163.19500732    4.90999985    2.84999990
   17.06916809  162.96400452    4.90999985    2.84999990
   17.07250023  166.41400146    4.90999985    2.84999990
   17.07555580  176.19700623    4.90999985    2.86999989
   17.08166695  176.19700623    4.90999985    2.84999990
   17.08583450  159.44599915    4.90999985    2.86999989
   17.08889008  181.77499390    4.90999985    2.84999990
   17.09222221  157.48899841    4.90999985    2.86999989
   17.09555626  180.55900574    4.90999985    2.84999990
   17.09861183  163.84500122    4.90999985    2.84999990
   17.10194397  160.75900269    4.90999985    2.86999989
   17.10527802  152.63000488    4.90999985    2.82999992
   17.10833359  135.16200256    4.90999985    2.82999992
   17.11166763  147.28700256    4.90999985    2.84999990
   17.11250114  149.80400085    4.90999985    2.84999990
   17.11527824  136.67199707    4.90999985    2.84999990
   17.11833382  144.33999634    4.90999985    2.86999989
   17.12444496  144.33999634    4.90999985    2.84999990
   17.12861061  140.79899597    4.90999985    2.84999990
   17.13194466  138.87600708    4.90999985    2.84999990
   17.13500023  127.75399780    4.90999985    2.82999992
   17.13833237  135.05999756    4.90999985    2.86999989
   17.14166641  130.69000244    4.90999985    2.84999990
   17.14472198  142.23100281    4.90999985    2.84999990
   17.14583397  141.70300293    4.90999985    2.84999990
   17.14833260  141.05099487    4.90999985    2.84999990
   17.15138817  126.43499756    4.90999985    2.84999990
   17.15472221  131.31500244    4.90999985    2.84999990
   17.15805435  139.77200317    4.90999985    2.84999990
   17.16110992  141.05299377    4.90999985    2.84999990
   17.16749954  141.05299377    4.90999985    2.86999989
   17.17138863  126.70899963    4.90999985    2.84999990
   17.17472076  142.86399841    4.90999985    2.84999990
   17.17805481  157.27099609    4.90999985    2.84999990
   17.17944336  161.44500732    4.90999985    2.84999990
   17.18166542  153.66700745    4.90999985    2.84999990
   17.18472099  149.59300232    4.90999985    2.84999990
   17.18805504  143.56500244    4.90999985    2.84999990
   17.19138718  144.64300537    4.90999985    2.84999990
   17.19444275  150.21800232    4.90999985    2.84999990
   17.19777679  149.20899963    4.90999985    2.84999990
   17.20083427  150.17500305    4.90999985    2.84999990
   17.20416832  146.58700562    4.90999985    2.84999990
   17.21027946  146.58700562    4.90999985    2.84999990
   17.21444511  147.03300476    4.90999985    2.84999990
   17.21750069  141.03399658    4.90999985    2.84999990
   17.22083473  154.97500610    4.90999985    2.84999990
   17.22389030  151.96899414    4.90999985    2.84999990
   17.22722244  161.25599670    4.90999985    2.84999990
   17.23055649  141.54699707    4.90999985    2.86999989
   17.23361206  145.20300293    4.90999985    2.84999990
   17.23694420  158.18200684    4.90999985    2.86999989
   17.24027824  138.30400085    4.90999985    2.84999990
   17.24333382  148.89500427    4.90999985    2.84999990
   17.24611092  149.45199585    4.90999985    2.84999990
   17.24722290  129.28799438    4.90999985    2.84999990
   17.25305557  129.28799438    4.90999985    2.84999990
   17.25722313  143.45199585    4.90999985    2.84999990
   17.26027870  146.64799500    4.90999985    2.84999990
   17.26361084  145.80000305    4.90999985    2.84999990
   17.26694489  141.57099915    4.90999985    2.82999992
   17.27000046  149.44299316    4.90999985    2.84999990
   17.27333260  144.83299255    4.90999985    2.84999990
   17.27666664  141.16999817    4.90999985    2.84999990
   17.27944374  145.54100037    4.90999985    2.84999990
   17.28027725  163.70399475    4.90999985    2.84999990
   17.28333282  147.87699890    4.90999985    2.84999990
   17.28666687  137.59300232    4.90999985    2.84999990
   17.28999901  166.17999268    4.90999985    2.82999992
   17.29583359  166.17999268    4.90999985    2.86999989
   17.29999924  152.44500732    4.90999985    2.86999989
   17.30333328  144.02799988    4.90999985    2.84999990
   17.30638885  148.46299744    4.90999985    2.84999990
   17.30972099  148.92999268    4.90999985    2.84999990
   17.31277657  161.12600708    4.90999985    2.84999990
   17.31333351  148.78900146    4.90999985    2.84999990
   17.31638718  134.49800110    4.90999985    2.84999990
   17.31972313  156.17700195    4.90999985    2.84999990
   17.32305717  138.71400452    4.90999985    2.84999990
   17.32611275  145.12199402    4.90999985    2.84999990
   17.32944489  143.74400330    4.90999985    2.93000007
   17.33250046  127.50299835    0.17000000    0.47999999
   17.33889008  127.50299835    0.09000000    0.05000000
   17.34277916  140.57200623    0.09000000    0.05000000
   17.34611130  138.38299561    0.09000000    0.05000000
   17.34666824  150.75000000    0.09000000    0.05000000
   17.34972191  129.10600281    0.09000000    0.05000000
   17.35305595  149.25900269    0.09000000    0.05000000
   17.35639000  139.06500244    0.09000000    0.05000000
   17.36000061  130.60600281    0.09000000    0.05000000
   17.36305618  128.08200073    0.09000000    0.05000000
   17.36638832  143.39799500    0.09000000    0.05000000
   17.36972237  138.92100525    0.09000000    0.05000000
   17.37277794  141.84700012    0.09000000    0.05000000
   17.37611198  132.27799988    0.09000000    0.05000000
   17.38166618  132.27799988    0.09000000    0.05000000
   17.38583374  121.39800262    0.09000000    0.05000000
   17.38888931  156.03300476    0.09000000    0.05000000
   17.39222145  140.84700012    0.09000000    0.05000000
   17.39527702  141.90899658    0.09000000    0.05000000
   17.39861107  124.32199860    0.09000000    0.05000000
   17.40194321  137.28700256    0.09000000    0.05000000
   17.40527725  145.71400452    0.09000000    0.05000000
   17.40833282  125.14499664    0.09000000    0.05000000
   17.41166687  135.57600403    0.09000000    0.05000000
   17.41277695  133.56799316    0.09000000    0.05000000
   17.41527748  142.03300476    0.09000000    0.05000000
   17.41833305  140.49699402    0.09000000    0.05000000
   17.42444420  140.49699402    0.09000000    0.05000000
   17.42860985  142.02000427    0.09000000    0.05000000
   17.43166542  129.57299805    0.09000000    0.05000000
   17.43499947  129.24299622    0.09000000    0.05000000
   17.43833160  144.82200623    0.09000000    0.05000000
   17.44138718  126.17299652    0.09000000    0.05000000
   17.44472122  120.37000275    0.09000000    0.05000000
   17.44610977  136.60299683    0.09000000    0.05000000
   17.44833183  120.26300049    0.09000000    0.05000000
   17.45138931  143.20899963    0.09000000    0.05000000
   17.45472336  129.47700500    0.09000000    0.05000000
   17.45805550  134.32099915    0.09000000    0.05000000
   17.46111107  139.06900024    0.09000000    0.05000000
   17.46722221  139.06900024    0.09000000    0.05000000
   17.47138977  131.52799988    0.09000000    0.05000000
   17.47472191  128.23100281    0.09000000    0.05000000
   17.47777748  126.94100189    0.09000000    0.05000000
   17.47972298  126.78299713    0.09000000    0.05000000
   17.48166656  131.83000183    0.09000000    0.05000000
   17.48472214  137.59800720    0.09000000    0.05000000
   17.48805618  143.90199280    0.09000000    0.05000000
   17.49111176  117.19200134    0.09000000    0.05000000
   17.49444389  135.41400146    0.09000000    0.05000000
   17.49777794  127.17500305    0.09000000    0.05000000
   17.50083351  121.60800171    0.09000000    0.05000000
   17.50416756  117.09100342    0.09000000    0.05000000
   17.51000023  117.09100342    0.09000000    0.05000000
   17.52861023  124.51399994    0.09000000    0.05000000
   17.53166580  117.19699860    0.09000000    0.05000000
   17.53499985  125.15100098    0.09000000    0.05000000
   17.53833199  118.05899811    0.09000000    0.05000000
   17.54138756  119.01499939    0.09000000    0.05000000
   17.54472160  133.91499329    0.09000000    0.05000000
   17.54777718  144.45100403    0.09000000    0.05000000
   17.55333328  144.45100403    0.09000000    0.05000000
   17.55722237  119.23100281    0.09000000    0.05000000
   17.56055450  121.44100189    0.09000000    0.05000000
   17.56166649  120.81700134    0.09000000    0.05000000
   17.56416512  130.86999512    0.09000000    0.05000000
   17.56750107  125.32800293    0.09000000    0.05000000
   17.57083511  116.85099792    0.09000000    0.05000000
   17.57389069  114.82099915    0.09000000    0.05000000
   17.57722282  135.84599304    0.09000000    0.05000000
   17.58055687  117.95500183    0.09000000    0.05000000
   17.58361244  123.94799805    0.09000000    0.05000000
   17.58694458  133.20399475    0.09000000    0.05000000
   17.59000015  123.85399628    0.09000000    0.05000000
   17.59611130  123.85399628    0.09000000    0.05000000
   17.60027885  115.54900360    0.09000000    0.05000000
   17.60333443  130.44500732    0.09000000    0.05000000
   17.60666656  126.90899658    0.09000000    0.05000000
   17.61000061  132.58399963    0.09000000    0.05000000
   17.61305618  137.25799561    0.09000000    0.05000000
   17.61638832  121.89800262    0.09000000    0.05000000
   17.61944389  125.28900146    0.09000000    0.05000000
   17.62277794  140.42999268    0.09000000    0.05000000
   17.62611198  142.07400513    0.09000000    0.05000000
   17.62833405  127.23899841    0.09000000    0.05000000
   17.62972260  132.27799988    0.09000000    0.05000000
   17.63305473  137.25100708    0.09000000    0.05000000
   17.63888931  137.25100708    0.09000000    0.05000000
   17.64305496  140.73500061    0.09000000    0.05000000
   17.64638901  121.71099854    0.09000000    0.05000000
   17.64944458  131.81700134    0.09000000    0.05000000
   17.65277672  147.11599731    0.09000000    0.05000000
   17.65583229  156.42799377    0.09000000    0.05000000
   17.65916634  137.80400085    0.09000000    0.05000000
   17.66166687  132.44700623    0.09000000    0.05000000
   17.66277695  130.90100098    0.09000000    0.05000000
   17.66611099  151.00000000    0.09000000    0.05000000
   17.66944313  143.76300049    0.09000000    0.05000000
   17.67249870  149.00300598    0.09000000    0.05000000
   17.67583275  139.86799622    0.09000000    0.05000000
   17.68166542  139.86799622    0.09000000    0.05000000
   17.68583298  125.23799896    0.09000000    0.05000000
   17.68916512  141.79400635    0.09000000    0.05000000
   17.69222069  149.02099609    0.09000000    0.05000000
   17.69499969  150.78399658    0.09000000    0.05000000
   17.69583321  149.71099854    0.09000000    0.05000000
   17.69916534  149.52099609    0.09000000    0.05000000
   17.70250130  140.27200317    0.09000000    0.05000000
   17.70555687  133.10499573    0.09000000    0.05000000
   17.70888901  135.46000671    0.09000000    0.05000000
   17.71194458  122.94200134    0.09000000    0.05000000
   17.71527863  129.63299561    0.09000000    0.05000000
   17.71861076  132.44200134    0.09000000    0.05000000
   17.72472191  132.44200134    0.09000000    0.05000000
   17.72861099  122.61399841    0.09000000    0.05000000
   17.73194504  122.20700073    0.09000000    0.05000000
   17.73527718  123.57599640    0.09000000    0.05000000
   17.73833275  116.25700378    0.09000000    0.05000000
   17.74166679  120.64399719    0.09000000    0.05000000
   17.74500084  118.77799988    0.09000000    0.05000000
   17.74805641  118.49800110    0.09000000    0.05000000
   17.75138855  117.52600098    0.09000000    0.05000000
   17.75444412  117.97899628    0.09000000    0.05000000
   17.75777817  118.74700165    0.09000000    0.05000000
   17.76111031  125.12599945    0.09000000    0.05000000
   17.76166725  116.36499786    0.09000000    0.05000000
   17.76749992  116.36499786    0.09000000    0.05000000
   17.77166557  130.47300720    0.09000000    0.05000000
   17.77472115  121.74700165    0.09000000    0.05000000
   17.77805519  131.43899536    0.09000000    0.05000000
   17.78138924  126.13400269    0.09000000    0.05000000
   17.78444481  134.80999756    0.09000000    0.05000000
   17.78777695  122.21299744    0.09000000    0.05000000
   17.79083252  126.17700195    0.09000000    0.05000000
   17.79416656  125.89700317    0.09000000    0.05000000
   17.79500008  132.63000488    0.09000000    0.05000000
   17.79777718  131.65199280    0.09000000    0.05000000
   17.80111122  129.07600403    0.09000000    0.05000000
   17.80444336  131.13699341    0.09000000    0.05000000
   17.81027794  131.13699341    0.09000000    0.05000000
   17.81444359  123.39600372    0.09000000    0.05000000
   17.81777954  129.85200500    0.09000000    0.05000000
   17.82083511  135.40800476    0.09000000    0.05000000
   17.82416725  124.92199707    0.09000000    0.05000000
   17.82722282  130.07200623    0.09000000    0.05000000
   17.82833481  138.05299377    0.09000000    0.05000000
   17.83083344  114.73699951    0.09000000    0.05000000
   17.83416748  121.47599792    0.09000000    0.05000000
   17.83750153  134.41299438    0.09000000    0.05000000
   17.84055710  124.99099731    0.09000000    0.05000000
   17.84388924  122.50499725    0.09000000    0.05000000
   17.84722328  113.86000061    0.09000000    0.05000000
   17.85305595  113.86000061    0.09000000    0.05000000
   17.85722351  121.79100037    0.09000000    0.05000000
   17.86055565  131.88900757    0.09000000    0.05000000
   17.86166763  121.22799683    0.09000000    0.05000000
   17.86388969  131.63000488    0.09000000    0.05000000
   17.86722183  127.61199951    0.09000000    0.05000000
   17.87055588  127.43499756    0.09000000    0.05000000
   17.87361145  124.31600189    0.09000000    0.05000000
   17.87694550  130.94000244    0.09000000    0.05000000
   17.88027763  121.72799683    0.09000000    0.05000000
   17.88333321  121.03199768    0.09000000    0.05000000
   17.88666725  115.42199707    0.09000000    0.05000000
   17.88972282  115.74500275    0.09000000    0.05000000
   17.89611053  115.74500275    0.09000000    0.05000000
   17.89999962  128.98199463    0.09000000    0.05000000
   17.90333366  131.11300659    0.09000000    0.05000000
   17.90666580  136.58200073    0.09000000    0.05000000
   17.90972137  143.66700745    0.09000000    0.05000000
   17.91305542  137.50999451    0.09000000    0.05000000
   17.91638756  144.86999512    0.09000000    0.05000000
   17.91944313  133.45100403    0.09000000    0.05000000
   17.92277718  134.44000244    0.09000000    0.05000000
   17.92611122  132.49000549    0.09000000    0.05000000
   17.92833328  135.48100281    0.09000000    0.05000000
   17.92972183  123.81999969    0.09000000    0.05000000
   17.93277740  125.09899902    0.09000000    0.05000000
   17.93888855  125.09899902    0.09000000    0.05000000
   17.94305420  126.79599762    0.09000000    0.05000000
   17.94610977  127.75599670    0.09000000    0.05000000
   17.94944382  124.17800140    0.09000000    0.05000000
   17.95277786  121.83200073    0.09000000    0.05000000
   17.95583344  119.51699829    0.09000000    0.05000000
   17.95916748  116.79599762    0.09000000    0.05000000
   17.96166801  126.57099915    0.09000000    0.05000000
   17.96305656  124.40699768    0.09000000    0.05000000
   17.96611214  114.34999847    0.09000000    0.05000000
   17.96944427  114.11499786    0.09000000    0.05000000
   17.97249985  121.74600220    0.09000000    0.05000000
   17.97583389  124.93199921    0.09000000    0.05000000
   17.98166656  124.93199921    0.09000000    0.05000000
   17.98583412  120.27200317    0.09000000    0.05000000
   17.98916626  139.80599976    0.09000000    0.05000000
   17.99222183  112.32800293    0.09000000    0.05000000
   17.99500084  116.09899902    0.09000000    0.05000000
   17.99611092  132.29100037    0.09000000    0.05000000
   17.99916649  140.61000061    0.09000000    0.05000000
   18.00250053  115.20200348    0.09000000    0.05000000
   18.00555611  113.37200165    0.09000000    0.05000000
   18.00888824  114.55999756    0.09000000    0.05000000
   18.01222229  124.27999878    0.09000000    0.05000000
   18.01527786  106.52700043    0.09000000    0.05000000
   18.01861000  115.38600159    0.09000000    0.05000000
   18.02444458  115.38600159    0.09000000    0.05000000
   18.02861023  115.47100067    0.09000000    0.05000000
   18.03194427  123.81800079    0.09000000    0.05000000
   18.03499985  126.68399811    0.09000000    0.05000000
   18.03833199  128.28900146    0.09000000    0.05000000
   18.04166603  109.48600006    0.09000000    0.05000000
   18.04472160  112.12200165    0.09000000    0.05000000
   18.04805565  116.40499878    0.09000000    0.05000000
   18.05138779  120.48100281    0.09000000    0.05000000
   18.05444336  114.47000122    0.09000000    0.05000000
   18.05777740  118.49299622    0.09000000    0.05000000
   18.06083298  136.24200439    0.09000000    0.05000000
   18.06166649  123.93399811    0.09000000    0.05000000
   18.06750107  123.93399811    0.09000000    0.05000000
   18.07139015  123.87300110    0.09000000    0.05000000
   18.07472229  118.80200195    0.09000000    0.05000000
   18.07805634  123.26100159    0.09000000    0.05000000
   18.08111191  134.94299316    0.09000000    0.05000000
   18.08444595  140.30999756    0.09000000    0.05000000
   18.08777809  119.39099884    0.09000000    0.05000000
   18.09083366  138.11900330    0.09000000    0.05000000
   18.09416771  120.72699738    0.09000000    0.05000000
   18.09500122  114.94599915    0.09000000    0.05000000
   18.09833336  129.37800598    0.09000000    0.05000000
   18.10138893  133.15299988    0.09000000    0.05000000
   18.10472298  119.45600128    0.09000000    0.05000000
   18.11138916  119.45600128    0.09000000    0.05000000
   18.11555672  147.69599915    0.09000000    0.05000000
   18.11861038  122.75000000    0.09000000    0.05000000
   18.12194443  125.11299896    0.09000000    0.05000000
   18.12527847  122.94799805    0.09000000    0.05000000
   18.12833405  122.11499786    0.09000000    0.05000000
   18.12888908  126.07099915    0.09000000    0.05000000
   18.13194466  116.69699860    0.09000000    0.05000000
   18.13527679  129.15299988    0.09000000    0.05000000
   18.13833237  141.15899658    0.09000000    0.05000000
   18.14166641  119.78399658    0.09000000    0.05000000
   18.14583397  111.02400208    0.09000000    0.05000000
   18.14916611  116.47200012    0.09000000    0.05000000
   18.15333366  116.47200012    0.09000000    0.05000000
   18.15749931  113.17299652    0.09000000    0.05000000
   18.16055489  115.90499878    0.09000000    0.05000000
   18.16166687  107.84700012    0.09000000    0.05000000
   18.16444397  113.29699707    0.09000000    0.05000000
   18.16749954  110.41400146    0.09000000    0.05000000
   18.17083359  121.38999939    0.09000000    0.05000000
   18.17388916  117.86199951    0.09000000    0.05000000
   18.17722130  118.09700012    0.09000000    0.05000000
   18.18055534  118.78500366    0.09000000    0.05000000
   18.18361092  123.09799957    0.09000000    0.05000000
   18.18694305  117.04199982    0.09000000    0.05000000
   18.19027710  110.97499847    0.09000000    0.05000000
   18.19610977  110.97499847    0.09000000    0.05000000
   18.20027924  115.74600220    0.09000000    0.05000000
   18.20361137  111.98300171    0.09000000    0.05000000
   18.20666695  115.98200226    0.09000000    0.05000000
   18.21000099  121.84799957    0.09000000    0.05000000
   18.21361160  126.21299744    0.09000000    0.05000000
   18.21750069  130.36300659    0.09000000    0.05000000
   18.22083473  121.44599915    0.09000000    0.05000000
   18.22389030  129.88099670    0.09000000    0.05000000
   18.22722244  116.19400024    0.09000000    0.05000000
   18.22833443  130.51899719    0.09000000    0.05000000
   18.23083305  122.73100281    0.09000000    0.05000000
   18.23388863  125.59200287    0.09000000    0.05000000
   18.23888969  125.59200287    0.09000000    0.05000000
   18.24305534  134.76100159    0.09000000    0.05000000
   18.24638939  131.71800232    0.09000000    0.05000000
   18.24972153  132.28399658    0.09000000    0.05000000
   18.25277710  120.64900208    0.09000000    0.05000000
   18.25611115  136.62100220    0.09000000    0.05000000
   18.25944519  133.18400574    0.09000000    0.05000000
   18.26166725  135.44200134    0.09000000    0.05000000
   18.26305580  142.74000549    0.09000000    0.05000000
   18.26611137  141.97399902    0.09000000    0.05000000
   18.26944351  144.36799622    0.09000000    0.05000000
   18.27277756  124.72399902    0.09000000    0.05000000
   18.27583313  130.35699463    0.09000000    0.05000000
   18.28194427  130.35699463    0.09000000    0.05000000
   18.28583336  123.45500183    0.09000000    0.05000000
   18.28916550  121.92500305    0.09000000    0.05000000
   18.29249954  122.07900238    0.09000000    0.05000000
   18.29500008  113.45300293    0.09000000    0.05000000
   18.29611015  127.16200256    0.09000000    0.05000000
   18.29916573  121.91100311    0.09000000    0.05000000
   18.30249977  127.43800354    0.09000000    0.05000000
   18.30583191  120.50199890    0.09000000    0.05000000
   18.30888748  134.21099854    0.09000000    0.05000000
   18.31222153  119.72899628    0.09000000    0.05000000
   18.31527710  139.29400635    0.09000000    0.05000000
   18.31861115  129.55200195    0.09000000    0.05000000
   18.32472229  129.55200195    0.09000000    0.05000000
   18.32888985  118.05100250    0.09000000    0.05000000
   18.33194542  118.72699738    0.09000000    0.05000000
   18.33527756  121.22899628    0.09000000    0.05000000
   18.33861160  115.68399811    0.09000000    0.05000000
   18.34166718  122.31300354    0.09000000    0.05000000
   18.34500122  122.95600128    0.09000000    0.05000000
   18.34805679  114.15499878    0.09000000    0.05000000
   18.35138893  118.71600342    0.09000000    0.05000000
   18.35472298  131.11900330    0.09000000    0.05000000
   18.35777855  114.15799713    0.09000000    0.05000000
   18.36111069  118.41100311    0.09000000    0.05000000
   18.36166763  119.92900085    0.09000000    0.05000000
   18.36750031  119.92900085    0.09000000    0.05000000
   18.37166595  121.47599792    0.09000000    0.05000000
   18.38388824  125.53199768    0.00000000    0.00000000
   18.38694382  121.46600342    0.09000000    0.05000000
   18.39027786  121.28700256    0.09000000    0.05000000
   18.39333344  112.37699890    0.09000000    0.05000000
   18.39666748  120.51200104    0.09000000    0.05000000
   18.39944458  118.00900269    0.09000000    0.05000000
   18.40055466  113.26899719    0.09000000    0.05000000
   18.40361023  112.87100220    0.09000000    0.05000000
   18.40694427  122.40200043    0.09000000    0.05000000
   18.41138840  122.40200043    0.09000000    0.05000000
   18.41555595  118.43699646    0.09000000    0.05000000
   18.41860962  123.40799713    0.09000000    0.05000000
   18.42194366  118.08699799    0.09000000    0.05000000
   18.42527771  130.24099731    0.09000000    0.05000000
   18.42833328  138.37100220    0.09000000    0.05000000
   18.43166542  123.63400269    0.09000000    0.05000000
   18.43277740  130.91900635    0.09000000    0.05000000
   18.43527603  118.26000214    0.09000000    0.05000000
   18.43833160  115.79000092    0.09000000    0.05000000
   18.44166565  117.23500061    0.09000000    0.05000000
   18.44499969  121.55999756    0.09000000    0.05000000
   18.44805527  126.05999756    0.09000000    0.05000000
   18.45416832  126.05999756    0.09000000    0.05000000
   18.45833397  115.94999695    0.09000000    0.05000000
   18.46166801  126.78500366    0.09000000    0.05000000
   18.46472359  135.37199402    0.09000000    0.05000000
   18.46638870  118.56800079    0.09000000    0.05000000
   18.46833420  120.62300110    0.09000000    0.05000000
   18.47166634  118.59600067    0.09000000    0.05000000
   18.47500038  118.69799805    0.09000000    0.05000000
   18.47805595  119.50800323    0.09000000    0.05000000
   18.48139000  113.27600098    0.09000000    0.05000000
   18.48444557  114.00499725    0.09000000    0.05000000
   18.48777771  110.04499817    0.09000000    0.05000000
   18.49111176  114.75000000    0.09000000    0.05000000
   18.49694443  114.75000000    0.09000000    0.05000000
   18.50111198  126.92400360    0.09000000    0.05000000
   18.50444412  113.90599823    0.09000000    0.05000000
   18.50777817  126.45999908    0.09000000    0.05000000
   18.51083374  123.80699921    0.09000000    0.05000000
   18.51416588  122.17099762    0.09000000    0.05000000
   18.51722145  116.04399872    0.09000000    0.05000000
   18.52055550  122.06300354    0.09000000    0.05000000
   18.52388954  116.66500092    0.09000000    0.05000000
   18.52694511  122.99199677    0.09000000    0.05000000
   18.54611015  105.61599731    0.09000000    0.05000000
   18.55027771  105.61599731    0.09000000    0.05000000
   18.55444336  110.13300323    0.09000000    0.05000000
   18.55749893  116.40599823    0.09000000    0.05000000
   18.56083298  118.29499817    0.09000000    0.05000000
   18.56388855  115.48300171    0.09000000    0.05000000
   18.56722260  105.61399841    0.09000000    0.05000000
   18.57055664  109.30200195    0.09000000    0.05000000
   18.57361221  116.07900238    0.09000000    0.05000000
   18.57694626  117.05000305    0.09000000    0.05000000
   18.57916832  118.12699890    0.09000000    0.05000000
   18.58055687  113.84300232    0.09000000    0.05000000
   18.58388901  116.62500000    0.09000000    0.05000000
   18.58694458  112.16200256    0.09000000    0.05000000
   18.59305573  112.16200256    0.09000000    0.05000000
   18.59722328  114.06700134    0.09000000    0.05000000
   18.60027885  112.87799835    0.09000000    0.05000000
   18.60361099  111.76599884    0.09000000    0.05000000
   18.60694504  111.92900085    0.09000000    0.05000000
   18.61000061  120.08899689    0.09000000    0.05000000
   18.61250114  124.02300262    0.09000000    0.05000000
   18.61361122  113.70600128    0.09000000    0.05000000
   18.61694527  119.51799774    0.09000000    0.05000000
   18.62000084  125.33300018    0.09000000    0.05000000
   18.62333298  117.49700165    0.09000000    0.05000000
   18.62666702  115.21199799    0.09000000    0.05000000
   18.62972260  118.71499634    0.09000000    0.05000000
   18.63583374  118.71499634    0.09000000    0.05000000
   18.63999939  117.72399902    0.09000000    0.05000000
   18.64333344  106.47100067    0.09000000    0.05000000
   18.64583397  114.19599915    0.09000000    0.05000000
   18.64694405  113.14499664    0.09000000    0.05000000
   18.65027809  128.06399536    0.09000000    0.05000000
   18.65333366  119.67099762    0.09000000    0.05000000
   18.65666580  111.27999878    0.09000000    0.05000000
   18.65999985  133.67300415    0.09000000    0.05000000
   18.66305542  140.81900024    0.09000000    0.05000000
   18.66638756  122.36199951    0.09000000    0.05000000
   18.66944313  117.85700226    0.09000000    0.05000000
   18.67277718  112.67299652    0.09000000    0.05000000
   18.67860985  112.67299652    0.09000000    0.05000000
   18.68277740  112.02500153    0.09000000    0.05000000
   18.68610954  114.88400269    0.09000000    0.05000000
   18.68944359  111.94799805    0.09000000    0.05000000
   18.69249916  112.86799622    0.09000000    0.05000000
   18.69583321  118.29100037    0.09000000    0.05000000
   18.69888878  111.38999939    0.09000000    0.05000000
   18.70222282  111.43900299    0.09000000    0.05000000
   18.70555687   95.32939911    0.09000000    0.05000000
   18.70861244  111.35399628    0.09000000    0.05000000
   18.71194458  108.46299744    0.09000000    0.05000000
   18.71389008  117.33499908    0.09000000    0.05000000
   18.71555710  113.58499908    0.09000000    0.05000000
   18.72166634  113.58499908    0.09000000    0.05000000
   18.72583389  115.96499634    0.09000000    0.05000000
   18.72888947  120.44999695    0.09000000    0.05000000
   18.73222351  115.15799713    0.09000000    0.05000000
   18.73527718  114.62100220    0.09000000    0.05000000
   18.73861122  118.46700287    0.09000000    0.05000000
   18.74194527  122.75900269    0.09000000    0.05000000
   18.74500084  115.80500031    0.09000000    0.05000000
   18.74722290  124.72599792    0.09000000    0.05000000
   18.74861145  119.80200195    0.09000000    0.05000000
   18.75194359  121.16799927    0.09000000    0.05000000
   18.75527763  108.70200348    0.09000000    0.05000000
   18.75833321  123.32399750    0.09000000    0.05000000
   18.76444435  123.32399750    0.09000000    0.05000000
   18.76861000  122.02600098    0.09000000    0.05000000
   18.77166557  112.25900269    0.09000000    0.05000000
   18.77499962  119.27600098    0.09000000    0.05000000
   18.77833366  115.68800354    0.09000000    0.05000000
   18.78055573  123.13700104    0.09000000    0.05000000
   18.78194427  116.01399994    0.09000000    0.05000000
   18.78527641  108.26799774    0.09000000    0.05000000
   18.78833199  111.42400360    0.09000000    0.05000000
   18.79166603  113.27500153    0.09000000    0.05000000
   18.79472160  117.66899872    0.09000000    0.05000000
   18.79805565  110.75000000    0.09000000    0.05000000
   18.80138779  113.50700378    0.09000000    0.05000000
   18.80722237  113.50700378    0.09000000    0.05000000
   18.81138802  111.00800323    0.09000000    0.05000000
   18.81388855  124.27500153    0.09000000    0.05000000
   18.81499863  119.72699738    0.09000000    0.05000000
   18.81833458  115.99900055    0.09000000    0.05000000
   18.82139015  115.06900024    0.09000000    0.05000000
   18.82472229  116.35600281    0.09000000    0.05000000
   18.82805634  129.56799316    0.09000000    0.05000000
   18.83111191  117.87100220    0.09000000    0.05000000
   18.83444595  128.17500305    0.09000000    0.05000000
   18.83750153  126.19799805    0.09000000    0.05000000
   18.84083366  111.89900208    0.09000000    0.05000000
   18.84416771  116.42800140    0.09000000    0.05000000
   18.85000038  116.42800140    0.09000000    0.05000000
   18.85416794  117.27799988    0.09000000    0.05000000
   18.85750008  110.83100128    0.09000000    0.05000000
   18.86055565  112.28900146    0.09000000    0.05000000
   18.86388969  114.72699738    0.09000000    0.05000000
   18.86722183  112.01999664    0.09000000    0.05000000
   18.87055588  118.55699921    0.09000000    0.05000000
   18.87361145  112.26999664    0.09000000    0.05000000
   18.87694550  115.85900116    0.09000000    0.05000000
   18.88000107  112.93199921    0.09000000    0.05000000
   18.88111115  111.74700165    0.09000000    0.05000000
   18.88361168  113.40000153    0.09000000    0.05000000
   18.88694382  117.59400177    0.09000000    0.05000000
   18.89305496  117.59400177    0.09000000    0.05000000
   18.89749908  128.81900024    0.09000000    0.05000000
   18.90055466  115.76899719    0.09000000    0.05000000
   18.90388870  121.78299713    0.09000000    0.05000000
   18.90722275  116.14299774    0.09000000    0.05000000
   18.91027832  113.63099670    0.09000000    0.05000000
   18.91361046  125.34300232    0.09000000    0.05000000
   18.91444397  121.07499695    0.09000000    0.05000000
   18.91722107  122.91799927    0.09000000    0.05000000
   18.92055511  153.62199402    0.09000000    0.05000000
   18.92388916  119.77100372    0.09000000    0.05000000
   18.92694473  129.90299988    0.09000000    0.05000000
   18.93027687  138.27299500    0.09000000    0.05000000
   18.93583298  138.27299500    0.09000000    0.05000000
   18.93999863  142.73199463    0.09000000    0.05000000
   18.94305420  134.12899780    0.09000000    0.05000000
   18.94638824  140.80700684    0.09000000    0.05000000
   18.94777679  115.71900177    0.09000000    0.05000000
   18.95000076  123.06500244    0.09000000    0.05000000
   18.95333481  147.77099609    0.09000000    0.05000000
   18.95666695  134.73899841    0.09000000    0.05000000
   18.95972252  114.11399841    0.09000000    0.05000000
   18.96305656  121.05599976    0.09000000    0.05000000
   18.96611214  135.65299988    0.09000000    0.05000000
   18.96944427  127.19300079    0.09000000    0.05000000
   18.97277832  124.15399933    0.09000000    0.05000000
   18.97861099  124.15399933    0.09000000    0.05000000
   18.98277855  121.34400177    0.09000000    0.05000000
   18.98611069  116.13800049    0.09000000    0.05000000
   18.98916626  129.49000549    0.09000000    0.05000000
   18.99250031  117.72799683    0.09000000    0.05000000
   18.99555588  123.69100189    0.09000000    0.05000000
   18.99888992  118.79299927    0.09000000    0.05000000
   19.00222206  118.46600342    0.09000000    0.05000000
   19.00527763  115.85299683    0.09000000    0.05000000
   19.00861168  119.27999878    0.09000000    0.05000000
   19.01194382  130.49099731    0.09000000    0.05000000
   19.01444435  123.20700073    0.09000000    0.05000000
   19.01555634  123.47599792    0.09000000    0.05000000
   19.02138901  123.47599792    0.09000000    0.05000000
   19.02583313  118.77799988    0.09000000    0.05000000
   19.02916718  113.62899780    0.09000000    0.05000000
   19.03249931  114.14299774    0.09000000    0.05000000
   19.03555489  122.42500305    0.09000000    0.05000000
   19.03888893  123.76699829    0.09000000    0.05000000
   19.04194450  118.13700104    0.09000000    0.05000000
   19.04527664  131.15899658    0.09000000    0.05000000
   19.04777718  123.55599976    0.09000000    0.05000000
   19.04888916  122.35199738    0.09000000    0.05000000
   19.05222130  122.55200195    0.09000000    0.05000000
   19.05527687  138.71499634    0.09000000    0.05000000
   19.05861092  117.12000275    0.09000000    0.05000000
   19.06444359  117.12000275    0.09000000    0.05000000
   19.06833458  109.45400238    0.09000000    0.05000000
   19.07166672  114.19799805    0.09000000    0.05000000
   19.07500076  118.03800201    0.09000000    0.05000000
   19.07805634  112.41100311    0.09000000    0.05000000
   19.08111191  110.42199707    0.09000000    0.05000000
   19.08166695  114.45999908    0.09000000    0.05000000
   19.08500099  113.93800354    0.09000000    0.05000000
   19.08805656  126.03900146    0.09000000    0.05000000
   19.09138870  134.00700378    0.09000000    0.05000000
   19.09472275  137.80200195    0.09000000    0.05000000
   19.09777832  123.44200134    0.09000000    0.05000000
   19.10111237  106.92900085    0.09000000    0.05000000
   19.10805511  106.92900085    0.09000000    0.05000000
   19.11222267  120.11699677    0.09000000    0.05000000
   19.11444473  124.90899658    0.09000000    0.05000000
   19.11583328  141.55200195    0.09000000    0.05000000
   19.11916733  111.41699982    0.09000000    0.05000000
   19.12249947  134.33399963    0.09000000    0.05000000
   19.13472176  134.80499268    0.00000000    0.00000000
   19.13805580  128.66000366    0.09000000    0.05000000
   19.14138794  132.22500610    0.09000000    0.05000000
   19.14444351  146.30299377    0.09000000    0.05000000
   19.15027809  146.30299377    0.09000000    0.05000000
   19.15444374  123.20800018    0.09000000    0.05000000
   19.15749931  145.65600586    0.09000000    0.05000000
   19.16083336  146.27799988    0.09000000    0.05000000
   19.16416550  122.27300262    0.09000000    0.05000000
   19.16722107  143.01600647    0.09000000    0.05000000
   19.17055511  142.72799683    0.09000000    0.05000000
   19.17388916  123.45600128    0.09000000    0.05000000
   19.17694473  139.13099670    0.09000000    0.05000000
   19.18027687  127.69899750    0.09000000    0.05000000
   19.18333244  133.00799561    0.09000000    0.05000000
   19.18527603  130.53900146    0.09000000    0.05000000
   19.18722153  128.49699402    0.09000000    0.05000000
   19.19277763  128.49699402    0.09000000    0.05000000
   19.19694328  122.67099762    0.09000000    0.05000000
   19.20027924  142.56900024    0.09000000    0.05000000
   19.20333481  144.19299316    0.09000000    0.05000000
   19.20666695  139.72500610    0.09000000    0.05000000
   19.21000099  124.94300079    0.09000000    0.05000000
   19.21305656  127.78099823    0.09000000    0.05000000
   19.21638870  138.70500183    0.09000000    0.05000000
   19.21861076  137.89999390    0.09000000    0.05000000
   19.22000122  147.11700439    0.09000000    0.05000000
   19.22305679  131.46800232    0.09000000    0.05000000
   19.22638893  129.64999390    0.09000000    0.05000000
   19.22972298  122.38099670    0.09000000    0.05000000
   19.23583412  122.38099670    0.09000000    0.05000000
   19.23972321  143.29499817    0.09000000    0.05000000
   19.24305534  112.14499664    0.09000000    0.05000000
   19.24638939  112.31099701    0.09000000    0.05000000
   19.24944496  120.78800201    0.09000000    0.05000000
   19.25194359  114.17800140    0.09000000    0.05000000
   19.25333405  111.73600006    0.09000000    0.05000000
   19.25638962  116.77300262    0.09000000    0.05000000
   19.25972176  111.97100067    0.09000000    0.05000000
   19.26305580  107.08100128    0.09000000    0.05000000
   19.26611137  115.82399750    0.09000000    0.05000000
   19.26944351  111.19499969    0.09000000    0.05000000
   19.27277756  116.87500000    0.09000000    0.05000000
   19.27861023  116.87500000    0.09000000    0.05000000
   19.28277779  111.38800049    0.09000000    0.05000000
   19.28527641  114.37500000    0.09000000    0.05000000
   19.28638840  122.35900116    0.09000000    0.05000000
   19.28972244  113.60299683    0.09000000    0.05000000
   19.29277802  107.62300110    0.09000000    0.05000000
   19.29611015  116.45700073    0.09000000    0.05000000
   19.29944420  109.17900085    0.09000000    0.05000000
   19.30249977  125.56900024    0.09000000    0.05000000
   19.30583191  110.59400177    0.09000000    0.05000000
   19.30888748  109.39900208    0.09000000    0.05000000
   19.31222153  108.86000061    0.09000000    0.05000000
   19.31555557  111.32800293    0.09000000    0.05000000
   19.32139015  111.32800293    0.09000000    0.05000000
   19.32555580  107.87699890    0.09000000    0.05000000
   19.32888985  105.21499634    0.09000000    0.05000000
   19.33194542  109.86000061    0.09000000    0.05000000
   19.33527756  113.74800110    0.09000000    0.05000000
   19.33833313  109.82399750    0.09000000    0.05000000
   19.34166718  109.18199921    0.09000000    0.05000000
   19.34500122  109.81600189    0.09000000    0.05000000
   19.34805679  105.67900085    0.09000000    0.05000000
   19.35138893  114.40000153    0.09000000    0.05000000
   19.35222244  110.94200134    0.09000000    0.05000000
   19.35499954  113.86900330    0.09000000    0.05000000
   19.35833359  113.83300018    0.09000000    0.05000000
   19.36416626  113.83300018    0.09000000    0.05000000
   19.36833382  118.92800140    0.09000000    0.05000000
   19.37166595  106.44100189    0.09000000    0.05000000
   19.37500000  115.66899872    0.09000000    0.05000000
   19.37805557  108.00399780    0.09000000    0.05000000
   19.38138962  114.16400146    0.09000000    0.05000000
   19.38444519  113.01799774    0.09000000    0.05000000
   19.38555527  109.98699951    0.09000000    0.05000000
   19.38833237  108.87899780    0.09000000    0.05000000
   19.39166641  111.59200287    0.09000000    0.05000000
   19.39749908  112.53700256    0.09000000    0.05000000
   19.40083313  111.56999969    0.09000000    0.05000000
   19.40722275  111.56999969    0.09000000    0.05000000
   19.41110992  110.53099823    0.09000000    0.05000000
   19.41444397  105.27400208    0.09000000    0.05000000
   19.41777802  107.67900085    0.09000000    0.05000000
   19.41916656  107.13099670    0.09000000    0.05000000
   19.42138863  105.38700104    0.09000000    0.05000000
   19.42444420  110.71499634    0.09000000    0.05000000
   19.42777634  110.59700012    0.09000000    0.05000000
   19.43111038  109.73600006    0.09000000    0.05000000
   19.43416595  105.33000183    0.09000000    0.05000000
   19.43750000  108.19599915    0.09000000    0.05000000
   19.44055557  113.43099976    0.09000000    0.05000000
   19.44388771  111.51300049    0.09000000    0.05000000
   19.45000076  111.51300049    0.09000000    0.05000000
   19.45416832  102.97599792    0.09000000    0.05000000
   19.45722389  103.77300262    0.09000000    0.05000000
   19.46055603  112.46600342    0.09000000    0.05000000
   19.46389008  108.06400299    0.09000000    0.05000000
   19.46694565  114.95999908    0.09000000    0.05000000
   19.47027779  105.39900208    0.09000000    0.05000000
   19.47333336  103.62799835    0.09000000    0.05000000
   19.47666740  108.06999969    0.09000000    0.05000000
   19.48000145  109.60099792    0.09000000    0.05000000
   19.48305511  108.01300049    0.09000000    0.05000000
   19.48583412  108.27700043    0.09000000    0.05000000
   19.48694420  110.29499817    0.09000000    0.05000000
   19.49277878  110.29499817    0.09000000    0.05000000
   19.49694443  102.85399628    0.09000000    0.05000000
   19.50027847  104.72299957    0.09000000    0.05000000
   19.50333405  106.80599976    0.09000000    0.05000000
   19.50666618  108.26300049    0.09000000    0.05000000
   19.50972176  113.46299744    0.09000000    0.05000000
   19.51305580  107.81900024    0.09000000    0.05000000
   19.51638794  111.49800110    0.09000000    0.05000000
   19.51916695  105.32700348    0.09000000    0.05000000
   19.52000046  111.00700378    0.09000000    0.05000000
   19.52305603  114.93499756    0.09000000    0.05000000
   19.52638817  112.82900238    0.09000000    0.05000000
   19.52972221  107.62100220    0.09000000    0.05000000
   19.53555489  107.62100220    0.09000000    0.05000000
   19.53972244  110.44799805    0.09000000    0.05000000
   19.54305458  103.16999817    0.09000000    0.05000000
   19.54611015  105.78299713    0.09000000    0.05000000
   19.54944420  109.49299622    0.09000000    0.05000000
   19.55249977  105.27999878    0.09000000    0.05000000
   19.55305481  106.55899811    0.09000000    0.05000000
   19.57250023  113.58599854    0.09000000    0.05000000
   19.57861137  113.58599854    0.09000000    0.05000000
   19.58277893  113.52700043    0.09000000    0.05000000
   19.58583450  110.22100067    0.09000000    0.05000000
   19.58638954  109.00299835    0.09000000    0.05000000
   19.58944511  113.72299957    0.09000000    0.05000000
   19.59277916  110.57599640    0.09000000    0.05000000
   19.59611130  113.93099976    0.09000000    0.05000000
   19.59916687  113.52300262    0.09000000    0.05000000
   19.60250092  108.93000031    0.09000000    0.05000000
   19.60583305  110.14900208    0.09000000    0.05000000
   19.60888863  108.60099792    0.09000000    0.05000000
   19.61222267  108.20200348    0.09000000    0.05000000
   19.61527824  105.03700256    0.09000000    0.05000000
   19.62138939  105.03700256    0.09000000    0.05000000
   19.62555504  104.53099823    0.09000000    0.05000000
   19.62861061  105.86499786    0.09000000    0.05000000
   19.63194466  104.27899933    0.09000000    0.05000000
   19.63527679  104.60199738    0.09000000    0.05000000
   19.63833237  101.62200165    0.09000000    0.05000000
   19.64166641  102.94899750    0.09000000    0.05000000
   19.64500046  106.21900177    0.09000000    0.05000000
   19.64805603  110.90799713    0.09000000    0.05000000
   19.65138817  111.92299652    0.09000000    0.05000000
   19.65250015  111.07099915    0.09000000    0.05000000
   19.65499878  107.29799652    0.09000000    0.05000000
   19.65833282  113.24600220    0.09000000    0.05000000
   19.66416550  113.24600220    0.09000000    0.05000000
   19.66833305  103.96499634    0.09000000    0.05000000
   19.67166519  108.12599945    0.09000000    0.05000000
   19.67472076  109.02799988    0.09000000    0.05000000
   19.67805481  113.38300323    0.09000000    0.05000000
   19.68138885  112.47299957    0.09000000    0.05000000
   19.68444443   96.21579742    0.09000000    0.05000000
   19.68583298  114.59400177    0.09000000    0.05000000
   19.68805504  115.55799866    0.09000000    0.05000000
   19.69138718  116.48699951    0.09000000    0.05000000
   19.69444275  117.52200317    0.09000000    0.05000000
   19.69777679  111.31999969    0.09000000    0.05000000
   19.70083427  114.57399750    0.09000000    0.05000000
   19.70694542  114.57399750    0.09000000    0.05000000
   19.71111107  112.25599670    0.09000000    0.05000000
   19.71444511  107.50299835    0.09000000    0.05000000
   19.71777916  101.89399719    0.09000000    0.05000000
   19.71944427  113.54900360    0.09000000    0.05000000
   19.72138977  106.74500275    0.09000000    0.05000000
   19.72444534  102.61499786    0.09000000    0.05000000
   19.72777748  112.21299744    0.09000000    0.05000000
   19.73111153  113.98000336    0.09000000    0.05000000
   19.73416710  114.52500153    0.09000000    0.05000000
   19.73750114  111.83000183    0.09000000    0.05000000
   19.74083328  102.41799927    0.09000000    0.05000000
   19.74388885  105.59100342    0.09000000    0.05000000
   19.75000000  105.59100342    0.09000000    0.05000000
   19.75416756  107.10600281    0.09000000    0.05000000
   19.75722313  114.04100037    0.09000000    0.05000000
   19.76055527  112.05799866    0.09000000    0.05000000
   19.76361084  113.57099915    0.09000000    0.05000000
   19.76694489  111.55599976    0.09000000    0.05000000
   19.77027702  109.99299622    0.09000000    0.05000000
   19.77333260  108.10199738    0.09000000    0.05000000
   19.77666664  111.87799835    0.09000000    0.05000000
   19.78000069  109.98000336    0.09000000    0.05000000
   19.78305435  115.15699768    0.09000000    0.05000000
   19.78610992  115.36199951    0.09000000    0.05000000
   19.78694344  112.61199951    0.09000000    0.05000000
   19.79277802  112.61199951    0.09000000    0.05000000
   19.79694366  109.19400024    0.09000000    0.05000000
   19.79999924  112.61699677    0.09000000    0.05000000
   19.80333328  106.00700378    0.09000000    0.05000000
   19.80666542  113.04799652    0.09000000    0.05000000
   19.80972099  111.86799622    0.09000000    0.05000000
   19.81305504  111.68800354    0.09000000    0.05000000
   19.81638718  108.30500031    0.09000000    0.05000000
   19.81944466  111.29799652    0.09000000    0.05000000
   19.82000160  107.67299652    0.09000000    0.05000000
   19.82305717  114.64399719    0.09000000    0.05000000
   19.82638931  115.52999878    0.09000000    0.05000000
   19.82972336  111.34600067    0.09000000    0.05000000
   19.83555603  111.34600067    0.09000000    0.05000000
   19.83972359  110.54699707    0.09000000    0.05000000
   19.84305573  107.98799896    0.09000000    0.05000000
   19.84611130  105.76599884    0.09000000    0.05000000
   19.84944534  110.16699982    0.09000000    0.05000000
   19.85250092  108.30300140    0.09000000    0.05000000
   19.85305595  115.72799683    0.09000000    0.05000000
   19.85639000  105.85399628    0.09000000    0.05000000
   19.85972214  105.18399811    0.09000000    0.05000000
   19.86277771  105.13600159    0.09000000    0.05000000
   19.86611176  109.30200195    0.09000000    0.05000000
   19.86944389  110.99700165    0.09000000    0.05000000
   19.87249947  113.79900360    0.09000000    0.05000000
   19.87833405  113.79900360    0.09000000    0.05000000
   19.88249969  109.06600189    0.09000000    0.05000000
   19.88583374  111.85399628    0.09000000    0.05000000
   19.88638878  108.45300293    0.09000000    0.05000000
   19.88944435  103.27899933    0.09000000    0.05000000
   19.89277840  105.16799927    0.09000000    0.05000000
   19.89583397  106.15799713    0.09000000    0.05000000
   19.89916611  107.74400330    0.09000000    0.05000000
   19.90250015  111.56199646    0.09000000    0.05000000
   19.90555573  111.30999756    0.09000000    0.05000000
   19.90888786  110.62100220    0.09000000    0.05000000
   19.91194344  116.23100281    0.09000000    0.05000000
   19.91527748  108.92400360    0.09000000    0.05000000
   19.92138863  108.92400360    0.09000000    0.05000000
   19.92527771  112.23000336    0.09000000    0.05000000
   19.92860985  105.19899750    0.09000000    0.05000000
   19.93194389  107.33200073    0.09000000    0.05000000
   19.93499947  109.79299927    0.09000000    0.05000000
   19.93833160  104.98300171    0.09000000    0.05000000
   19.94166565  111.92500305    0.09000000    0.05000000
   19.94472122  109.97799683    0.09000000    0.05000000
   19.94805527  104.20700073    0.09000000    0.05000000
   19.95111275  106.21299744    0.09000000    0.05000000
   19.95305634  105.04399872    0.09000000    0.05000000
   19.95472336  108.76699829    0.09000000    0.05000000
   19.95805550  105.90000153    0.09000000    0.05000000
   19.96416664  105.90000153    0.09000000    0.05000000
   19.96833420  103.99500275    0.09000000    0.05000000
   19.97138977  109.02799988    0.09000000    0.05000000
   19.97472191  103.87400055    0.09000000    0.05000000
   19.97805595  110.13600159    0.09000000    0.05000000
   19.98111153  113.89099884    0.09000000    0.05000000
   19.98444557  106.51999664    0.09000000    0.05000000
   19.98638916  102.41899872    0.09000000    0.05000000
   19.98805618  105.01799774    0.09000000    0.05000000
   19.99138832  105.30200195    0.09000000    0.05000000
   19.99444389  107.20999908    0.09000000    0.05000000
   19.99777794  107.21299744    0.09000000    0.05000000
   20.00111198  106.69999695    0.09000000    0.05000000
   20.00694466  106.69999695    0.09000000    0.05000000
   20.01111031  114.32900238    0.09000000    0.05000000
   20.01444435  113.03199768    0.09000000    0.05000000
   20.01749992  116.29699707    0.09000000    0.05000000
   20.01972198  109.20999908    0.09000000    0.05000000
   20.02111053  108.07299805    0.09000000    0.05000000
   20.02444458  106.53399658    0.09000000    0.05000000
   20.02750015  105.58799744    0.09000000    0.05000000
   20.03083229  112.11599731    0.09000000    0.05000000
   20.03416634  116.84300232    0.09000000    0.05000000
   20.03722191  111.08599854    0.09000000    0.05000000
