    HOUR (UT)   FLARE FACTOR    SKY TESTER    SUN TESTER
   10.68805599   -1.00000000   -1.00000000   -1.00000000
   10.72249985  314.40899658    0.07000000    0.28000000
   10.72555542  341.20999146    0.09000000    0.28000000
   10.72888851  321.35501099    0.09000000    0.28000000
   10.73194408  304.80300903    0.13000000    0.28000000
   10.73527813  267.37298584    0.13000000    0.25999999
   10.73861122  161.03999329    0.15000001    0.25999999
   10.74277782  161.03999329    0.19000000    0.25999999
   10.74666691  288.94699097    0.23000000    0.25999999
   10.75000000  207.61999512    0.25999999    0.25999999
   10.75333309  181.09399414    0.30000001    0.25999999
   10.75555515  221.17100525    0.31999999    0.28000000
   10.75694466  258.12100220    0.34000000    0.25999999
   10.76000023  261.67999268    0.40000001    0.25999999
   10.76333332  222.18600464    0.41999999    0.25999999
   10.76666641  136.09599304    0.47999999    0.25999999
   10.76972198  294.46499634    0.50000000    0.25999999
   10.77305508  348.32000732    0.52999997    0.25999999
   10.77638817  389.20199585    0.58999997    0.25999999
   10.77944374  351.68301392    0.63000000    0.28000000
   10.78555584  351.68301392    0.69000000    0.30000001
   10.78944492  392.53399658    0.75000000    0.30000001
   10.79277802  316.94799805    0.76999998    0.28000000
   10.79611111  401.11099243    0.79000002    0.30000001
   10.79805565  348.13400269    0.81999999    0.30000001
   10.79805565  222.18600464    0.41999999    0.25999999
   10.79805565  136.09599304    0.47999999    0.25999999
   10.79805565  294.46499634    0.50000000    0.25999999
   10.79833412  348.32000732    0.52999997    0.25999999
   10.79833412  389.20199585    0.58999997    0.25999999
   10.79833412  351.68301392    0.63000000    0.28000000
   10.79833412  392.53399658    0.75000000    0.30000001
   10.79833412  316.94799805    0.76999998    0.28000000
   10.80027771  309.64801025    0.83999997    0.30000001
   10.80361176  352.14999390    0.86000001    0.30000001
   10.80694485  374.31500244    0.88000000    0.28000000
   10.81000042  317.90200806    0.89999998    0.25000000
   10.81333351   74.69509888    0.89999998    0.20999999
   10.81888866   74.69509888    0.92000002    0.13000000
   10.82277775   -1.00000000    0.92000002    0.09000000
   10.82611084   -1.00000000    0.94000000    0.07000000
   10.82944393   -1.00000000    0.94000000    0.07000000
   10.83277798   -1.00000000    0.95999998    0.07000000
   10.83611107   -1.00000000    0.95999998    0.09000000
   10.83916664   -1.00000000    0.98000002    0.11000000
   10.84249973   -1.00000000    0.98000002    0.11000000
   10.84555531   -1.00000000    1.00000000    0.15000001
   10.84888840   89.63549805    1.03999996    0.19000000
   10.85222244  129.50000000    1.05999994    0.23000000
   10.85527802  145.47200012    1.07000005    0.25000000
   10.86166668  145.47200012    1.13000000    0.28000000
   10.86583328  301.75299072    1.16999996    0.30000001
   10.86888885  459.20901489    1.21000004    0.30000001
   10.87083340  411.34201050    1.23000002    0.30000001
   10.87222195  365.41101074    1.25000000    0.30000001
   10.87361145  308.20401001    1.26999998    0.30000001
   10.87361145   -1.00000000    0.95999998    0.09000000
   10.87361145   -1.00000000    0.98000002    0.11000000
   10.87388897   -1.00000000    0.98000002    0.11000000
   10.87388897   -1.00000000    1.00000000    0.15000001
   10.87388897   89.63549805    1.03999996    0.19000000
   10.87388897  129.50000000    1.05999994    0.23000000
   10.87388897  145.47200012    1.07000005    0.25000000
   10.87416649  301.75299072    1.16999996    0.30000001
   10.87416649  459.20901489    1.21000004    0.30000001
   10.87472248  354.51800537    1.28999996    0.30000001
   10.87777805  567.10198975    1.30999994    0.30000001
   10.88000011  330.73800659    1.34000003    0.30000001
   10.88000011  354.51800537    1.28999996    0.30000001
   10.88000011  567.10198975    1.30999994    0.30000001
   10.88194466  407.55999756    1.36000001    0.30000001
   10.88388920  343.61300659    1.39999998    0.28000000
   10.88611126  311.21899414    1.41999996    0.28000000
   10.88916683  326.40200806    1.46000004    0.28000000
   10.89249992  173.95399475    1.50000000    0.28000000
   10.89555550  178.36399841    1.51999998    0.28000000
   10.89888859  211.47799683    1.58000004    0.25999999
   10.90472221  211.47799683    1.61000001    0.25999999
   10.90888882  236.08700562    1.64999998    0.25999999
   10.91222191  351.41900635    1.66999996    0.28000000
   10.91527748  298.31799316    1.69000006    0.28000000
   10.91777802  283.48599243    1.71000004    0.30000001
   10.91888905  258.10198975    1.71000004    0.31999999
   10.92222214  222.34899902    1.73000002    0.31999999
   10.92527771  195.41400146    1.76999998    0.31999999
   10.92861176  200.31900024    1.78999996    0.31999999
   10.93166733  183.79400635    1.80999994    0.34000000
   10.93500042  222.84500122    1.83000004    0.34000000
   10.93833351  183.78100586    1.86000001    0.34000000
   10.94138908  170.82600403    1.88000000    0.34000000
   10.94777775  170.82600403    1.96000004    0.34000000
   10.95166683  213.75599670    2.01999998    0.34000000
   10.95499992  189.23800659    2.05999994    0.34000000
   10.95833302  165.46699524    2.09999990    0.34000000
   10.96138859  194.61999512    2.13000011    0.34000000
   10.96472168  199.93400574    2.19000006    0.34000000
   10.96805477  188.97799683    2.25000000    0.34000000
   10.97111034  175.99800110    2.30999994    0.34000000
   10.97444439  168.97900391    2.34999990    0.34000000
   10.97749996  164.91400146    2.39000010    0.36000001
   10.98083305  171.45300293    2.42000008    0.34000000
   10.98416710  173.90299988    2.46000004    0.34000000
   10.98444462  204.25900269    2.48000002    0.34000000
   10.99055576  204.25900269    2.55999994    0.36000001
   10.99472237  174.14900208    2.59999990    0.36000001
   10.99777794  165.77600098    2.64000010    0.36000001
   11.00111103  165.91400146    2.67000008    0.36000001
   11.00416660  180.35699463    2.69000006    0.34000000
   11.00749969  169.42799377    2.73000002    0.34000000
   11.01083374  159.08200073    2.75000000    0.34000000
   11.01388931  169.08999634    2.78999996    0.34000000
   11.01722240  173.97300720    2.78999996    0.34000000
   11.01805496  157.14399719    2.80999994    0.34000000
   11.02083302  167.11300659    2.82999992    0.34000000
   11.02416611  155.34700012    2.84999990    0.36000001
   11.02722168  166.73699951    2.86999989    0.34000000
   11.03333378  166.73699951    2.89000010    0.34000000
   11.03750038  138.91999817    2.91000009    0.34000000
   11.04083347  145.21099854    2.91000009    0.34000000
   11.04388905  147.31900024    2.91000009    0.34000000
   11.04722309  162.21699524    2.93000007    0.36000001
   11.05027771  150.45799255    2.96000004    0.36000001
   11.05138874  184.54200745    2.96000004    0.36000001
   11.05388927  145.65199280    2.98000002    0.34000000
   11.05722237  154.23300171    3.00000000    0.36000001
   11.06027794  151.18600464    3.01999998    0.36000001
   11.06361103  148.56100464    3.03999996    0.36000001
   11.06694412  161.52999878    3.07999992    0.36000001
   11.06999969  147.85499573    3.09999990    0.36000001
   11.07666683  147.85499573    3.09999990    0.36000001
   11.08055592  152.98100281    3.05999994    0.36000001
   11.08388901  150.52499390    3.03999996    0.36000001
   11.08472157  160.57299805    3.01999998    0.36000001
   11.08749962  162.55499268    2.96000004    0.36000001
   11.09083271  155.73699951    2.89000010    0.36000001
   11.09388828  148.31599426    2.80999994    0.36000001
   11.09722233  142.18299866    2.73000002    0.36000001
   11.10055637  161.31100464    2.66000009    0.36000001
   11.10361195  157.42300415    2.55999994    0.36000001
   11.10694504  176.81799316    2.48000002    0.36000001
   11.11027813  147.82099915    2.40000010    0.36000001
   11.11333370  147.58399963    2.34999990    0.36000001
   11.11888885  147.58399963    2.21000004    0.36000001
   11.12305546  137.88099670    2.15000010    0.36000001
   11.12638855  155.55200195    2.11999989    0.36000001
   11.12972260  143.66600037    2.05999994    0.36000001
   11.13277817  136.25399780    2.01999998    0.36000001
   11.13611126  145.64399719    2.00000000    0.36000001
   11.13916683  165.52299500    0.98000002    2.05999994
   11.14249992  157.69599915    0.95999998    2.05999994
   11.14583302  137.19500732    0.98000002    2.05999994
   11.14888859  133.12199402    0.98000002    2.07999992
   11.15138817  146.54299927    0.98000002    2.05999994
   11.15277767  147.06399536    0.98000002    2.05999994
   11.15611076  147.24400330    0.98000002    2.07999992
   11.16194439  147.24400330    0.98000002    2.07999992
   11.16611099  152.21600342    0.98000002    2.07999992
   11.16916656  145.32600403    0.95999998    2.07999992
   11.17250061  168.72200012    0.95999998    2.07999992
   11.17555618  135.25700378    0.95999998    2.07999992
   11.17888927  141.41499329    0.95999998    2.07999992
   11.18222237  148.08900452    0.95999998    2.07999992
   11.18472195  152.98500061    0.95999998    2.07999992
   11.18555546  140.93600464    0.95999998    2.07999992
   11.18888855  148.15899658    0.95999998    2.07999992
   11.19194412  140.92500305    0.95999998    2.07999992
   11.19527817  170.82800293    0.95999998    2.07999992
   11.19861126  149.55400085    0.95999998    2.07999992
   11.20472240  149.55400085    0.95999998    2.07999992
   11.20888901  147.32499695    0.95999998    2.07999992
   11.21194458  138.82099915    0.95999998    2.07999992
   11.21527767  153.59800720    0.95999998    2.07999992
   11.21805477  155.97200012    0.95999998    2.07999992
   11.21888828  143.33900452    0.95999998    2.07999992
   11.22222137  166.64599609    0.95999998    2.07999992
   11.22527695  151.34700012    0.95999998    2.07999992
   11.22861099  142.43699646    0.95999998    2.07999992
   11.23194408  141.57299805    0.95999998    2.07999992
   11.23500061  130.79800415    0.95999998    2.07999992
   11.23833370  144.98300171    0.95999998    2.07999992
   11.24166679  143.37699890    0.95999998    2.07999992
   11.24750042  143.37699890    0.95999998    2.07999992
   11.25166702  137.88000488    0.95999998    2.07999992
   11.25500011  131.90299988    0.95999998    2.07999992
   11.25805569  187.42599487    0.95999998    2.07999992
   11.26138878  175.49499512    0.95999998    2.07999992
   11.26472187  196.42100525    0.95999998    2.07999992
   11.26777744  162.81399536    0.95999998    2.07999992
   11.27111053  180.42399597    0.95999998    2.07999992
   11.27416611  182.71600342    0.95999998    2.07999992
   11.27750015  271.63598633    0.95999998    2.07999992
   11.28083324  216.57000732    0.95999998    2.07999992
   11.28388977  236.51800537    0.95999998    2.07999992
   11.28500080  260.28601074    0.95999998    2.07999992
   11.29027843  260.28601074    0.95999998    2.07999992
   11.29444504  202.66600037    0.95999998    2.07999992
   11.29777813  153.36000061    0.95999998    2.07999992
   11.30111122  187.39300537    0.95999998    2.07999992
   11.30416679  219.47500610    0.95999998    2.07999992
   11.30749989  163.25999451    0.95999998    2.07999992
   11.31055546  163.41099548    0.95999998    2.07999992
   11.31388950  153.85499573    0.95999998    2.07999992
   11.31722260  180.64599609    0.95999998    2.07999992
   11.31805515  200.55400085    0.95999998    2.07999992
   11.32055569  166.47900391    0.95999998    2.07999992
   11.32388878  162.72099304    0.95999998    2.07999992
   11.32722187  157.60600281    0.95999998    2.07999992
   11.33333302  157.60600281    0.95999998    2.07999992
   11.33749962  158.77000427    0.95999998    2.07999992
   11.34055519  147.93699646    0.95999998    2.07999992
   11.34388828  176.64799500    0.95999998    2.07999992
   11.34694386  147.87199402    0.95999998    2.07999992
   11.35027790  145.17900085    0.95999998    2.07999992
   11.35138893  182.66600037    0.95999998    2.07999992
   11.35388947  154.18899536    0.95999998    2.07999992
   11.35722256  173.38800049    0.95999998    2.07999992
   11.36055565  142.60899353    0.95999998    2.07999992
   11.36361122  158.38000488    0.95999998    2.07999992
   11.36694431  158.41700745    0.95999998    2.07999992
   11.36999989  159.62199402    0.95999998    2.07999992
   11.37611103  159.62199402    0.95999998    2.07999992
   11.38027763  150.26199341    0.95999998    2.07999992
   11.38333321  151.79400635    0.95999998    2.07999992
   11.38472176  156.72700500    0.95999998    2.07999992
   11.38694477  146.62300110    0.95999998    2.07999992
   11.39027786  163.46499634    0.95999998    2.07999992
   11.39361095  164.65199280    0.95999998    2.07999992
   11.39666653  140.13600159    0.95999998    2.07999992
   11.39999962  151.63999939    0.95999998    2.07999992
   11.40333271  144.62300110    0.95999998    2.07999992
   11.40638828  149.27499390    0.95999998    2.07999992
   11.40972137  144.59899902    0.95999998    2.07999992
   11.41277695  151.61399841    0.95999998    2.07999992
   11.41888905  151.61399841    0.95999998    2.07999992
   11.42305565  145.95100403    0.95999998    2.07999992
   11.42638874  164.04899597    0.95999998    2.07999992
   11.42944431  132.64900208    0.95999998    2.07999992
   11.43277836  155.23100281    0.95999998    2.07999992
   11.43611145  157.48699951    0.95999998    2.07999992
   11.43916702  166.66400146    0.95999998    2.07999992
   11.44250011  144.36099243    0.95999998    2.07999992
   11.44583321  166.30900574    0.95999998    2.07999992
   11.44888878  141.72300720    0.95999998    2.07999992
   11.45138836  146.34500122    0.95999998    2.07999992
   11.45249939  138.94099426    0.95999998    2.07999992
   11.45583344  140.39500427    0.95999998    2.07999992
   11.46194458  140.39500427    0.95999998    2.07999992
   11.46583271  143.68200684    0.95999998    2.07999992
   11.46916580  126.68000031    0.95999998    2.07999992
   11.47249985  136.34800720    0.95999998    2.07999992
   11.47555542  132.69299316    0.95999998    2.07999992
   11.47888851  131.57600403    0.95999998    2.07999992
   11.48222160  139.19999695    0.95999998    2.07999992
   11.48472214  145.15199280    0.95999998    2.07999992
   11.48555565  141.95100403    0.95999998    2.07999992
   11.48888874  150.36099243    0.95999998    2.07999992
   11.49222279  132.45199585    0.95999998    2.07999992
   11.49527836  139.90100098    0.95999998    2.07999992
   11.49861145  137.70199585    0.95999998    2.07999992
   11.50472260  137.70199585    0.95999998    2.07999992
   11.50888920  159.78700256    0.95999998    2.07999992
   11.51194477  147.97000122    0.95999998    2.07999992
   11.51527786  147.80499268    0.95999998    2.07999992
   11.51805496  141.98899841    0.95999998    2.07999992
   11.51861095  151.47799683    0.95999998    2.07999992
   11.52194405  133.33399963    0.95999998    2.07999992
   11.52527714  140.58000183    0.95999998    2.07999992
   11.52833271  128.26800537    0.95999998    2.07999992
   11.53166676  129.60000610    0.95999998    2.07999992
   11.53500080  143.16999817    0.95999998    2.07999992
   11.53805637  151.52900696    0.95999998    2.07999992
   11.54138947  145.69999695    0.95999998    2.07999992
   11.54750061  145.69999695    0.95999998    2.07999992
   11.55166721  155.22500610    0.95999998    2.07999992
   11.55472279  144.32400513    0.95999998    2.07999992
   11.55805588  133.13200378    0.95999998    2.07999992
   11.56138897  127.31300354    0.95999998    2.07999992
   11.56444454  143.79400635    0.95999998    2.07999992
   11.56777763  137.56500244    0.95999998    2.07999992
   11.57111073  159.64500427    0.95999998    2.07999992
   11.57416630  162.97900391    0.95999998    2.07999992
   11.57750034  156.17700195    0.95999998    2.07999992
   11.58055592  149.41299438    0.95999998    2.07999992
   11.58388901  140.56100464    0.95999998    2.07999992
   11.58472157  137.69599915    0.95999998    2.07999992
   11.59027767  137.69599915    0.95999998    2.07999992
   11.59444427  131.67399597    0.95999998    2.07999992
   11.59777737  150.47300720    0.95999998    2.07999992
   11.60083389  137.79299927    0.95999998    2.07999992
   11.60416698  128.66000366    0.95999998    2.07999992
   11.60750008  148.67900085    0.95999998    2.07999992
   11.61055565  146.87800598    0.95999998    2.07999992
   11.61388969  135.82800293    0.95999998    2.07999992
   11.61722279  133.46800232    0.95999998    2.07999992
   11.61805534  150.96000671    0.95999998    2.07999992
   11.62083340  159.37800598    0.95999998    2.07999992
   11.62388897  155.71600342    0.95999998    2.07999992
   11.62722206  153.45799255    0.95999998    2.07999992
   11.63305569  153.45799255    0.95999998    2.07999992
   11.63722229  159.83599854    0.95999998    2.07999992
   11.64055538  133.17199707    0.95999998    2.07999992
   11.64388847  137.79299927    0.95999998    2.07999992
   11.64722252  131.31700134    0.95999998    2.07999992
   11.65027714  125.79399872    0.95999998    2.07999992
   11.65138817  158.09399414    0.95999998    2.07999992
   11.65416622  148.07800293    0.95999998    2.07999992
   11.65722179  150.83099365    0.95999998    2.07999992
   11.66055489  141.88099670    0.95999998    2.07999992
   11.66361046  130.35499573    0.95999998    2.07999992
   11.66694450  147.11799622    0.95999998    2.07999992
   11.67027855  126.56500244    0.95999998    2.07999992
   11.67611122  126.56500244    0.95999998    2.07999992
   11.68027782  130.09199524    0.95999998    2.07999992
   11.68333340  149.97399902    0.95999998    2.07999992
   11.68472195  143.69900513    0.95999998    2.07999992
   11.68722248  133.48500061    0.95999998    2.07999992
   11.69027805  129.22099304    0.95999998    2.07999992
   11.69361115  129.23800659    0.95999998    2.07999992
   11.69666672  130.54699707    0.95999998    2.07999992
   11.69999981  128.22000122    0.95999998    2.07999992
   11.70333290  146.15299988    0.95999998    2.07999992
   11.70638847  137.58500671    0.95999998    2.07999992
   11.70972157  125.58499908    0.95999998    2.07999992
   11.71305561  141.61399841    0.95999998    2.07999992
   11.71888828  141.61399841    0.95999998    2.07999992
   11.73944473  137.06900024    0.95999998    2.07999992
   11.74277782  132.63699341    0.95999998    2.07999992
   11.74583340  125.93800354    0.95999998    2.07999992
   11.74916649  131.73800659    0.95999998    2.07999992
   11.75166702  126.37599945    0.95999998    2.07999992
   11.75249958  129.32299805    0.95999998    2.07999992
   11.75583363  132.64500427    0.95999998    2.07999992
   11.76194477  132.64500427    0.95999998    2.07999992
   11.76611137  133.44500732    0.95999998    2.07999992
   11.76916599  121.72699738    0.95999998    2.07999992
   11.77250004  137.94700623    0.95999998    2.07999992
   11.77555561  113.62999725    0.95999998    2.07999992
   11.77888870  127.51699829    0.95999998    2.07999992
   11.78222179  120.70600128    0.95999998    2.07999992
   11.78500080  121.48400116    0.95999998    2.07999992
   11.78555584  130.66499329    0.95999998    2.07999992
   11.78888893  122.85299683    0.95999998    2.07999992
   11.79222298  123.08599854    0.95999998    2.07999992
   11.79527855  120.10399628    0.95999998    2.07999992
   11.79861164  127.20099640    0.95999998    2.07999992
   11.80472279  127.20099640    0.95999998    2.07999992
   11.80888939  124.02700043    0.95999998    2.07999992
   11.81194496  123.63500214    0.95999998    2.07999992
   11.81527805  118.74900055    0.95999998    2.07999992
   11.81833363  122.27400208    0.95999998    2.07999992
   11.81888866  121.87100220    0.95999998    2.07999992
   11.82222176  121.18499756    0.95999998    2.07999992
   11.82555580  124.61799622    0.95999998    2.07999992
   11.82861137  119.76399994    0.95999998    2.07999992
   11.83194447  128.76400757    0.95999998    2.07999992
   11.83527756  126.72599792    0.95999998    2.07999992
   11.83833313  128.34199524    0.95999998    2.07999992
   11.84166622  132.86500549    0.95999998    2.07999992
   11.84749985  132.86500549    0.95999998    2.07999992
   11.85166740  130.73199463    0.95999998    2.07999992
   11.85500050  135.46899414    0.95999998    2.07999992
   11.85805607  133.38699341    0.95999998    2.07999992
   11.86138916  138.69299316    0.95999998    2.07999992
   11.86472225  123.56999969    0.95999998    2.07999992
   11.86777782  135.46899414    0.95999998    2.07999992
   11.87111092  123.64600372    0.95999998    2.07999992
   11.87416649  130.47099304    0.95999998    2.07999992
   11.87750053  124.52200317    0.95999998    2.07999992
   11.88083363  118.03900146    0.95999998    2.07999992
   11.88388920  126.24900055    0.95999998    2.07999992
   11.88500023  125.14900208    0.95999998    2.07999992
   11.89027786  125.14900208    0.95999998    2.07999992
   11.89444447  129.01800537    0.95999998    2.07999992
   11.89777756  122.44799805    0.95999998    2.07999992
   11.90111065  121.40799713    0.95999998    2.07999992
   11.90416622  117.15200043    0.95999998    2.07999992
   11.90749931  122.64399719    0.95999998    2.07999992
   11.91055489  122.15200043    0.95999998    2.07999992
   11.91388893  133.01600647    0.95999998    2.07999992
   11.91722298  142.74000549    0.95999998    2.07999992
   11.91833401  133.13200378    0.95999998    2.07999992
   11.92055607  131.86700439    0.95999998    2.07999992
   11.92388916  133.45300293    0.95999998    2.07999992
   11.92722225  130.28700256    0.95999998    2.07999992
   11.93333340  130.28700256    0.95999998    2.07999992
   11.93722248  148.77999878    0.95999998    2.07999992
   11.94055557  145.04499817    0.95999998    2.07999992
   11.94388866  135.04800415    0.95999998    2.07999992
   11.94694424  132.00199890    0.95999998    2.07999992
   11.95027733  125.41400146    0.95999998    2.07999992
   11.95166683  128.85400391    0.95999998    2.07999992
   11.95388889  132.38999939    0.95999998    2.07999992
   11.95722198  131.19000244    0.95999998    2.07999992
   11.96055508  126.46099854    0.95999998    2.07999992
   11.96361065  129.21899414    0.95999998    2.07999992
   11.96694374  118.71399689    0.95999998    2.09999990
   11.96999931  136.00799561    0.63000000    2.44000006
   11.97611046  136.00799561    0.63000000    2.46000004
   11.98027706  119.89600372    0.61000001    2.46000004
   11.98333359  126.99099731    0.61000001    2.46000004
   11.98500061  129.44900513    0.61000001    2.46000004
   11.98722267  121.10399628    0.61000001    2.46000004
   11.99027824  122.44000244    0.61000001    2.46000004
   11.99361134  122.80200195    0.61000001    2.46000004
   11.99666691  125.60600281    0.61000001    2.46000004
   12.00000000  130.42300415    0.61000001    2.46000004
   12.00333309  128.53500366    0.61000001    2.48000002
   12.00638866  125.66400146    0.61000001    2.46000004
   12.00972176  128.97399902    0.61000001    2.46000004
   12.01305580  126.99700165    0.61000001    2.46000004
   12.01888847  126.99700165    0.61000001    2.48000002
   12.02305508  125.98300171    0.61000001    2.46000004
   12.02638817  120.96099854    0.61000001    2.46000004
   12.02944374  132.88600159    0.61000001    2.48000002
   12.03277779  123.39900208    0.58999997    2.46000004
   12.03611183  117.91000366    0.58999997    2.48000002
   12.03916740  120.80100250    0.61000001    2.48000002
   12.04250050  123.33399963    0.58999997    2.46000004
   12.04555607  129.54899597    0.58999997    2.48000002
   12.04888916  118.96600342    0.58999997    2.48000002
   12.05166721  119.80100250    0.58999997    2.48000002
   12.05277824  129.71200562    0.58999997    2.48000002
   12.05583382  138.22399902    0.58999997    2.48000002
   12.06166649  138.22399902    0.58999997    2.48000002
   12.06583309  129.55700684    0.58999997    2.48000002
   12.06916618  142.31900024    0.58999997    2.48000002
   12.07250023  125.15000153    0.58999997    2.48000002
   12.07555580  126.65100098    0.58999997    2.48000002
   12.07888889  123.66400146    0.58999997    2.48000002
   12.08194447  127.79299927    0.58999997    2.48000002
   12.08500004  117.08999634    0.58999997    2.48000002
   12.08555508  117.52999878    0.58999997    2.48000002
   12.08888817  128.04100037    0.58999997    2.48000002
   12.09222221  137.04699707    0.58999997    2.48000002
   12.09527779  126.29399872    0.58999997    2.48000002
   12.09861088  124.58499908    0.56999999    2.48000002
   12.10472298  124.58499908    0.58999997    2.48000002
   12.10861111  129.89900208    0.58999997    2.48000002
   12.11194515  127.43299866    0.58999997    2.50000000
   12.11527824  129.37399292    0.56999999    2.50000000
   12.11833382  127.97599792    0.58999997    2.50000000
   12.11888885  117.01300049    0.58999997    2.50000000
   12.12194443  125.86499786    0.58999997    2.50000000
   12.12527752  115.21199799    0.56999999    2.50000000
   12.12833309  124.25000000    0.56999999    2.50000000
   12.13166714  122.80799866    0.56999999    2.50000000
   12.13500023  123.96800232    0.56999999    2.50000000
   12.13805580  126.53299713    0.56999999    2.50000000
   12.14138889  123.60600281    0.55000001    2.50000000
   12.14750004  123.60600281    0.55000001    2.50000000
   12.15166664  124.50399780    0.55000001    2.50000000
   12.15194416  115.48300171    0.55000001    2.50000000
   12.15527725  118.41500092    0.55000001    2.50000000
   12.15861034  118.99400330    0.55000001    2.50000000
   12.16194439  122.39399719    0.55000001    2.50000000
   12.16499996  126.93499756    0.55000001    2.50000000
   12.16833401  126.71600342    0.55000001    2.50000000
   12.17138958  124.65699768    0.55000001    2.50000000
   12.17472267  119.23300171    0.55000001    2.51999998
   12.17805576  131.01699829    0.55000001    2.51999998
   12.18111134  122.67500305    0.55000001    2.50000000
   12.18444443  124.50599670    0.55000001    2.51999998
   12.18500042  120.26599884    0.55000001    2.51999998
   12.19027805  120.26599884    0.55000001    2.50000000
   12.19444466  117.03800201    0.55000001    2.51999998
   12.19777775  119.43599701    0.55000001    2.50000000
   12.20083332  131.12199402    0.55000001    2.51999998
   12.20416641  117.54299927    0.55000001    2.51999998
   12.20722198  122.55699921    0.55000001    2.50000000
   12.21055508  129.26899719    0.55000001    2.51999998
   12.21388912  122.76799774    0.55000001    2.51999998
   12.21694374  120.78299713    0.55000001    2.51999998
   12.21833324  122.45300293    0.55000001    2.51999998
   12.22083282  113.20700073    0.55000001    2.51999998
   12.22388840  126.64099884    0.55000001    2.51999998
   12.22722149  115.67700195    0.55000001    2.51999998
   12.23305511  115.67700195    0.55000001    2.51999998
   12.23722267  115.22899628    0.55000001    2.51999998
   12.24055576  118.63500214    0.55000001    2.51999998
   12.24361134  114.88099670    0.55000001    2.51999998
   12.24694443  117.93299866    0.55000001    2.51999998
   12.25027752  119.48600006    0.55000001    2.51999998
   12.25166702  124.02100372    0.55000001    2.51999998
   12.25388908  118.59300232    0.55000001    2.51999998
   12.25694466  114.81800079    0.55000001    2.51999998
   12.26027775  117.90499878    0.55000001    2.51999998
   12.26361084  115.04599762    0.55000001    2.51999998
   12.26666641  116.53800201    0.55000001    2.53999996
   12.26999950  124.10500336    0.55000001    2.53999996
   12.27611065  124.10500336    0.55000001    2.53999996
   12.27999973  121.55500031    0.55000001    2.51999998
   12.28333378  121.07800293    0.55000001    2.53999996
   12.28500080  118.09300232    0.55000001    2.53999996
   12.28694534  111.86799622    0.55000001    2.53999996
   12.29000092  117.87200165    0.55000001    2.51999998
   12.29333401  115.61900330    0.55000001    2.53999996
   12.29666710  123.26899719    0.55000001    2.53999996
   12.30000019  118.08000183    0.55000001    2.53999996
   12.30305576  122.79199982    0.55000001    2.53999996
   12.30638885  127.69799805    0.55000001    2.53999996
   12.30972195  122.52500153    0.55000001    2.53999996
   12.31277752  120.82599640    0.55000001    2.53999996
   12.31888866  120.82599640    0.55000001    2.53999996
   12.32305527  129.77499390    0.55000001    2.53999996
   12.32638836  112.73999786    0.52999997    2.53999996
   12.32944393  120.39199829    0.55000001    2.53999996
   12.33277798  116.23799896    0.52999997    2.53999996
   12.33611107  110.79299927    0.55000001    2.53999996
   12.33916664  110.92099762    0.55000001    2.53999996
   12.34249973  113.91300201    0.52999997    2.55999994
   12.34583282  106.98899841    0.55000001    2.53999996
   12.34888840  112.42199707    0.52999997    2.53999996
   12.35166740  112.83300018    0.52999997    2.55999994
   12.35277843  122.40499878    0.52999997    2.55999994
   12.35583401  108.57299805    0.52999997    2.55999994
   12.36166668  108.57299805    0.55000001    2.55999994
   12.36583328  107.55400085    0.55000001    2.53999996
   12.36916637  115.59600067    0.52999997    2.53999996
   12.37222195  113.83300018    0.52999997    2.55999994
   12.37555599  120.00499725    0.52999997    2.55999994
   12.37861156  115.43699646    0.52999997    2.55999994
   12.38194466  108.02899933    0.52999997    2.55999994
   12.38500023  113.80300140    0.52999997    2.55999994
   12.38555527  115.51999664    0.52999997    2.55999994
   12.38861084  113.67700195    0.55000001    2.57999992
   12.39194393  104.27600098    0.55000001    2.57999992
   12.39527798  109.83100128    0.52999997    2.55999994
   12.39833355  113.39499664    0.52999997    2.55999994
   12.40444374  113.39499664    0.52999997    2.55999994
   12.40888882  104.55300140    0.52999997    2.55999994
   12.41194439  105.33899689    0.52999997    2.55999994
   12.41527748  100.47499847    0.52999997    2.55999994
   12.41833401  107.09799957    0.52999997    2.55999994
   12.41888905  111.01899719    0.52999997    2.55999994
   12.42194462  107.15899658    0.52999997    2.55999994
   12.42527771  104.54599762    0.52999997    2.55999994
   12.42861176  101.86799622    0.51999998    2.55999994
   12.43166733  101.29299927    0.52999997    2.55999994
   12.43500042  108.72699738    0.51999998    2.55999994
   12.43805599  115.21600342    0.51999998    2.55999994
   12.44138908  104.36900330    0.51999998    2.55999994
   12.44750023  104.36900330    0.51999998    2.55999994
   12.45166683  111.93000031    0.52999997    2.57999992
   12.45194435  112.85700226    0.52999997    2.57999992
   12.45527744  106.75900269    0.51999998    2.55999994
   12.45833302   -1.00000000    0.51999998    2.55999994
   12.46166611   -1.00000000    0.51999998    2.55999994
   12.46500015   -1.00000000    0.52999997    2.55999994
   12.46805477   -1.00000000    0.52999997    2.57999992
   12.47138882   -1.00000000    0.52999997    2.57999992
   12.47472191   -1.00000000    0.51999998    2.57999992
   12.47777748   -1.00000000    0.51999998    2.57999992
   12.48111057  118.41100311    0.51999998    2.57999992
   12.48444462  115.71700287    0.52999997    2.57999992
   12.48527813  110.03399658    0.52999997    2.57999992
   12.49027824  110.03399658    0.52999997    2.57999992
   12.49444485  111.49400330    0.51999998    2.57999992
   12.49750042  110.54799652    0.51999998    2.57999992
   12.50083351  111.15299988    0.51999998    2.57999992
   12.50416660  109.57199860    0.50000000    2.57999992
   12.50722218  123.22200012    0.51999998    2.57999992
   12.51055527  106.10900116    0.51999998    2.59999990
   12.51388931  112.94999695    0.50000000    2.57999992
   12.51694393  114.43000031    0.50000000    2.57999992
   12.51861095  120.40100098    0.50000000    2.57999992
   12.52055550  110.00800323    0.50000000    2.57999992
   12.52388859  105.41699982    0.50000000    2.57999992
   12.52694416  100.93000031    0.50000000    2.57999992
   12.53305531  100.93000031    0.50000000    2.57999992
   12.53722286  108.93299866    0.50000000    2.59999990
   12.54055595  102.51999664    0.50000000    2.57999992
   12.54361153  114.17800140    0.50000000    2.57999992
   12.54694462  115.36000061    0.50000000    2.59999990
   12.55000019  114.94200134    0.50000000    2.59999990
   12.55194473  116.16899872    0.50000000    2.59999990
   12.55361176  109.58599854    0.50000000    2.59999990
   12.55694485  109.68000031    0.50000000    2.59999990
   12.56000042  113.00399780    0.51999998    2.59999990
   12.56333351  117.20999908    0.50000000    2.59999990
   12.56638908  119.84999847    0.50000000    2.59999990
   12.56972218  113.34400177    0.50000000    2.59999990
   12.57583332  113.34400177    0.51999998    2.59999990
   12.57999992  114.90299988    0.51999998    2.59999990
   12.58333302  112.78800201    0.51999998    2.59999990
   12.58527756  111.62899780    0.51999998    2.57999992
   12.58694458  115.06999969    0.51999998    2.59999990
   12.59027767  100.76599884    0.50000000    2.59999990
   12.59333324  108.05100250    0.51999998    2.57999992
   12.59666634  105.17900085    0.51999998    2.57999992
   12.60000038  114.78399658    0.50000000    2.59999990
   12.60305595  116.83999634    0.50000000    2.59999990
   12.60638905  124.86699677    0.50000000    2.59999990
   12.60972214  110.04799652    0.50000000    2.61999989
   12.61277771  117.61399841    0.50000000    2.59999990
   12.61888885  117.61399841    0.50000000    2.61999989
   12.62277794  123.41300201    0.50000000    2.59999990
   12.62611103  124.40200043    0.50000000    2.61999989
   12.62944412  111.12100220    0.50000000    2.59999990
   12.63249969  117.81099701    0.50000000    2.61999989
   12.63583279  118.98799896    0.50000000    2.61999989
   12.63916683  115.84200287    0.50000000    2.59999990
   12.64222240  126.19799805    0.50000000    2.59999990
   12.64555550  115.63600159    0.50000000    2.59999990
   12.64861107  109.16400146    0.50000000    2.61999989
   12.65194416  110.52100372    0.50000000    2.59999990
   12.65249920  111.82599640    0.50000000    2.59999990
   12.65555477  114.38099670    0.50000000    2.61999989
   12.66166592  114.38099670    0.47999999    2.61999989
   12.66583252  122.62500000    0.50000000    2.59999990
   12.66888905  116.52300262    0.50000000    2.59999990
   12.67222214  114.30200195    0.47999999    2.61999989
   12.67555618  112.57299805    0.47999999    2.61999989
   12.67861176  110.83399963    0.47999999    2.61999989
   12.68194485  115.00199890    0.47999999    2.61999989
   12.68500042  120.37599945    0.47999999    2.61999989
   12.68583298  114.24199677    0.47999999    2.64000010
   12.68861103  117.45999908    0.47999999    2.64000010
   12.69194412  116.55599976    0.47999999    2.61999989
   12.69527817  109.75399780    0.47999999    2.61999989
   12.69833374  105.05899811    0.47999999    2.61999989
   12.70444393  105.05899811    0.47999999    2.61999989
   12.70861053  110.49199677    0.47999999    2.61999989
   12.71166611  104.91200256    0.46000001    2.61999989
   12.71500015  125.87599945    0.46000001    2.61999989
   12.71833324  116.57599640    0.46000001    2.59999990
   12.71916580  113.16500092    0.47999999    2.61999989
   12.72166634  109.24500275    0.47999999    2.61999989
   12.72499943  110.25000000    0.47999999    2.61999989
   12.72833252  116.67700195    0.46000001    2.61999989
   12.73138809  120.92500305    0.47999999    2.61999989
   12.73472214  116.77700043    0.46000001    2.64000010
   12.73805618  116.69300079    0.46000001    2.64000010
   12.76000023  116.69300079    0.47999999    2.61999989
   12.76416683  112.22699738    0.47999999    2.61999989
   12.76749992  109.24199677    0.47999999    2.61999989
   12.77055550  116.46900177    0.47999999    2.61999989
   12.77388859  123.00700378    0.47999999    2.61999989
   12.77722168  120.26200104    0.47999999    2.61999989
   12.78027725  105.16799927    0.47999999    2.61999989
   12.78361130  105.35900116    0.47999999    2.61999989
   12.78694534  112.12100220    0.47999999    2.61999989
   12.79000092  117.35600281    0.47999999    2.61999989
   12.79083347  111.39800262    0.47999999    2.61999989
   12.79361153  112.19400024    0.47999999    2.61999989
   12.79666710  112.95099640    0.47999999    2.64000010
   12.80277824  112.95099640    0.47999999    2.61999989
   12.80694485  104.67400360    0.46000001    2.61999989
   12.81027794  110.21600342    0.46000001    2.64000010
   12.81333351  102.99900055    0.46000001    2.64000010
   12.81666660  106.07399750    0.46000001    2.64000010
   12.81999969  108.85800171    0.46000001    2.64000010
   12.82305527  124.48200226    0.46000001    2.64000010
   12.82416630  123.80400085    0.46000001    2.64000010
   12.82666683  131.35600281    0.46000001    2.64000010
   12.82972240  129.05999756    0.44000000    2.64000010
   12.83305550  128.12100220    0.46000001    2.64000010
   12.83638859  130.50500488    0.44000000    2.64000010
   12.83944416  144.52900696    0.44000000    2.64000010
   12.84555531  144.52900696    0.46000001    2.64000010
   12.84972191  126.18499756    0.44000000    2.64000010
   12.85305595  135.61300659    0.44000000    2.64000010
   12.85611153  128.79600525    0.44000000    2.64000010
   12.85777855  118.45200348    0.44000000    2.64000010
   12.86000061  104.13099670    0.44000000    2.64000010
   12.86333370  104.10600281    0.44000000    2.64000010
   12.86638927  107.10399628    0.44000000    2.64000010
   12.86972237  116.32800293    0.44000000    2.64000010
   12.87277794  104.16699982    0.44000000    2.64000010
   12.87611103  116.39399719    0.44000000    2.64000010
   12.87944412  106.88300323    0.44000000    2.66000009
   12.88277817  117.83000183    0.44000000    2.64000010
   12.88833332  117.83000183    0.44000000    2.64000010
   12.89249992  111.29100037    0.46000001    2.64000010
   12.89583302  130.86300659    0.44000000    2.66000009
   12.89916611  139.30799866    0.44000000    2.64000010
   12.90222168  138.89799500    0.44000000    2.64000010
   12.90583324  135.30400085    0.44000000    2.64000010
   12.90888882  123.52600098    0.44000000    2.64000010
   12.91222191  138.71800232    0.44000000    2.64000010
   12.91527748  136.24000549    0.44000000    2.64000010
   12.91861153  140.64999390    0.44000000    2.64000010
   12.92194462  148.11999512    0.44000000    2.66000009
   12.92444515  128.38800049    0.44000000    2.66000009
   12.92527771  111.24500275    0.44000000    2.66000009
   12.93138885  111.24500275    0.44000000    2.66000009
   12.93555546  133.38299561    0.44000000    2.66000009
   12.93861103  123.53399658    0.44000000    2.66000009
   12.94194412  109.25399780    0.46000001    2.66000009
   12.94499969  120.25000000    0.46000001    2.66000009
   12.94833374  112.23100281    0.44000000    2.64000010
   12.95166683  106.44499969    0.46000001    2.66000009
   12.95472240  114.56800079    0.46000001    2.66000009
   12.95777798  110.50800323    0.46000001    2.66000009
   12.95833302  110.75900269    0.46000001    2.66000009
   12.96166611  114.10500336    0.46000001    2.66000009
   12.96500015  111.81199646    0.46000001    2.66000009
   12.96805477  116.15899658    0.44000000    2.66000009
   12.97416592  116.15899658    0.44000000    2.66000009
   12.97833252  108.30100250    0.44000000    2.66000009
   12.98138809  107.04199982    0.44000000    2.66000009
   12.98472214  102.75299835    0.44000000    2.66000009
   12.98805618  110.08999634    0.44000000    2.66000009
   12.99111176  107.95800018    0.44000000    2.67000008
   12.99138927  114.88999939    0.44000000    2.66000009
   12.99472237  111.89600372    0.44000000    2.66000009
   12.99805546  109.76699829    0.44000000    2.66000009
   13.00111103  112.74600220    0.44000000    2.66000009
   13.00444412  101.29100037    0.44000000    2.66000009
   13.00777817  108.19400024    0.44000000    2.66000009
   13.01083374  110.80500031    0.44000000    2.66000009
   13.01694393  110.80500031    0.44000000    2.67000008
   13.02111053  113.33100128    0.41999999    2.66000009
   13.02444458  104.12100220    0.41999999    2.67000008
   13.02472210  108.71700287    0.41999999    2.67000008
   13.02805519  104.31300354    0.44000000    2.66000009
   13.03138828  108.58999634    0.44000000    2.66000009
   13.03444481  107.91000366    0.44000000    2.66000009
   13.03777790  107.13899994    0.44000000    2.66000009
   13.04083347  102.51599884    0.44000000    2.66000009
   13.04416752  108.27899933    0.44000000    2.66000009
   13.04750061  109.21099854    0.44000000    2.66000009
   13.05055618  102.26300049    0.44000000    2.66000009
   13.05388927   98.38559723    0.44000000    2.66000009
   13.06000042   98.38559723    0.44000000    2.66000009
   13.06388950  107.35500336    0.41999999    2.67000008
   13.06722260  106.12899780    0.41999999    2.67000008
   13.07055569  106.73100281    0.41999999    2.66000009
   13.07416630  103.80699921    0.41999999    2.66000009
   13.07750034  108.11699677    0.41999999    2.66000009
   13.08055592  110.72299957    0.41999999    2.66000009
   13.08388901  109.31600189    0.41999999    2.66000009
   13.08694458  103.96099854    0.41999999    2.67000008
   13.09027767  110.56600189    0.41999999    2.67000008
   13.09111118  108.32199860    0.41999999    2.67000008
   13.09388828  106.45300293    0.41999999    2.67000008
   13.09722233  110.66200256    0.41999999    2.67000008
   13.10277843  110.66200256    0.41999999    2.67000008
   13.10694504  110.67500305    0.41999999    2.67000008
   13.11000061  116.61799622    0.41999999    2.67000008
   13.11333370  111.98000336    0.41999999    2.67000008
   13.11638927  100.47599792    0.41999999    2.67000008
   13.11972237  103.17299652    0.44000000    2.67000008
   13.12305546  109.75199890    0.41999999    2.66000009
   13.12444496  111.59899902    0.41999999    2.66000009
   13.12666702  107.50299835    0.41999999    2.67000008
   13.12972260  109.86900330    0.41999999    2.67000008
   13.13305569  106.10600281    0.41999999    2.67000008
   13.13638878  109.25099945    0.44000000    2.66000009
   13.13944435  107.48899841    0.41999999    2.67000008
   13.14555550  107.48899841    0.41999999    2.67000008
   13.14972210  101.33699799    0.41999999    2.67000008
   13.15277767  106.33000183    0.41999999    2.67000008
   13.15611076  104.84600067    0.41999999    2.67000008
   13.15805531  107.80999756    0.41999999    2.67000008
   13.15972137  110.05699921    0.41999999    2.67000008
   13.16305542  104.85099792    0.41999999    2.69000006
   13.16638851  106.47100067    0.41999999    2.67000008
   13.16944504  111.33699799    0.41999999    2.67000008
   13.17277813  105.16300201    0.41999999    2.67000008
   13.17583370  111.12400055    0.41999999    2.67000008
   13.17916679  112.76499939    0.41999999    2.67000008
   13.18249989  110.65299988    0.41999999    2.67000008
   13.18833351  110.65299988    0.41999999    2.67000008
   13.19250011  114.94200134    0.41999999    2.67000008
   13.19583321  113.60900116    0.41999999    2.67000008
   13.19888878  109.76899719    0.41999999    2.67000008
   13.20222187  108.28500366    0.40000001    2.67000008
   13.20555496  110.69499969    0.40000001    2.67000008
   13.20861053  107.31900024    0.41999999    2.67000008
   13.21194458  105.66999817    0.40000001    2.67000008
   13.21500015  102.82700348    0.40000001    2.67000008
   13.21833324  109.20999908    0.40000001    2.67000008
   13.22166634  108.84100342    0.40000001    2.67000008
   13.22472191  107.87000275    0.40000001    2.67000008
   13.22499943  109.90399933    0.40000001    2.67000008
   13.23111057  109.90399933    0.40000001    2.69000006
   13.23527813  103.72699738    0.41999999    2.69000006
   13.23861122  109.23300171    0.44000000    2.69000006
   13.24194431  110.68199921    0.41999999    2.67000008
   13.24499989  111.96099854    0.41999999    2.69000006
   13.24833393  105.60500336    0.41999999    2.67000008
   13.25166702  101.48000336    0.41999999    2.67000008
   13.25472260  106.82800293    0.40000001    2.69000006
   13.25805569  107.25000000    0.40000001    2.69000006
   13.25833321  101.12999725    0.40000001    2.69000006
   13.26166630  105.51799774    0.40000001    2.69000006
   13.26500034  104.22299957    0.40000001    2.67000008
   13.26805496  107.48799896    0.40000001    2.67000008
   13.27416611  107.48799896    0.40000001    2.69000006
   13.27833271  109.47899628    0.40000001    2.69000006
   13.28166676  110.81400299    0.40000001    2.69000006
   13.28472233  103.37100220    0.40000001    2.69000006
   13.28805637  110.64600372    0.41999999    2.69000006
   13.29138947  111.93800354    0.41999999    2.69000006
   13.29166698  109.81300354    0.41999999    2.67000008
   13.29500008  106.70600128    0.41999999    2.67000008
   13.29833412  105.89600372    0.41999999    2.69000006
   13.30138874  113.81400299    0.41999999    2.69000006
   13.30472279  111.69200134    0.41999999    2.69000006
   13.30777836  112.11699677    0.41999999    2.67000008
   13.31111145  100.43099976    0.41999999    2.67000008
   13.31722260  100.43099976    0.41999999    2.69000006
   13.32111073  108.88099670    0.41999999    2.69000006
   13.32444477  117.85700226    0.41999999    2.69000006
   13.32499981  107.84500122    0.41999999    2.69000006
   13.32833290  112.65799713    0.41999999    2.69000006
   13.33138847  111.17199707    0.41999999    2.69000006
   13.33472157  106.58100128    0.41999999    2.69000006
   13.33777714  119.95400238    0.47999999    2.69000006
   13.34111118  113.91300201    0.75000000    2.67000008
   13.34444427  116.20500183    0.98000002    2.67000008
   13.34749985  111.56999969    0.98000002    2.67000008
   13.35083389  114.03299713    1.01999998    2.69000006
   13.35416698  118.60800171    2.01999998    2.67000008
   13.35972214  118.60800171    2.17000008    2.66000009
   13.36388969  112.21600342    1.83000004    2.64000010
   13.36722279  111.30999756    1.53999996    2.64000010
   13.37027836  108.27300262    1.53999996    2.64000010
   13.37361145  101.48100281    1.46000004    2.61999989
   13.37694454  107.05000305    1.11000001    2.69000006
   13.38000011  112.18900299    0.80000001    2.69000006
   13.38333321  104.44100189    0.50000000    2.69000006
   13.38666630  101.00900269    0.47999999    2.69000006
   13.38972187  104.86799622    0.47999999    2.69000006
   13.39166641  111.61799622    0.44000000    2.69000006
   13.39361095  109.72699738    0.44000000    2.69000006
   13.39666653  104.67500305    0.40000001    2.69000006
   13.40249920  104.67500305    0.40000001    2.69000006
   13.40666676  113.01899719    0.40000001    2.69000006
   13.40999985   98.21410370    0.40000001    2.69000006
   13.41333294  110.83699799    0.40000001    2.69000006
   13.41638851  119.48799896    0.40000001    2.69000006
   13.41972256  109.99199677    0.40000001    2.69000006
   13.42305565  113.17400360    0.40000001    2.69000006
   13.42500019  121.74400330    0.40000001    2.69000006
   13.42666721  112.28700256    0.40000001    2.69000006
   13.42972279  101.54000092    0.40000001    2.71000004
   13.43305588  100.22799683    0.40000001    2.71000004
   13.43611145  112.13200378    0.40000001    2.71000004
   13.43944454  113.80400085    0.40000001    2.71000004
   13.44555569  113.80400085    0.40000001    2.71000004
   13.44972229  112.40899658    0.40000001    2.71000004
   13.45277786  107.05999756    0.40000001    2.69000006
   13.45611095  106.53900146    0.40000001    2.71000004
   13.45833302  104.43699646    0.40000001    2.69000006
   13.45972157  102.45700073    0.40000001    2.69000006
   13.46305561  109.53500366    0.40000001    2.69000006
   13.46611118  103.59400177    0.40000001    2.69000006
   13.46944427  104.59300232    0.40000001    2.69000006
   13.47249985  104.60399628    0.40000001    2.69000006
   13.47583294  103.01599884    0.40000001    2.69000006
   13.47916603  109.68900299    0.40000001    2.69000006
   13.48222160  119.03700256    0.40000001    2.71000004
   13.48833370  119.03700256    0.40000001    2.71000004
   13.49250031  120.45400238    0.40000001    2.71000004
   13.49555588  116.21900177    0.40000001    2.71000004
   13.49888897  121.36100006    0.40000001    2.69000006
   13.50222206  122.58999634    0.40000001    2.69000006
   13.50527763  116.06900024    0.40000001    2.71000004
   13.50861073  114.32399750    0.38000000    2.69000006
   13.51194477  108.03299713    0.40000001    2.69000006
   13.51500034  109.51499939    0.40000001    2.71000004
   13.51833344  117.44100189    0.40000001    2.71000004
   13.52138901  112.27799988    0.40000001    2.71000004
   13.52472210  106.79599762    0.40000001    2.69000006
   13.52527714  103.56400299    0.40000001    2.69000006
   13.53111076  103.56400299    0.40000001    2.71000004
   13.53527832  109.65899658    0.40000001    2.71000004
   13.53861141  116.11299896    0.40000001    2.71000004
   13.54166698  113.25199890    0.40000001    2.71000004
   13.54500008  104.75399780    0.40000001    2.71000004
   13.54833412  116.39499664    0.40000001    2.71000004
   13.55138874  113.16699982    0.40000001    2.71000004
   13.55472279  112.37300110    0.40000001    2.69000006
   13.55777836  115.80100250    0.40000001    2.69000006
   13.55861092  106.08999634    0.40000001    2.69000006
   13.56166649  109.68099976    0.40000001    2.71000004
   13.56472206  113.64299774    0.40000001    2.71000004
   13.56805515  108.89399719    0.40000001    2.71000004
   13.57416630  108.89399719    0.40000001    2.71000004
   13.57833290  108.93800354    0.40000001    2.71000004
   13.58166695  107.03199768    0.40000001    2.71000004
   13.58472157  113.06900024    0.40000001    2.71000004
   13.58805561  106.65399933    0.41999999    2.69000006
   13.59111118  105.08300018    0.41999999    2.69000006
   13.59194374  106.93800354    0.44000000    2.71000004
   13.59499931  103.17700195    0.44000000    2.71000004
   13.59805489  121.64700317    0.44000000    2.69000006
   13.60138893  113.86599731    0.41999999    2.71000004
   13.60444450  112.60500336    0.41999999    2.71000004
   13.60777855  115.58100128    0.40000001    2.71000004
   13.61111164  109.91100311    0.41999999    2.71000004
   13.61694431  109.91100311    0.40000001    2.71000004
   13.62111092  115.94499969    0.40000001    2.71000004
   13.62416649  119.41999817    0.40000001    2.71000004
   13.62527752  120.71299744    0.40000001    2.71000004
   13.62805557  125.10399628    0.40000001    2.71000004
   13.63111115  121.84899902    0.40000001    2.71000004
   13.63444424  122.56999969    0.40000001    2.71000004
   13.63777733  117.16999817    0.40000001    2.71000004
   13.64083290  116.45400238    0.40000001    2.71000004
   13.64416695  128.41700745    0.40000001    2.71000004
   13.64722252  117.45099640    0.40000001    2.71000004
   13.65055561  113.84799957    0.40000001    2.71000004
   13.65388870  120.24600220    0.40000001    2.71000004
   13.65972137  120.24600220    0.38000000    2.71000004
   13.66388893  117.35800171    0.38000000    2.71000004
   13.66694450  112.40499878    0.38000000    2.71000004
   13.67027855  117.38600159    0.38000000    2.71000004
   13.67361164  108.73600006    0.38000000    2.71000004
   13.67666721  109.84300232    0.38000000    2.71000004
   13.68000031  116.68499756    0.36000001    2.71000004
   13.68333340  116.86100006    0.36000001    2.71000004
   13.68638897  116.73600006    0.38000000    2.71000004
   13.68972206  117.74400330    0.38000000    2.71000004
   13.69194412  115.65499878    0.38000000    2.71000004
   13.69333363  129.72599792    0.36000001    2.71000004
   13.69666672  118.56500244    0.36000001    2.71000004
   13.70249939  118.56500244    0.38000000    2.73000002
   13.70666695  110.04599762    0.40000001    2.71000004
   13.71000004  121.17299652    0.38000000    2.71000004
   13.71305561  116.67099762    0.38000000    2.73000002
   13.71638870  113.95899963    0.38000000    2.71000004
   13.71972179  116.20600128    0.38000000    2.71000004
   13.72277737  118.19599915    0.38000000    2.71000004
   13.72527695  112.95200348    0.38000000    2.73000002
   13.72666645  116.58699799    0.38000000    2.73000002
   13.72972202  116.83000183    0.38000000    2.73000002
   13.73305511  111.24600220    0.36000001    2.73000002
   13.73611164  116.92900085    0.36000001    2.71000004
   13.73944473  122.55200195    0.38000000    2.71000004
   13.74555588  122.55200195    0.38000000    2.71000004
   13.74944496  119.42199707    0.38000000    2.73000002
   13.75277805  130.88200378    0.36000001    2.71000004
   13.75611115  113.65000153    0.36000001    2.73000002
   13.77361107  120.37799835    0.36000001    2.73000002
   13.77583313  125.97299957    0.36000001    2.73000002
   13.77916622  110.09200287    0.36000001    2.73000002
   13.78249931  115.50199890    0.36000001    2.73000002
   13.78833389  115.50199890    0.38000000    2.73000002
   13.79250050  117.92700195    0.38000000    2.73000002
   13.79583359  117.53199768    0.36000001    2.71000004
   13.79888916  117.01499939    0.36000001    2.73000002
   13.80222225  118.70999908    0.36000001    2.73000002
   13.80555534  118.40599823    0.36000001    2.73000002
   13.80694485  113.05500031    0.36000001    2.73000002
   13.80916691  116.53700256    0.36000001    2.73000002
   13.81250000  112.42400360    0.38000000    2.73000002
   13.81583309  117.35099792    0.38000000    2.73000002
   13.81888866  109.63700104    0.36000001    2.73000002
   13.82222176  115.22399902    0.38000000    2.71000004
   13.82527733  115.66400146    0.38000000    2.71000004
   13.83138847  115.66400146    0.38000000    2.73000002
   13.83527756  114.76000214    0.38000000    2.73000002
   13.83861065  112.64800262    0.38000000    2.73000002
   13.84027767  113.09300232    0.38000000    2.73000002
   13.84222221  111.10199738    0.38000000    2.71000004
   13.84555531  116.69699860    0.38000000    2.71000004
   13.84861088  113.45500183    0.38000000    2.71000004
   13.85194492  119.21299744    0.38000000    2.71000004
   13.85527802  122.57299805    0.40000001    2.73000002
   13.85833359  114.93900299    0.40000001    2.73000002
   13.86166668  120.48600006    0.38000000    2.71000004
   13.86500072  124.33000183    0.38000000    2.73000002
   13.86805534  113.75099945    0.38000000    2.73000002
   13.87416649  113.75099945    0.38000000    2.73000002
   13.87833309  117.24299622    0.38000000    2.73000002
   13.88138866  113.84899902    0.38000000    2.73000002
   13.88472176  123.33200073    0.38000000    2.73000002
   13.88777733  107.00199890    0.38000000    2.71000004
   13.89111137  113.37300110    0.40000001    2.73000002
   13.89444447  115.92700195    0.38000000    2.73000002
   13.89750004  107.19599915    0.38000000    2.73000002
   13.90083313  114.50599670    0.38000000    2.75000000
   13.90416622  115.34300232    0.38000000    2.73000002
   13.90694427  118.36699677    0.38000000    2.73000002
   13.90749931  110.88899994    0.38000000    2.73000002
   13.91083336  111.02600098    0.36000001    2.73000002
   13.91694450  111.02600098    0.36000001    2.73000002
   13.92111111  113.98000336    0.36000001    2.73000002
   13.92416668  122.39900208    0.38000000    2.73000002
   13.92750072  120.99400330    0.38000000    2.73000002
   13.93083382  123.21700287    0.36000001    2.73000002
   13.93388939  123.61900330    0.36000001    2.75000000
   13.93722248  117.24299622    0.36000001    2.71000004
   13.94027805  116.87300110    0.36000001    2.75000000
   13.94083309  116.50800323    0.36000001    2.73000002
   13.94416714  113.90399933    0.36000001    2.73000002
   13.94722271  112.28900146    0.38000000    2.73000002
   13.95055580  120.65699768    0.36000001    2.73000002
   13.95388889  118.00199890    0.36000001    2.75000000
   13.95972157  118.00199890    0.36000001    2.73000002
   13.96388912  122.37300110    0.36000001    2.73000002
   13.96722221  125.47100067    0.36000001    2.75000000
   13.97027779  116.64700317    0.36000001    2.73000002
   13.97361088  125.18499756    0.38000000    2.75000000
   13.97388840  114.35600281    0.38000000    2.75000000
   13.97722149  121.30799866    0.38000000    2.75000000
   13.98055553  130.55799866    0.36000001    2.75000000
   13.98361111  118.75599670    0.36000001    2.73000002
   13.98694515  120.60399628    0.36000001    2.73000002
   13.99027824  116.47100067    0.36000001    2.73000002
   13.99333382  121.42500305    0.36000001    2.73000002
   13.99666691  120.47899628    0.36000001    2.73000002
   14.00249958  120.47899628    0.36000001    2.73000002
   14.00666714  117.28199768    0.36000001    2.75000000
   14.00722218  124.87999725    0.36000001    2.75000000
   14.01055527  117.59899902    0.38000000    2.75000000
   14.01361084  120.07800293    0.36000001    2.75000000
   14.01694393  116.51200104    0.36000001    2.73000002
   14.02027798  119.07299805    0.36000001    2.75000000
   14.02333355  116.38099670    0.36000001    2.73000002
   14.02666664  117.14299774    0.36000001    2.73000002
   14.02972221  118.41799927    0.36000001    2.73000002
   14.03305531  119.79799652    0.38000000    2.73000002
   14.03638935  115.12400055    0.36000001    2.75000000
   14.03972244  112.63200378    0.38000000    2.75000000
   14.04055595  112.91600037    0.38000000    2.75000000
   14.04555607  112.91600037    0.40000001    2.75000000
   14.04972267  124.30000305    0.44000000    2.73000002
   14.05277824  116.79399872    0.55000001    2.73000002
   14.05611134  123.47000122    0.51999998    2.73000002
   14.05944443  113.36900330    0.51999998    2.73000002
   14.06250000  116.92500305    0.46000001    2.73000002
   14.06583309  112.93800354    0.44000000    2.75000000
   14.06888866  116.64600372    0.44000000    2.75000000
   14.07222176  116.16200256    0.44000000    2.75000000
   14.07388878  115.50000000    0.40000001    2.73000002
   14.07583332  116.98000336    0.40000001    2.73000002
   14.07888889  113.01100159    0.36000001    2.75000000
   14.08222198  110.55999756    0.34000000    2.75000000
   14.08833313  110.55999756    0.34000000    2.75000000
   14.09249973  125.43499756    0.34000000    2.75000000
   14.09555531  115.74600220    0.34000000    2.75000000
   14.09888840  116.72000122    0.36000001    2.75000000
   14.10222244  118.68599701    0.36000001    2.73000002
   14.10527802  119.48300171    0.38000000    2.73000002
   14.10722256  119.60399628    0.36000001    2.75000000
   14.10916710  125.42400360    0.36000001    2.75000000
   14.11222267  120.38200378    0.38000000    2.75000000
   14.11555576  120.88500214    0.36000001    2.75000000
   14.11888885  119.60800171    0.38000000    2.75000000
   14.12194443  119.28099823    0.38000000    2.75000000
   14.12527752  115.49299622    0.36000001    2.75000000
   14.13111115  115.49299622    0.36000001    2.73000002
   14.13527775  117.87300110    0.40000001    2.73000002
   14.13861084  112.34200287    0.46000001    2.75000000
   14.14055538  110.05100250    0.46000001    2.75000000
   14.14222240  114.23899841    0.41999999    2.75000000
   14.14555550  113.92900085    0.41999999    2.75000000
   14.14861107  120.15499878    0.41999999    2.75000000
   14.15194416  111.69200134    0.41999999    2.75000000
   14.15499973  109.61699677    0.38000000    2.75000000
   14.15833282  119.04799652    0.36000001    2.75000000
   14.16166592  118.44899750    0.36000001    2.75000000
   14.16472149  118.78099823    0.36000001    2.75000000
   14.16805553  113.09200287    0.36000001    2.75000000
   14.17388916  113.09200287    0.40000001    2.75000000
   14.17805576  116.40299988    0.38000000    2.75000000
   14.18138885  114.97200012    0.38000000    2.75000000
   14.18472195  117.06600189    0.36000001    2.75000000
   14.18777752  121.91300201    0.38000000    2.73000002
   14.19111156  112.16300201    0.40000001    2.73000002
   14.19416714  116.62799835    0.40000001    2.75000000
   14.19750023  115.30599976    0.41999999    2.73000002
   14.20083332  112.49299622    0.47999999    2.73000002
   14.20388889  111.40599823    0.47999999    2.73000002
   14.20722198  118.47799683    0.80000001    2.75000000
   14.20777798  116.19599915    0.81999999    2.75000000
   14.21083355  111.66400146    0.75000000    2.73000002
   14.21694374  111.66400146    0.73000002    2.73000002
   14.22111034  118.84500122    0.73000002    2.75000000
   14.22416592  112.59799957    0.75000000    2.73000002
   14.22749996  113.28299713    0.64999998    2.73000002
   14.23055553  112.43499756    0.46000001    2.75000000
   14.23388958  115.87500000    0.40000001    2.75000000
   14.23722267  125.16699982    0.40000001    2.75000000
   14.24027824  117.79499817    0.40000001    2.75000000
   14.24111176  113.62899780    0.40000001    2.75000000
   14.24416733  116.20700073    0.38000000    2.75000000
   14.24722290  125.30599976    0.36000001    2.75000000
   14.25055599  123.74400330    0.36000001    2.75000000
   14.25361156  113.04299927    0.38000000    2.75000000
   14.25972176  113.04299927    0.38000000    2.76999998
   14.26388931  119.68599701    0.38000000    2.75000000
   14.26694393  116.33200073    0.38000000    2.75000000
   14.27027798  113.61000061    0.38000000    2.75000000
   14.27361107  107.06999969    0.38000000    2.75000000
   14.27444458  103.59899902    0.38000000    2.75000000
   14.27694416  107.89900208    0.38000000    2.75000000
   14.28027725  112.47100067    0.38000000    2.75000000
   14.28361130  109.27799988    0.38000000    2.75000000
   14.28666687  114.06099701    0.40000001    2.75000000
   14.29000092  115.33699799    0.40000001    2.73000002
   14.29305553  114.23000336    0.38000000    2.75000000
   14.29638958  107.98899841    0.38000000    2.75000000
   14.30249977  107.98899841    0.38000000    2.75000000
   14.30666733  111.87899780    0.38000000    2.75000000
   14.30777836  115.60399628    0.36000001    2.75000000
   14.31027794  112.20099640    0.36000001    2.75000000
   14.31361103  114.86000061    0.36000001    2.73000002
   14.31694412  115.55400085    0.36000001    2.75000000
   14.31999969  113.69000244    0.36000001    2.75000000
   14.32333374  117.66799927    0.36000001    2.75000000
   14.32666683  119.46499634    0.36000001    2.75000000
   14.32972240  117.49199677    0.36000001    2.75000000
   14.33305550  122.44499969    0.36000001    2.75000000
   14.33611107  114.50099945    0.36000001    2.76999998
   14.33944416  114.67800140    0.36000001    2.75000000
   14.34111118  110.23100281    0.36000001    2.75000000
   14.34527779  110.23100281    0.36000001    2.75000000
   14.34944439  106.55100250    0.36000001    2.75000000
   14.35277843  111.98300171    0.36000001    2.75000000
   14.35611153  118.41300201    0.36000001    2.76999998
   14.35916710  114.08499908    0.36000001    2.75000000
   14.36250019  115.20200348    0.38000000    2.75000000
   14.36583328  114.38500214    0.38000000    2.75000000
   14.36888885  119.66799927    0.36000001    2.75000000
   14.37222195  107.53399658    0.36000001    2.75000000
   14.37444496  116.92800140    0.36000001    2.75000000
   14.37555599  110.53500366    0.36000001    2.75000000
   14.37888908  113.70400238    0.36000001    2.75000000
   14.38222218  116.37400055    0.38000000    2.75000000
   14.38833332  116.37400055    0.38000000    2.75000000
   14.39249992  119.68499756    0.38000000    2.75000000
   14.39555550  118.49500275    0.36000001    2.76999998
   14.39888859  112.90899658    0.36000001    2.75000000
   14.40222168  119.47100067    0.36000001    2.75000000
   14.40527725  118.35299683    0.38000000    2.78999996
   14.40777779  120.84200287    0.36000001    2.75000000
   14.40888882  117.02799988    0.36000001    2.75000000
   14.41222191  123.72799683    0.36000001    2.75000000
   14.41555500  122.37599945    0.36000001    2.76999998
   14.41888905  113.34700012    0.36000001    2.75000000
   14.42194462  105.87300110    0.38000000    2.75000000
   14.42527771  128.18200684    0.38000000    2.75000000
   14.43111134  128.18200684    0.38000000    2.75000000
   14.43527794  116.45500183    0.36000001    2.75000000
   14.43833351  120.72000122    0.36000001    2.75000000
   14.44111156  112.67199707    0.36000001    2.75000000
   14.44194412  119.04799652    0.36000001    2.75000000
   14.44527817  121.37400055    0.36000001    2.75000000
   14.44861126  120.20600128    0.36000001    2.76999998
   14.45166683  113.86699677    0.36000001    2.76999998
   14.45499992  115.86699677    0.36000001    2.75000000
   14.45833302  116.61599731    0.38000000    2.76999998
   14.46138859  117.56900024    0.38000000    2.75000000
   14.46472168  122.12999725    0.38000000    2.75000000
   14.46805477  113.66500092    0.38000000    2.75000000
   14.47388840  113.66500092    0.38000000    2.76999998
   14.47805500  117.17199707    0.38000000    2.76999998
   14.48138809  107.80699921    0.38000000    2.75000000
   14.48444462  116.59500122    0.38000000    2.75000000
   14.48777771  124.42800140    0.38000000    2.75000000
   14.49111176  120.31800079    0.40000001    2.75000000
   14.49416733  103.59500122    0.40000001    2.76999998
   14.49750042  112.42700195    0.40000001    2.76999998
   14.50055599  117.64199829    0.40000001    2.76999998
   14.50388908  118.02600098    0.40000001    2.75000000
   14.50722218  108.77899933    0.40000001    2.75000000
   14.50888920  112.10800171    0.40000001    2.75000000
   14.51083374  110.69000244    0.40000001    2.75000000
   14.51666641  110.69000244    0.40000001    2.76999998
   14.52083302  110.28099823    0.40000001    2.75000000
   14.52416611  118.07900238    0.40000001    2.75000000
   14.52722168  117.68099976    0.40000001    2.75000000
   14.53055573  113.97499847    0.40000001    2.75000000
   14.53388977  120.68800354    0.40000001    2.76999998
   14.53694534  113.85800171    0.40000001    2.75000000
   14.54027843  111.88200378    0.40000001    2.75000000
   14.54222298  112.39499664    0.40000001    2.75000000
   14.54388905  114.06600189    0.40000001    2.76999998
   14.54694462  114.72499847    0.40000001    2.76999998
   14.55027771  105.30300140    0.40000001    2.76999998
   14.55361176  109.72599792    0.40000001    2.76999998
   14.55972195  109.72599792    0.40000001    2.76999998
   14.56388950   99.81479645    0.40000001    2.76999998
   14.56694412  107.86299896    0.40000001    2.76999998
   14.57027817  104.80599976    0.40000001    2.75000000
   14.57333374  107.95500183    0.40000001    2.75000000
   14.57583332  105.30300140    0.40000001    2.75000000
   14.57722187  112.09500122    0.40000001    2.76999998
   14.58027744   99.50330353    0.40000001    2.78999996
   14.58361053  107.73899841    0.40000001    2.75000000
   14.58694458  106.13600159    0.40000001    2.75000000
   14.59000015  106.30500031    0.38000000    2.75000000
   14.59333324  106.41500092    0.40000001    2.76999998
   14.59666634  106.52700043    0.40000001    2.76999998
   14.60249996  106.52700043    0.38000000    2.76999998
   14.60666752  107.58300018    0.38000000    2.75000000
   14.60916710  124.07700348    0.38000000    2.75000000
   14.61027813  116.77899933    0.38000000    2.75000000
   14.61333370  114.20300293    0.38000000    2.76999998
   14.61666679  115.74099731    0.38000000    2.76999998
   14.61999989  108.20400238    0.38000000    2.76999998
   14.62305546  109.28500366    0.38000000    2.76999998
   14.62638855  114.43399811    0.38000000    2.76999998
   14.62944412  116.88899994    0.38000000    2.76999998
   14.63277817  122.29599762    0.38000000    2.76999998
   14.63611126  118.21800232    0.38000000    2.76999998
   14.63916683  110.72599792    0.38000000    2.76999998
   14.64527798  110.72599792    0.38000000    2.76999998
   14.64944458  107.72699738    0.38000000    2.76999998
   14.65277767  106.62500000    0.38000000    2.76999998
   14.65583324  105.07399750    0.38000000    2.76999998
   14.65916634  108.36000061    0.40000001    2.76999998
   14.66249943  104.45099640    0.38000000    2.76999998
   14.66583252  105.59200287    0.40000001    2.76999998
   14.66888905  107.02500153    0.38000000    2.76999998
   14.67222214  103.42600250    0.40000001    2.76999998
   14.67555618  107.87200165    0.40000001    2.76999998
   14.67611122  109.20600128    0.40000001    2.76999998
   14.67888927  114.06500244    0.40000001    2.76999998
   14.68222237  105.52799988    0.40000001    2.76999998
   14.68805599  105.52799988    0.40000001    2.76999998
   14.69222260  106.00299835    0.40000001    2.76999998
   14.69555569  111.58599854    0.40000001    2.76999998
   14.69888878  110.80400085    0.40000001    2.76999998
   14.70222187  108.55999756    0.40000001    2.75000000
   14.70527744  109.27899933    0.40000001    2.75000000
   14.70861053  108.56999969    0.40000001    2.75000000
   14.70972157  117.23300171    0.40000001    2.76999998
   14.71222210  113.95999908    0.40000001    2.76999998
   14.71555519  116.40000153    0.40000001    2.75000000
   14.71861076  110.55300140    0.40000001    2.76999998
   14.72194386  106.61399841    0.40000001    2.75000000
   14.72527695  123.22499847    0.40000001    2.78999996
   14.73111057  123.22499847    0.40000001    2.76999998
   14.73527813  112.18299866    0.41999999    2.76999998
   14.73833370  120.31900024    0.41999999    2.76999998
   14.74166679  117.37000275    0.41999999    2.76999998
   14.74305534  102.11699677    0.46000001    2.76999998
   14.74527836  109.63200378    0.46000001    2.76999998
   14.74861145  123.00199890    0.46000001    2.76999998
   14.75166702  106.13300323    0.46000001    2.78999996
   14.75500011  105.55699921    0.46000001    2.76999998
   14.75805569  108.96299744    0.44000000    2.76999998
   14.76138878  105.89199829    0.44000000    2.75000000
   14.76472187  110.26799774    0.44000000    2.75000000
   14.76777744  114.43499756    0.44000000    2.76999998
   14.77416611  114.43499756    0.44000000    2.76999998
   14.79250050  110.33899689    0.46000001    2.76999998
   14.79555607  115.52999878    0.50000000    2.76999998
   14.79888916  114.77500153    0.50000000    2.76999998
   14.80222225  109.54699707    0.50000000    2.76999998
   14.80527782  109.56099701    0.50000000    2.76999998
   14.80861092  105.56999969    0.51999998    2.76999998
   14.81194496  114.78700256    0.51999998    2.76999998
   14.81666660  114.78700256    0.51999998    2.76999998
   14.82083321  115.84700012    0.51999998    2.76999998
   14.82416630  113.45500183    0.51999998    2.76999998
   14.82555580  115.16100311    0.51999998    2.76999998
   14.82777786  108.27300262    0.50000000    2.76999998
   14.83111095  111.73799896    0.47999999    2.76999998
   14.83444405  107.77999878    0.47999999    2.76999998
   14.83749962  108.90499878    0.46000001    2.76999998
   14.84083271  110.53900146    0.46000001    2.76999998
   14.84416676  110.33399963    0.46000001    2.76999998
   14.84722233  112.10299683    0.46000001    2.76999998
   14.85055637  110.60299683    0.46000001    2.78999996
   14.85361195  106.23799896    0.46000001    2.78999996
   14.85972214  106.23799896    0.46000001    2.76999998
   14.86388969  105.35900116    0.46000001    2.78999996
   14.86694431  104.40200043    0.46000001    2.76999998
   14.87027836  115.55899811    0.44000000    2.76999998
   14.87361145  106.94200134    0.46000001    2.78999996
   14.87666702  109.69999695    0.46000001    2.78999996
   14.88000011  116.18900299    0.44000000    2.76999998
   14.88305569  115.60700226    0.44000000    2.76999998
   14.88638878  114.73500061    0.44000000    2.76999998
   14.88972187  107.95300293    0.44000000    2.76999998
   14.89222240  116.19799805    0.44000000    2.76999998
   14.89305496  117.79100037    0.46000001    2.76999998
   14.89638901  119.35800171    0.46000001    2.76999998
   14.90249920  119.35800171    0.46000001    2.76999998
   14.90666676  112.16999817    0.47999999    2.78999996
   14.90999985  114.77200317    0.46000001    2.76999998
   14.91305542  110.34999847    0.46000001    2.76999998
   14.91638851  111.47499847    0.46000001    2.76999998
   14.91944504  107.36299896    0.46000001    2.78999996
   14.92277813  112.64800262    0.47999999    2.78999996
   14.92555618  108.51000214    0.47999999    2.78999996
   14.92638874  105.08399963    0.47999999    2.78999996
   14.92972279  108.83100128    0.47999999    2.78999996
   14.93305588  118.49700165    0.47999999    2.78999996
   14.93611145  116.74600220    0.47999999    2.78999996
   14.93944454  101.43099976    0.46000001    2.76999998
   14.94527817  101.43099976    0.44000000    2.78999996
   14.94944477  111.03800201    0.41999999    2.76999998
   14.95277786  115.14700317    0.41999999    2.76999998
   14.95583344  111.60800171    0.40000001    2.78999996
   14.95888901  111.55300140    0.41999999    2.78999996
   14.95944405  105.58399963    0.41999999    2.78999996
   14.96277714  105.09400177    0.41999999    2.78999996
   14.96611118  109.34100342    0.40000001    2.76999998
   14.96916580  112.31300354    0.40000001    2.76999998
   14.97249985  104.93399811    0.40000001    2.78999996
   14.97555542  109.10600281    0.40000001    2.78999996
   14.97888851  111.26699829    0.38000000    2.76999998
   14.98222160  113.92400360    0.38000000    2.76999998
   14.98833370  113.92400360    0.38000000    2.78999996
   14.99222279  110.75900269    0.36000001    2.76999998
   14.99555588  116.38500214    0.36000001    2.78999996
   14.99888897  110.65699768    0.36000001    2.78999996
   15.00194454  115.24400330    0.38000000    2.76999998
   15.00527763  112.49400330    0.36000001    2.78999996
   15.00861073  113.69799805    0.36000001    2.76999998
   15.01166630  109.25099945    0.36000001    2.76999998
   15.01500034  116.73899841    0.36000001    2.78999996
   15.01805496  115.06400299    0.36000001    2.78999996
   15.02138901  109.82900238    0.36000001    2.78999996
   15.02472210  115.22399902    0.34000000    2.78999996
   15.02555561  110.21700287    0.36000001    2.78999996
   15.03111076  110.21700287    0.34000000    2.78999996
   15.03527832  113.32199860    0.36000001    2.78999996
   15.03833389  112.31500244    0.34000000    2.78999996
   15.04166698  112.66999817    0.34000000    2.76999998
   15.04472256  111.00000000    0.34000000    2.78999996
   15.04805565  108.81500244    0.34000000    2.78999996
   15.05138874  104.73200226    0.34000000    2.76999998
   15.05444431  117.42500305    0.34000000    2.78999996
   15.05777836  114.05500031    0.31999999    2.78999996
   15.05888939  105.97299957    0.31999999    2.78999996
   15.06138897  108.97100067    0.31999999    2.78999996
   15.06472206  105.58200073    0.34000000    2.78999996
   15.06805515  112.03800201    0.31999999    2.78999996
   15.07388878  112.03800201    0.31999999    2.78999996
   15.07805538  111.77700043    0.34000000    2.76999998
   15.08111095  115.10900116    0.34000000    2.78999996
   15.08444405  112.79499817    0.34000000    2.78999996
   15.08777714  103.56600189    0.34000000    2.78999996
   15.09083271  103.67500305    0.34000000    2.78999996
   15.09222221  106.93499756    0.34000000    2.78999996
   15.09472179  104.56700134    0.34000000    2.78999996
   15.09805489  109.76599884    0.34000000    2.78999996
   15.10111141  112.66699982    0.34000000    2.78999996
   15.10444450  103.05200195    0.34000000    2.78999996
   15.10750008  104.46099854    0.34000000    2.78999996
   15.11083412  118.54499817    0.34000000    2.78999996
   15.11666679  118.54499817    0.36000001    2.78999996
   15.12083340  112.07499695    0.34000000    2.78999996
   15.12416649  117.51899719    0.34000000    2.78999996
   15.12555599  111.47200012    0.34000000    2.78999996
   15.12750053  114.84300232    0.34000000    2.78999996
   15.13083363  115.87699890    0.34000000    2.78999996
   15.13416672  108.46199799    0.34000000    2.78999996
   15.13722229  110.62799835    0.34000000    2.78999996
   15.23944473   -1.00000000   -1.00000000   -1.00000000
   15.38277817   -1.00000000   -1.00000000   -1.00000000
   15.71166611   -1.00000000   -1.00000000   -1.00000000
   15.81277752   76.54969788    0.31999999    2.80999994
   15.81611156  117.65799713    0.31999999    2.80999994
   15.81916618  109.68099976    0.30000001    2.78999996
   15.82250023  115.70700073    0.30000001    2.80999994
   15.82583332  123.86000061    0.30000001    2.78999996
   15.82888889  112.75800323    0.30000001    2.80999994
   15.83305550  112.75800323    0.31999999    2.80999994
   15.83722210  114.33000183    0.30000001    2.78999996
   15.84055519  119.92400360    0.31999999    2.78999996
   15.84361076  112.96399689    0.31999999    2.78999996
   15.84611034  113.18499756    0.30000001    2.80999994
   15.84722233  111.96700287    0.30000001    2.80999994
   15.85027790  121.37500000    0.30000001    2.80999994
   15.85361195  104.23400116    0.30000001    2.78999996
   15.85694504  103.71099854    0.30000001    2.80999994
   15.86000061  104.86499786    0.31999999    2.78999996
   15.86333370  103.38400269    0.30000001    2.80999994
   15.86666679  110.23500061    0.30000001    2.80999994
   15.86972237  105.62599945    0.30000001    2.78999996
   15.87583351  105.62599945    0.30000001    2.80999994
   15.88000011  108.62300110    0.30000001    2.80999994
   15.88333321  105.01100159    0.30000001    2.80999994
   15.88666630  111.13899994    0.30000001    2.78999996
   15.88972187  112.29000092    0.30000001    2.78999996
   15.89305496  107.10800171    0.30000001    2.80999994
   15.89611053  111.50199890    0.30000001    2.80999994
   15.89944458  109.50900269    0.30000001    2.80999994
   15.90277767  111.31900024    0.30000001    2.78999996
   15.90583324  111.76100159    0.30000001    2.80999994
   15.90916634  114.85500336    0.30000001    2.80999994
   15.91249943  107.91600037    0.30000001    2.80999994
   15.91277695  114.67299652    0.30000001    2.80999994
   15.91888905  114.67299652    0.30000001    2.78999996
   15.92305565  110.48899841    0.30000001    2.80999994
   15.92611122  116.74500275    0.30000001    2.80999994
   15.92944431  118.13600159    0.30000001    2.80999994
   15.93277836  107.65499878    0.30000001    2.80999994
   15.93583298  104.06800079    0.31999999    2.78999996
   15.93916702  121.60700226    0.31999999    2.80999994
   15.94222260  118.19300079    0.31999999    2.80999994
   15.94555569  110.32099915    0.30000001    2.80999994
   15.94611073  110.69799805    0.30000001    2.80999994
   15.94916630  115.02600098    0.31999999    2.80999994
   15.95249939  114.60800171    0.31999999    2.80999994
   15.95555496  116.39299774    0.30000001    2.80999994
   15.96166611  116.39299774    0.30000001    2.80999994
   15.96583271  111.01200104    0.30000001    2.80999994
   15.96916580  111.28800201    0.30000001    2.80999994
   15.97222137  116.49400330    0.30000001    2.80999994
   15.97555542  113.98400116    0.31999999    2.80999994
   15.97861099  110.68199921    0.30000001    2.80999994
   15.97944355  109.69799805    0.30000001    2.80999994
   15.98222160  116.86000061    0.30000001    2.80999994
   15.98555565  114.21900177    0.30000001    2.80999994
   15.98861122  114.19000244    0.30000001    2.80999994
   15.99194431  115.04699707    0.30000001    2.80999994
   15.99527836  109.00700378    0.30000001    2.80999994
   15.99833393  107.56900024    0.30000001    2.80999994
   16.00444412  107.56900024    0.30000001    2.78999996
   16.00861168  113.23500061    0.31999999    2.80999994
   16.01194382  119.43800354    0.30000001    2.82999992
   16.01305580  108.84400177    0.30000001    2.82999992
   16.01583290  116.50199890    0.30000001    2.80999994
   16.01888847  114.04299927    0.30000001    2.80999994
   16.02222252  115.19000244    0.30000001    2.80999994
   16.02555466  115.09300232    0.31999999    2.80999994
   16.02861023   97.66149902    0.30000001    2.80999994
   16.03194427  112.03800201    0.30000001    2.80999994
   16.03527641  107.15200043    0.30000001    2.80999994
   16.03833199  114.31600189    0.30000001    2.78999996
   16.04166603  107.54499817    0.30000001    2.80999994
   16.04722214  107.54499817    0.30000001    2.80999994
   16.05138779  116.65599823    0.30000001    2.80999994
   16.05472183  122.00399780    0.30000001    2.80999994
   16.05805397  101.68099976    0.30000001    2.82999992
   16.06138802  112.11399841    0.30000001    2.82999992
   16.06444359  107.29900360    0.30000001    2.82999992
   16.06777954  113.16400146    0.30000001    2.80999994
   16.07111168  119.03800201    0.30000001    2.80999994
   16.07416725  101.04900360    0.30000001    2.80999994
   16.07750130  104.77999878    0.30000001    2.80999994
   16.07944489  111.71199799    0.30000001    2.80999994
   16.08111191  112.03800201    0.30000001    2.80999994
   16.08444595  109.60800171    0.30000001    2.80999994
   16.09027863  109.60800171    0.30000001    2.80999994
   16.09444427  116.76100159    0.30000001    2.78999996
   16.09749985  125.87200165    0.31999999    2.80999994
   16.10083389  115.44499969    0.31999999    2.80999994
   16.10388947  112.89499664    0.31999999    2.80999994
   16.10722351  108.54399872    0.31999999    2.78999996
   16.11055565  111.18099976    0.31999999    2.80999994
   16.11277771  107.21399689    0.31999999    2.80999994
   16.11416626  102.65499878    0.31999999    2.80999994
   16.11750031  104.51000214    0.31999999    2.80999994
   16.12055588  109.07499695    0.31999999    2.80999994
   16.12388992  109.51399994    0.34000000    2.78999996
   16.12722206  111.91000366    0.34000000    2.80999994
   16.13333321  111.91000366    0.31999999    2.82999992
   16.13750076  108.41699982    0.31999999    2.80999994
   16.14083290  114.94799805    0.34000000    2.78999996
   16.14388847  112.79900360    0.31999999    2.78999996
   16.14611053  114.26000214    0.31999999    2.80999994
   16.14749908  112.73200226    0.31999999    2.80999994
   16.15083313  108.31600189    0.31999999    2.78999996
   16.15388870  113.05400085    0.31999999    2.80999994
   16.15722275  113.97000122    0.31999999    2.80999994
   16.16055489  110.91100311    0.31999999    2.80999994
   16.16361046  115.83100128    0.31999999    2.80999994
   16.16694450  109.21499634    0.31999999    2.80999994
   16.17027664  112.06900024    0.31999999    2.82999992
   16.17583275  112.06900024    0.31999999    2.78999996
   16.18000031  111.43599701    0.31999999    2.80999994
   16.18333244  112.01100159    0.31999999    2.80999994
   16.18638802  104.57299805    0.31999999    2.80999994
   16.18972206  105.74600220    0.31999999    2.80999994
   16.19305420  107.14199829    0.31999999    2.80999994
   16.19610977  109.35399628    0.31999999    2.80999994
   16.19944382  103.08999634    0.31999999    2.78999996
   16.20250130   98.25969696    0.31999999    2.78999996
   16.20583344  107.10800171    0.31999999    2.80999994
   16.20916748  103.87699890    0.31999999    2.80999994
   16.21222305  105.30699921    0.31999999    2.80999994
   16.21277809  112.18699646    0.31999999    2.80999994
   16.21861076  112.18699646    0.31999999    2.80999994
   16.22277832  103.93000031    0.31999999    2.80999994
   16.22611237  111.01200104    0.31999999    2.80999994
   16.22944450  107.32700348    0.31999999    2.80999994
   16.23250008  108.90000153    0.31999999    2.80999994
   16.23583412  107.82599640    0.34000000    2.80999994
   16.23916626  106.07800293    0.34000000    2.80999994
   16.24222183  107.63500214    0.36000001    2.78999996
   16.24555588  101.62300110    0.36000001    2.78999996
   16.24611092  103.26399994    0.34000000    2.80999994
   16.24916649   97.86840057    0.34000000    2.80999994
   16.25250053  112.04399872    0.34000000    2.80999994
   16.25555611  101.72599792    0.34000000    2.80999994
   16.26166725  101.72599792    0.34000000    2.80999994
   16.26583290   99.56490326    0.34000000    2.80999994
   16.26888847   98.84390259    0.34000000    2.80999994
   16.27222252  110.06300354    0.34000000    2.80999994
   16.27527809   95.55500031    0.34000000    2.80999994
   16.27861023  108.05799866    0.34000000    2.80999994
   16.27944374  108.52400208    0.34000000    2.80999994
   16.28222275  111.73100281    0.34000000    2.80999994
   16.28555489  107.70600128    0.34000000    2.78999996
   16.28861046  107.67700195    0.34000000    2.80999994
   16.29194450  110.95300293    0.34000000    2.80999994
   16.29527664  103.74400330    0.34000000    2.80999994
   16.29833221   98.33399963    0.34000000    2.82999992
   16.30444336   98.33399963    0.34000000    2.78999996
   16.30861092  110.60399628    0.36000001    2.80999994
   16.31166649  104.98400116    0.34000000    2.80999994
   16.31305504   99.78559875    0.34000000    2.80999994
   16.31527710  103.83899689    0.34000000    2.80999994
   16.31861115  111.11799622    0.34000000    2.80999994
   16.32166672  103.80100250    0.34000000    2.78999996
   16.32500076  109.45200348    0.34000000    2.80999994
   16.32833481  104.60299683    0.34000000    2.80999994
   16.33139038  101.33899689    0.34000000    2.80999994
   16.33472252  103.08599854    0.34000000    2.82999992
   16.33805656  107.58599854    0.34000000    2.82999992
   16.34111214  102.92199707    0.34000000    2.80999994
   16.34722328  102.92199707    0.34000000    2.80999994
   16.35138893  105.78900146    0.34000000    2.80999994
   16.35472298  106.04100037    0.31999999    2.80999994
   16.35777855  105.40299988    0.31999999    2.80999994
   16.36111069  106.35900116    0.31999999    2.78999996
   16.36444473  106.06999969    0.31999999    2.80999994
   16.36750031  105.14700317    0.31999999    2.80999994
   16.37083435  109.92400360    0.31999999    2.82999992
   16.37388992  111.52700043    0.31999999    2.80999994
   16.37722206  104.34899902    0.31999999    2.80999994
   16.37972260   98.50830078    0.31999999    2.80999994
   16.38083267  103.57399750    0.31999999    2.80999994
   16.38416672  103.24700165    0.31999999    2.80999994
   16.38999939  103.24700165    0.31999999    2.80999994
   16.39416695  108.44200134    0.31999999    2.80999994
   16.39749908  106.14399719    0.31999999    2.80999994
   16.40083313   98.42070007    0.31999999    2.80999994
   16.40388870   99.59210205    0.31999999    2.80999994
   16.40722275  112.66100311    0.31999999    2.80999994
   16.41055489  109.99600220    0.31999999    2.80999994
   16.41305542  106.97000122    0.31999999    2.80999994
   16.41388893  105.75599670    0.31999999    2.80999994
   16.41722107  117.25700378    0.31999999    2.80999994
   16.42027664   98.17980194    0.31999999    2.80999994
   16.42361069  106.73899841    0.31999999    2.80999994
   16.42694473   94.08769989    0.34000000    2.80999994
   16.43305397   94.08769989    0.31999999    2.80999994
   16.43722153  108.71199799    0.34000000    2.80999994
   16.44027710  109.14299774    0.34000000    2.80999994
   16.44361115   88.89769745    0.34000000    2.80999994
   16.44638824  106.82199860    0.34000000    2.80999994
   16.44722176  106.38099670    0.34000000    2.80999994
   16.45055580  113.45500183    0.34000000    2.80999994
   16.45388985  105.73300171    0.34000000    2.80999994
   16.45694542  105.40699768    0.34000000    2.80999994
   16.46027946  116.08499908    0.34000000    2.80999994
   16.46333504   92.49669647    0.34000000    2.82999992
   16.46666718  104.80999756    0.34000000    2.80999994
   16.47000122  104.33300018    0.34000000    2.80999994
   16.47583389  104.33300018    0.34000000    2.80999994
   16.48000145  106.30000305    0.34000000    2.80999994
   16.48305511   97.84239960    0.34000000    2.80999994
   16.48638916  109.23799896    0.34000000    2.80999994
   16.48972321   95.49520111    0.34000000    2.80999994
   16.49277878  111.69499969    0.31999999    2.80999994
   16.49611092  106.34500122    0.31999999    2.80999994
   16.49944496  106.14900208    0.31999999    2.80999994
   16.50250053  104.25599670    0.31999999    2.80999994
   16.50583267  107.87799835    0.31999999    2.80999994
   16.50916672  115.53700256    0.34000000    2.80999994
   16.51250076  109.10199738    0.31999999    2.80999994
   16.51305580  113.50000000    0.31999999    2.80999994
   16.51861000  113.50000000    0.31999999    2.80999994
   16.52277756  111.83599854    0.34000000    2.80999994
   16.52611160  107.91999817    0.34000000    2.80999994
   16.52916718  111.27899933    0.34000000    2.82999992
   16.53249931  113.19999695    0.31999999    2.80999994
   16.53583336  107.04199982    0.31999999    2.80999994
   16.53888893  101.79699707    0.31999999    2.80999994
   16.54222107  112.41600037    0.31999999    2.80999994
   16.54527664  113.01000214    0.31999999    2.78999996
   16.54638863  110.24600220    0.31999999    2.78999996
   16.54888916  111.99500275    0.34000000    2.80999994
   16.55222130  110.95400238    0.31999999    2.80999994
   16.55555534  112.91000366    0.34000000    2.80999994
   16.56138802  112.91000366    0.34000000    2.80999994
   16.56555557  113.91100311    0.31999999    2.80999994
   16.56888962  118.25299835    0.34000000    2.80999994
   16.57222366  112.77899933    0.31999999    2.80999994
   16.57527924  116.03900146    0.31999999    2.80999994
   16.57861137  106.17900085    0.34000000    2.80999994
   16.57972336  106.39299774    0.34000000    2.80999994
   16.58222389  117.47499847    0.31999999    2.80999994
   16.58555603  108.44300079    0.34000000    2.80999994
   16.58889008  105.83999634    0.34000000    2.80999994
   16.59194565  109.09799957    0.34000000    2.80999994
   16.59527779  106.75599670    0.34000000    2.80999994
   16.59861183  104.69100189    0.31999999    2.80999994
   16.60444450  104.69100189    0.31999999    2.82999992
   16.60861206  115.05000305    0.31999999    2.80999994
   16.61166763  106.21299744    0.31999999    2.80999994
   16.61305618  107.19400024    0.31999999    2.80999994
   16.61527824  102.23200226    0.31999999    2.78999996
   16.61861038  115.72200012    0.34000000    2.78999996
   16.62194443  113.28500366    0.34000000    2.78999996
   16.62500000  113.80799866    0.31999999    2.82999992
   16.62833405  113.61199951    0.31999999    2.80999994
   16.63138962  105.06600189    0.34000000    2.80999994
   16.63472176  110.20500183    0.34000000    2.80999994
   16.63805580  111.47599792    0.34000000    2.78999996
   16.64111137  105.62899780    0.34000000    2.80999994
   16.64722252  105.62899780    0.34000000    2.80999994
   16.65138817  113.76799774    0.34000000    2.80999994
   16.65444374  108.58799744    0.36000001    2.80999994
   16.65777779  116.33100128    0.36000001    2.80999994
   16.66110992  111.44699860    0.34000000    2.80999994
   16.66416550  115.12300110    0.34000000    2.80999994
   16.66749954  118.01399994    0.34000000    2.80999994
   16.67083359  118.89700317    0.34000000    2.78999996
   16.67388916  117.23699951    0.34000000    2.78999996
   16.67722130  113.08200073    0.36000001    2.80999994
   16.67972183  111.92400360    0.36000001    2.80999994
   16.68055534  112.54799652    0.36000001    2.78999996
   16.68388748  115.28299713    0.36000001    2.78999996
   16.68999863  115.28299713    0.36000001    2.80999994
   16.69416618  106.29100037    0.36000001    2.80999994
   16.69749832  112.66100311    0.36000001    2.80999994
   16.70055580  110.73600006    0.36000001    2.80999994
   16.70388985  104.56500244    0.36000001    2.80999994
   16.70722389  120.93399811    0.36000001    2.80999994
   16.71027946  109.64399719    0.36000001    2.78999996
   16.71305656  118.74199677    0.36000001    2.80999994
   16.71389008  118.05000305    0.36000001    2.80999994
   16.71722221  116.76799774    0.36000001    2.78999996
   16.72055626  114.95400238    0.36000001    2.78999996
   16.72361183  117.80400085    0.36000001    2.80999994
   16.72694588  114.14800262    0.36000001    2.78999996
   16.73277855  114.14800262    0.36000001    2.78999996
   16.73694420  106.90799713    0.36000001    2.80999994
   16.74027824  105.82599640    0.36000001    2.78999996
   16.74361229  103.30400085    0.36000001    2.78999996
   16.74638939  104.67299652    0.36000001    2.80999994
   16.74722290  106.67199707    0.36000001    2.80999994
   16.75055504  109.86100006    0.34000000    2.80999994
   16.75388908  106.65299988    0.36000001    2.80999994
   16.75694466   99.09480286    0.36000001    2.80999994
   16.76027870   91.60209656    0.36000001    2.80999994
   16.76333427  103.16600037    0.36000001    2.80999994
   16.76666641  113.57599640    0.36000001    2.80999994
   16.77000046  110.38899994    0.36000001    2.80999994
   16.77583313  110.38899994    0.36000001    2.80999994
   16.78000069  111.24600220    0.36000001    2.80999994
   16.78305435  107.88400269    0.38000000    2.80999994
   16.78638840  109.26499939    0.38000000    2.78999996
   16.78944397   95.47380066    0.38000000    2.80999994
   16.79277802  108.15699768    0.38000000    2.80999994
   16.79611015  106.03299713    0.38000000    2.80999994
   16.79916573  106.99700165    0.40000001    2.78999996
   16.80249977   93.56420135    0.40000001    2.80999994
   16.80583191  108.45999908    0.40000001    2.78999996
   16.80888748  107.08999634    0.40000001    2.78999996
   16.81222153  103.88700104    0.38000000    2.80999994
   16.81305504  105.93900299    0.38000000    2.80999994
   16.83361244  105.93900299    0.40000001    2.80999994
   16.83777809  108.48699951    0.38000000    2.80999994
   16.84111214  109.42400360    0.38000000    2.80999994
   16.84444427  107.28099823    0.38000000    2.80999994
   16.84638977   97.02030182    0.38000000    2.80999994
   16.84777832  108.62999725    0.38000000    2.80999994
   16.85111237   98.74150085    0.40000001    2.80999994
   16.85444450   95.84980011    0.50000000    2.80999994
   16.85750008   97.57489777    0.50000000    2.78999996
   16.86083412   93.62290192    0.46000001    2.78999996
   16.86416626  109.38400269    0.46000001    2.80999994
   16.86722183  108.91999817    0.46000001    2.80999994
   16.87055588  106.70999908    0.46000001    2.80999994
   16.87638855  106.70999908    0.41999999    2.80999994
   16.88055611  103.35099792    0.41999999    2.80999994
   16.88388824  101.65599823    0.40000001    2.80999994
   16.88722229  107.95899963    0.40000001    2.80999994
   16.89055634  111.73100281    0.38000000    2.80999994
   16.89361191  114.51899719    0.38000000    2.80999994
   16.89694405   98.80690002    0.38000000    2.80999994
   16.90027809   97.14279938    0.38000000    2.80999994
   16.90333366  103.11100006    0.38000000    2.80999994
   16.90666580  112.55300140    0.38000000    2.80999994
   16.90972137  101.87500000    0.38000000    2.80999994
   16.91305542   98.39189911    0.38000000    2.80999994
   16.91361046  104.36799622    0.38000000    2.80999994
   16.91944313  104.36799622    0.38000000    2.80999994
   16.92333221  110.60399628    0.38000000    2.78999996
   16.92666626   99.30030060    0.38000000    2.78999996
   16.93000031  113.60700226    0.38000000    2.80999994
   16.93305397   99.60900116    0.38000000    2.80999994
   16.93638802  109.27500153    0.38000000    2.80999994
   16.93972206  108.40599823    0.38000000    2.80999994
   16.94277763  114.00099945    0.38000000    2.80999994
   16.94610977  101.21399689    0.38000000    2.80999994
   16.94666672  106.02899933    0.38000000    2.80999994
   16.94972038  111.24600220    0.38000000    2.80999994
   16.95333481  111.29299927    0.38000000    2.80999994
   16.95639038  119.20300293    0.38000000    2.80999994
   16.96222305  119.20300293    0.38000000    2.80999994
   16.96638870  111.22000122    0.38000000    2.78999996
   16.96944427  105.65699768    0.40000001    2.80999994
   16.97277832  111.52799988    0.40000001    2.80999994
   16.97611237  115.05799866    0.40000001    2.80999994
   16.97916794   99.48529816    0.40000001    2.78999996
   16.98000145  111.71099854    0.40000001    2.78999996
   16.98277855  114.72499847    0.40000001    2.78999996
   16.98611069  112.72100067    0.40000001    2.78999996
   16.98944473  103.41899872    0.41999999    2.80999994
   16.99250031  109.59600067    0.41999999    2.80999994
   16.99583435  115.38999939    0.41999999    2.80999994
   16.99888992  113.48799896    0.44000000    2.80999994
   17.00527763  113.48799896    0.41999999    2.78999996
   17.00916672  115.61799622    0.41999999    2.78999996
   17.01250076  105.47799683    0.41999999    2.80999994
   17.01333427  104.77400208    0.41999999    2.80999994
   17.01611137  103.08200073    0.41999999    2.80999994
   17.01944351  102.37599945    0.41999999    2.80999994
   17.02277756  108.68499756    0.41999999    2.80999994
   17.02583313  108.84300232    0.41999999    2.80999994
   17.02916718  120.12599945    0.41999999    2.80999994
   17.03249931  103.70200348    0.41999999    2.78999996
   17.03555489  104.22000122    0.41999999    2.78999996
   17.03888893  110.38500214    0.41999999    2.78999996
   17.04194450   96.12519836    0.40000001    2.80999994
   17.04777718   96.12519836    0.40000001    2.78999996
   17.05194283  108.34600067    0.40000001    2.80999994
   17.05527687  107.59700012    0.40000001    2.80999994
   17.05833244  104.63500214    0.40000001    2.80999994
   17.06166649  108.85199738    0.40000001    2.78999996
   17.06499863  105.31700134    0.40000001    2.78999996
   17.06805611  115.09300232    0.38000000    2.78999996
   17.07139015  109.92800140    0.38000000    2.80999994
   17.07472229  112.43800354    0.38000000    2.80999994
   17.07777786  118.00299835    0.38000000    2.78999996
   17.08000183  100.26999664    0.38000000    2.78999996
   17.08139038  112.45700073    0.38000000    2.78999996
   17.08472252  102.02500153    0.38000000    2.78999996
   17.09083366  102.02500153    0.36000001    2.80999994
   17.09500122  108.35399628    0.36000001    2.80999994
   17.09805679  118.23500061    0.36000001    2.78999996
   17.10138893  109.87699890    0.36000001    2.78999996
   17.10444450   99.47810364    0.38000000    2.78999996
   17.10777855  107.45200348    0.36000001    2.78999996
   17.11111069  111.40499878    0.38000000    2.80999994
   17.11333466  110.43900299    0.38000000    2.80999994
   17.11444473  107.82099915    0.38000000    2.80999994
   17.11777878  119.29199982    0.36000001    2.78999996
   17.12111092  100.29100037    0.36000001    2.80999994
   17.12416649  104.63899994    0.36000001    2.78999996
   17.12750053  103.59100342    0.36000001    2.78999996
   17.13361168  103.59100342    0.36000001    2.78999996
   17.13777733  116.99400330    0.38000000    2.80999994
   17.14083290  117.11199951    0.36000001    2.78999996
   17.14416695  109.76699829    0.38000000    2.80999994
   17.14666748   98.76210022    0.38000000    2.80999994
   17.14805603  114.09100342    0.38000000    2.80999994
   17.15111160  107.95800018    0.36000001    2.78999996
   17.15444374  107.51699829    0.36000001    2.78999996
   17.15749931  112.40599823    0.36000001    2.78999996
   17.16083336  112.83300018    0.36000001    2.78999996
   17.16416550  112.09300232    0.36000001    2.78999996
   17.16749954  100.97299957    0.36000001    2.80999994
   17.17055511  112.09300232    0.38000000    2.80999994
   17.17638779  112.09300232    0.38000000    2.80999994
   17.18055534  108.44400024    0.36000001    2.78999996
   17.18388748  121.95500183    0.36000001    2.78999996
   17.18694305  112.09300232    0.36000001    2.78999996
   17.19027710  111.27500153    0.36000001    2.78999996
   17.19333267  115.46600342    0.38000000    2.78999996
   17.19666672  115.62000275    0.38000000    2.78999996
   17.20000076  116.55899811    0.38000000    2.78999996
   17.20305634  113.70099640    0.38000000    2.78999996
   17.20639038  111.43199921    0.36000001    2.80999994
   17.20972252  113.88700104    0.38000000    2.78999996
   17.21277809  115.43699646    0.38000000    2.78999996
   17.21333504  107.43699646    0.36000001    2.78999996
   17.21916771  107.43699646    0.36000001    2.80999994
   17.22333336  117.27799988    0.36000001    2.78999996
   17.22666740  112.84700012    0.36000001    2.78999996
   17.22972298  120.62599945    0.36000001    2.78999996
   17.23305511  116.97499847    0.36000001    2.80999994
   17.23638916  110.93099976    0.36000001    2.78999996
   17.23944473  113.73699951    0.36000001    2.78999996
   17.24277878  106.18599701    0.34000000    2.78999996
   17.24611092  110.98699951    0.34000000    2.78999996
   17.24666786  110.32299805    0.34000000    2.78999996
   17.24972153  113.23600006    0.34000000    2.78999996
   17.25305557  106.41300201    0.34000000    2.78999996
   17.25611115  111.32199860    0.34000000    2.78999996
   17.26222229  111.32199860    0.36000001    2.80999994
   17.26611137  113.43499756    0.34000000    2.78999996
   17.26944351  104.50800323    0.36000001    2.80999994
   17.27277756  112.85800171    0.36000001    2.78999996
   17.27583313  121.49800110    0.36000001    2.78999996
   17.27916718   97.80870056    0.36000001    2.78999996
   17.28000069  107.43199921    0.36000001    2.78999996
   17.28277779  108.38400269    0.36000001    2.80999994
   17.28583336  114.02400208    0.36000001    2.78999996
   17.28916550  112.91100311    0.36000001    2.78999996
   17.29249954  113.50599670    0.38000000    2.78999996
   17.29555511  119.64199829    0.38000000    2.78999996
   17.29888916  103.54900360    0.36000001    2.80999994
   17.30499840  103.54900360    0.38000000    2.78999996
   17.30916595  109.41699982    0.38000000    2.78999996
   17.31250000  105.87699890    0.40000001    2.80999994
   17.31333351  111.69799805    0.40000001    2.80999994
   17.31611061  113.36299896    0.41999999    2.78999996
   17.31916809  108.79299927    0.44000000    2.78999996
   17.32250023  111.62100220    0.44000000    2.78999996
   17.32583427  118.57499695    0.46000001    2.80999994
   17.32888985  115.31400299    0.47999999    2.78999996
   17.33222389  104.23500061    0.50000000    2.78999996
   17.33555603  114.92099762    0.51999998    2.78999996
   17.33861160  110.40499878    0.51999998    2.78999996
   17.34194565  111.08200073    0.51999998    2.78999996
   17.34777832  111.08200073    0.51999998    2.78999996
   17.35194397  108.85199738    0.55000001    2.78999996
   17.35527802  107.56700134    0.56999999    2.78999996
   17.35833359   98.78900146    0.55000001    2.78999996
   17.36166763  112.84600067    0.56999999    2.78999996
   17.36472321  101.32399750    0.56999999    2.78999996
   17.36805534   95.87699890    0.58999997    2.78999996
   17.37138939  107.54199982    0.61000001    2.78999996
   17.37444496  102.50000000    0.61000001    2.78999996
   17.37777710  104.81700134    0.61000001    2.78999996
   17.38000107  104.56900024    0.61000001    2.78999996
   17.38138962  107.21900177    0.58999997    2.78999996
   17.38444519  104.79599762    0.56999999    2.78999996
   17.39055634  104.79599762    0.55000001    2.78999996
   17.39472198  114.34799957    0.55000001    2.80999994
   17.39805603  108.49299622    0.50000000    2.78999996
   17.40111160  100.00199890    0.50000000    2.78999996
   17.40444374  113.02600098    0.50000000    2.78999996
   17.40777779  115.69000244    0.50000000    2.78999996
   17.41083336  103.91300201    0.51999998    2.78999996
   17.41333389  112.35700226    0.51999998    2.78999996
   17.41472244  116.78299713    0.51999998    2.78999996
   17.41777802  110.83200073    0.51999998    2.76999998
   17.42111015  115.14600372    0.50000000    2.78999996
   17.42444420  111.09300232    0.47999999    2.76999998
   17.42749977  105.87500000    0.47999999    2.78999996
   17.43361092  105.87500000    0.47999999    2.78999996
   17.43750000  104.62300110    0.47999999    2.78999996
   17.44083214  105.91400146    0.46000001    2.78999996
   17.44416618  109.43599701    0.44000000    2.78999996
   17.44666672  102.42500305    0.46000001    2.78999996
   17.44777679  105.35900116    0.46000001    2.78999996
   17.45083427  105.78700256    0.46000001    2.76999998
   17.45416832  105.79799652    0.46000001    2.76999998
   17.45750046  105.77300262    0.44000000    2.78999996
   17.46055603  108.84400177    0.44000000    2.78999996
   17.46389008  114.70300293    0.44000000    2.78999996
   17.46694565  105.34400177    0.41999999    2.78999996
   17.47027779  109.47299957    0.40000001    2.78999996
   17.47638893  109.47299957    0.40000001    2.78999996
   17.48055649  100.14299774    0.40000001    2.78999996
   17.48361206  109.69100189    0.40000001    2.78999996
   17.48694420  113.01100159    0.40000001    2.78999996
   17.49027824  113.06199646    0.40000001    2.78999996
   17.49333382  118.83399963    0.40000001    2.78999996
   17.49666786  114.02100372    0.40000001    2.78999996
   17.50000000  114.01000214    0.40000001    2.78999996
   17.50305557  108.12500000    0.40000001    2.78999996
   17.50638962  112.03099823    0.41999999    2.78999996
   17.50944519  117.49600220    0.41999999    2.78999996
   17.51277733  117.32800293    0.41999999    2.78999996
   17.51333427  113.06199646    0.41999999    2.78999996
   17.51916695  113.06199646    0.41999999    2.78999996
   17.52333260  114.35399628    0.40000001    2.78999996
   17.52666664  104.79299927    0.40000001    2.78999996
   17.52972221  106.07299805    0.41999999    2.78999996
   17.53305435  111.95300293    0.40000001    2.78999996
   17.53610992  110.22599792    0.40000001    2.78999996
   17.53972244  104.40299988    0.40000001    2.78999996
   17.54277802  109.30500031    0.40000001    2.78999996
   17.54611015  117.14600372    0.40000001    2.78999996
   17.54666710  108.52700043    0.40000001    2.78999996
   17.54972076  112.03900146    0.40000001    2.78999996
   17.55277634  116.28800201    0.40000001    2.78999996
   17.55611038  125.80699921    0.40000001    2.78999996
   17.56194305  125.80699921    0.44000000    2.78999996
   17.56611061  112.34500122    0.46000001    2.76999998
   17.56944466  112.42199707    0.47999999    2.78999996
   17.57277870  113.23600006    0.47999999    2.78999996
   17.57583427  115.33699799    0.47999999    2.78999996
   17.57916832  108.28099823    0.50000000    2.78999996
   17.58000183  118.61299896    0.50000000    2.78999996
   17.58277893  126.28399658    0.51999998    2.78999996
   17.58583450  114.68299866    0.52999997    2.78999996
   17.58916664  112.40299988    0.55000001    2.76999998
   17.59250069  117.61199951    0.55000001    2.78999996
   17.59555626  109.56900024    0.55000001    2.78999996
   17.59889030  112.11499786    0.56999999    2.78999996
   17.60499954  112.11499786    0.55000001    2.78999996
   17.60888863  109.40699768    0.55000001    2.76999998
   17.61222267  116.58799744    0.51999998    2.78999996
   17.61333466  112.55899811    0.51999998    2.78999996
   17.61583328  110.85099792    0.52999997    2.76999998
   17.61916733  113.43399811    0.51999998    2.78999996
   17.62222290  114.11499786    0.51999998    2.78999996
   17.62555504  114.77799988    0.51999998    2.78999996
   17.62861061  117.38999939    0.51999998    2.78999996
   17.63194466  110.90299988    0.51999998    2.78999996
   17.63527679  112.13500214    0.47999999    2.78999996
   17.63833237  101.49900055    0.44000000    2.76999998
   17.64166641  115.47299957    0.44000000    2.78999996
   17.64777756  115.47299957    0.40000001    2.78999996
   17.65194321  110.48799896    0.40000001    2.78999996
   17.65499878  110.00199890    0.44000000    2.78999996
   17.65833282  119.08499908    0.44000000    2.78999996
   17.66166687  115.79900360    0.46000001    2.78999996
   17.66472244  116.61399841    0.46000001    2.78999996
   17.66805458  117.63500214    0.46000001    2.78999996
   17.67138863  123.57900238    0.44000000    2.78999996
   17.67444420  112.77799988    0.44000000    2.78999996
   17.67777634  116.20800018    0.44000000    2.78999996
   17.68000031  116.48200226    0.41999999    2.76999998
   17.68138885  104.94100189    0.41999999    2.76999998
   17.68444443  107.29599762    0.44000000    2.78999996
   17.69055557  107.29599762    0.46000001    2.78999996
   17.69472122  102.91300201    0.46000001    2.78999996
   17.69805527  118.04599762    0.46000001    2.78999996
   17.70111275  120.18299866    0.46000001    2.78999996
   17.70444489  100.76000214    0.46000001    2.78999996
   17.70750046  114.70999908    0.44000000    2.78999996
   17.71083450  107.48300171    0.44000000    2.78999996
   17.71333504  114.01399994    0.44000000    2.76999998
   17.71444511  111.34600067    0.44000000    2.76999998
   17.71750069  117.56099701    0.41999999    2.78999996
   17.72083473  115.00900269    0.41999999    2.76999998
   17.72416687  100.45600128    0.41999999    2.76999998
   17.72722244  108.22399902    0.41999999    2.76999998
   17.73333359  108.22399902    0.40000001    2.78999996
   17.73750114  114.02200317    0.40000001    2.76999998
   17.74083328  108.18499756    0.38000000    2.78999996
   17.74388885  121.14900208    0.36000001    2.78999996
   17.74666786  116.13500214    0.36000001    2.78999996
   17.74777794  102.98300171    0.36000001    2.78999996
   17.75083351  105.22200012    0.38000000    2.76999998
   17.75416756  107.69599915    0.38000000    2.76999998
   17.75749969  111.71499634    0.40000001    2.76999998
   17.76083374  114.31400299    0.41999999    2.76999998
   17.76388931  115.59200287    0.41999999    2.78999996
   17.76722145  117.77999878    0.41999999    2.78999996
   17.77027702  115.86199951    0.41999999    2.78999996
   17.77638817  115.86199951    0.41999999    2.78999996
   17.78027725  114.10199738    0.41999999    2.78999996
   17.78361130  108.63200378    0.41999999    2.76999998
   17.78694344  108.95999908    0.41999999    2.76999998
   17.78999901  108.47699738    0.41999999    2.76999998
   17.79333305  109.88600159    0.44000000    2.78999996
   17.79638863  109.86699677    0.47999999    2.78999996
   17.79972076  109.16500092    0.47999999    2.76999998
   17.80305481  113.31099701    0.47999999    2.78999996
   17.80611038  104.47799683    0.47999999    2.78999996
   17.80944443  115.99299622    0.47999999    2.78999996
   17.81277657  113.61499786    0.50000000    2.76999998
   17.81333351  114.01399994    0.50000000    2.76999998
   17.81916809  114.01399994    0.50000000    2.78999996
   17.82333374  110.79000092    0.50000000    2.78999996
   17.82638931  119.30200195    0.47999999    2.76999998
   17.82972336  110.16200256    0.47999999    2.76999998
   17.84722328  107.46499634    0.50000000    2.76999998
   17.84972191  104.68599701    0.50000000    2.76999998
   17.85305595  102.59200287    0.50000000    2.76999998
   17.85611153  113.57299805    0.51999998    2.76999998
   17.86222267  113.57299805    0.55000001    2.75000000
   17.86638832  119.20899963    0.55000001    2.78999996
   17.86944389  113.89199829    0.56999999    2.78999996
   17.87277794  120.87599945    0.55000001    2.78999996
   17.87583351  112.40499878    0.56999999    2.76999998
   17.87916756  109.27600098    0.56999999    2.76999998
   17.88055611  111.13099670    0.56999999    2.76999998
   17.88277817  107.45700073    0.56999999    2.76999998
   17.88583374  121.22299957    0.58999997    2.76999998
   17.88916588  120.74500275    0.58999997    2.76999998
   17.89249992  115.75599670    0.61000001    2.76999998
   17.89555550  110.47000122    0.61000001    2.76999998
   17.89888954  113.22699738    0.61000001    2.76999998
   17.90499878  113.22699738    0.63000000    2.75000000
   17.90916634  112.81500244    0.63000000    2.78999996
   17.91222191  112.07199860    0.61000001    2.76999998
   17.91388893  116.15799713    0.61000001    2.76999998
   17.91611099  120.33899689    0.61000001    2.76999998
   17.91916656  111.55599976    0.61000001    2.76999998
   17.92249870  125.54499817    0.58999997    2.76999998
   17.92555428  124.71199799    0.58999997    2.76999998
   17.92888832  130.96600342    0.56999999    2.76999998
   17.93222237  114.05100250    0.56999999    2.76999998
   17.93527603  110.98799896    0.56999999    2.76999998
   17.93861008  127.37200165    0.56999999    2.76999998
   17.94194412   99.55709839    0.58999997    2.78999996
   17.94777679   99.55709839    0.61000001    2.76999998
   17.95194435  134.27499390    0.63000000    2.76999998
   17.95527840  109.20600128    0.64999998    2.76999998
   17.95833397  117.43900299    0.64999998    2.76999998
   17.96166801  135.46499634    0.64999998    2.76999998
   17.96472359  142.66400146    3.25000000    2.71000004
   17.96805573  118.37500000    4.90999985    2.48000002
   17.97138977  118.27100372    4.90999985    2.71000004
   17.97444534  111.16200256    3.97000003    2.71000004
   17.97777748  110.27100372    2.67000008    2.75000000
   17.98055649  116.50099945    1.50000000    2.76999998
   17.98139000  128.80000305    1.44000006    2.76999998
   17.98444557  106.61900330    1.28999996    2.75000000
   17.99055672  106.61900330    1.09000003    2.75000000
   17.99472237  120.18399811    0.75000000    2.75000000
   17.99805641  123.32399750    1.07000005    2.75000000
   18.00111198  115.97100067    1.44000006    2.75000000
   18.00444412  111.17500305    4.26000023    2.69000006
   18.00777817  114.92099762    4.90999985    2.64000010
   18.01083374  116.85800171    4.90999985    2.61999989
   18.01388931  112.85900116    4.90999985    2.69000006
   18.01472282  107.72000122    4.90999985    2.71000004
   18.01777840  110.02799988    4.86999989    2.71000004
   18.02111053  126.09600067    2.17000008    2.75000000
   18.02444458  111.85800171    0.83999997    2.75000000
   18.02750015  119.71299744    1.11000001    2.75000000
   18.03333282  119.71299744    4.90999985    2.34999990
   18.03750038  113.33499908    4.90999985    2.26999998
   18.04083252  113.03299713    4.90999985    2.69000006
   18.04416656  110.52700043    4.90999985    2.73000002
   18.04722214  106.06400299    4.30999994    2.73000002
   18.04777718  118.31300354    4.30999994    2.73000002
   18.05083275  103.69499969    3.82999992    2.64000010
   18.05444336  113.72000122    2.93000007    2.75000000
   18.05749893  114.41500092    1.13000000    2.75000000
   18.06083298  110.21399689    0.88000000    2.75000000
   18.06416512  117.95400238    0.88000000    2.75000000
   18.06750107  113.27200317    0.88000000    2.75000000
   18.07083511  110.43000031    0.88000000    2.75000000
   18.07638931  110.43000031    0.86000001    2.75000000
   18.08055687  111.05300140    0.86000001    2.75000000
   18.08111191  114.18399811    0.86000001    2.75000000
   18.08416748  119.13800049    0.81999999    2.75000000
   18.08750153  106.03500366    0.83999997    2.73000002
   18.09055710  111.06900024    0.83999997    2.73000002
   18.09388924  110.91699982    0.83999997    2.75000000
   18.09722328  110.45300293    0.86000001    2.73000002
   18.10055542  106.32599640    0.88000000    2.75000000
   18.10361099  112.40799713    0.88000000    2.75000000
   18.10694504  116.36399841    0.88000000    2.75000000
   18.11000061  115.46399689    0.88000000    2.75000000
   18.11333466  101.59200287    0.88000000    2.75000000
   18.11416626  112.43599701    0.88000000    2.75000000
   18.11916733  112.43599701    0.89999998    2.75000000
   18.12333298  117.11499786    0.89999998    2.73000002
   18.12638855  127.04799652    0.89999998    2.75000000
   18.12972260  117.23799896    0.92000002    2.73000002
   18.13305473  119.21700287    0.89999998    2.73000002
   18.13611031  120.65599823    0.89999998    2.73000002
   18.13944435  111.50900269    0.89999998    2.75000000
   18.14277840  118.83999634    0.89999998    2.75000000
   18.14583397  123.71700287    0.89999998    2.75000000
   18.14749908  112.86499786    0.89999998    2.75000000
   18.14944458  115.48799896    0.89999998    2.75000000
   18.15277672  120.16200256    0.92000002    2.75000000
   18.15583229  115.64199829    0.92000002    2.75000000
   18.16194344  115.64199829    0.92000002    2.73000002
   18.16611099  121.55400085    0.92000002    2.75000000
   18.16944313  117.41500092    0.92000002    2.75000000
   18.17249870  119.25099945    0.89999998    2.75000000
   18.17583275  119.06500244    0.89999998    2.75000000
   18.17916679  120.74199677    0.89999998    2.73000002
   18.18111038  123.21099854    0.89999998    2.73000002
   18.18361092  134.69799805    0.92000002    2.75000000
   18.18666649  126.57700348    0.89999998    2.75000000
   18.18999863  124.30999756    0.88000000    2.75000000
   18.19333267  142.07899475    0.88000000    2.73000002
   18.19638824  131.92100525    0.88000000    2.75000000
   18.19972038  136.58299255    0.88000000    2.75000000
   18.20472336  136.58299255    0.88000000    2.73000002
   18.20888901  124.24800110    0.88000000    2.73000002
   18.21222305  124.06700134    0.86000001    2.75000000
   18.21416664  146.81799316    0.86000001    2.75000000
   18.21611214  130.55799866    0.86000001    2.73000002
   18.21916771  127.77600098    0.83999997    2.75000000
   18.22249985  134.55499268    0.86000001    2.73000002
   18.22583389  142.37899780    0.86000001    2.73000002
   18.22888947  127.46499634    0.88000000    2.75000000
   18.23222351  143.15400696    0.88000000    2.75000000
   18.23527718  135.52999878    0.88000000    2.73000002
   18.23888969  134.14100647    0.86000001    2.75000000
   18.24194527  131.96000671    0.86000001    2.75000000
   18.24805641  131.96000671    0.86000001    2.73000002
   18.25222206  146.51899719    0.86000001    2.73000002
   18.25555611  133.66900635    0.86000001    2.75000000
   18.25861168  122.10399628    0.83999997    2.73000002
   18.26194382  129.37399292    0.83999997    2.73000002
   18.26499939  137.17999268    0.83999997    2.73000002
   18.26833344  148.75100708    0.86000001    2.75000000
   18.27166557  132.10600281    0.86000001    2.75000000
   18.27472115  117.05100250    0.86000001    2.73000002
   18.27805519  143.59899902    0.86000001    2.73000002
   18.28111076  122.27200317    0.86000001    2.73000002
   18.28166580  126.01499939    0.86000001    2.73000002
   18.28499985  128.12500000    0.86000001    2.73000002
   18.29055595  128.12500000    0.86000001    2.75000000
   18.29472160  124.35600281    0.86000001    2.73000002
   18.29777718  131.78300476    0.86000001    2.73000002
   18.30111122  134.06900024    0.86000001    2.73000002
   18.30444336  140.68200684    0.86000001    2.73000002
   18.30749893  135.09700012    0.86000001    2.73000002
   18.31083298  140.85499573    0.86000001    2.75000000
   18.31416512  119.92500305    0.86000001    2.75000000
   18.31444359  124.99199677    0.86000001    2.73000002
   18.31777954  130.91200256    0.88000000    2.73000002
   18.32111168  145.23399353    0.88000000    2.73000002
   18.32416725  124.89499664    0.88000000    2.73000002
   18.32750130  118.48500061    0.86000001    2.73000002
   18.33333397  118.48500061    0.86000001    2.73000002
   18.33750153  128.09599304    0.88000000    2.73000002
   18.34083366  132.05400085    0.88000000    2.73000002
   18.34388924  121.08200073    0.86000001    2.73000002
   18.34722328  114.71900177    0.86000001    2.73000002
   18.34777832  125.53900146    0.86000001    2.73000002
   18.35083389  134.08700562    0.83999997    2.75000000
   18.35416794  129.50500488    0.83999997    2.73000002
   18.35722351  121.99800110    0.86000001    2.73000002
   18.36055565  115.42199707    0.83999997    2.75000000
   18.36361122  129.04499817    0.86000001    2.75000000
   18.36694527  138.87300110    0.88000000    2.75000000
   18.37027740  118.06199646    0.89999998    2.73000002
   18.37611198  118.06199646    0.89999998    2.75000000
   18.38027763  112.52700043    0.89999998    2.75000000
   18.38111115  113.68099976    0.89999998    2.73000002
   18.38388824  114.44599915    0.89999998    2.73000002
   18.38722229  132.81700134    0.92000002    2.75000000
   18.39027786  125.02200317    0.92000002    2.73000002
   18.39361191  123.64900208    0.94000000    2.73000002
   18.39694405  123.37000275    0.92000002    2.73000002
   18.40027809  129.61300659    0.92000002    2.73000002
   18.40361023  124.57599640    0.94000000    2.73000002
   18.40694427  126.51899719    0.94000000    2.73000002
   18.40999985  121.96700287    0.94000000    2.73000002
   18.41333389  129.83299255    0.94000000    2.73000002
   18.41444397  117.60199738    0.94000000    2.73000002
   18.41916656  117.60199738    0.92000002    2.73000002
   18.42333221  129.89700317    0.92000002    2.73000002
   18.42638779  115.88899994    0.88000000    2.75000000
   18.42972183  107.07599640    0.88000000    2.73000002
   18.43305397  116.59500122    0.88000000    2.73000002
   18.43610954  129.34800720    0.88000000    2.73000002
   18.43944359  115.58399963    0.88000000    2.73000002
   18.44277763  121.56099701    0.88000000    2.73000002
   18.44583321  121.26599884    0.88000000    2.73000002
   18.44805527  117.13700104    0.88000000    2.75000000
   18.44972038  114.56700134    0.88000000    2.75000000
   18.45277786  124.80699921    0.88000000    2.73000002
   18.45611191  120.00299835    0.88000000    2.73000002
   18.46194458  120.00299835    0.88000000    2.73000002
   18.46611214  122.04000092    0.92000002    2.73000002
   18.46916771  126.15899658    0.92000002    2.73000002
   18.47249985  123.31900024    0.92000002    2.73000002
   18.47583389  119.90799713    0.92000002    2.73000002
   18.47888947  125.67500305    0.92000002    2.73000002
   18.48111153  118.68499756    0.92000002    2.73000002
   18.48250008  116.09400177    0.92000002    2.73000002
   18.48583412  127.08300018    0.89999998    2.73000002
   18.48888969  118.63899994    0.89999998    2.73000002
   18.49222183  118.64099884    0.89999998    2.73000002
   18.49555588  119.67400360    0.89999998    2.73000002
   18.49861145  120.88300323    0.89999998    2.73000002
   18.50472260  120.88300323    0.88000000    2.73000002
   18.50888824  122.23999786    0.88000000    2.73000002
   18.51222229  120.30899811    0.88000000    2.73000002
   18.51444435  118.91999817    0.86000001    2.73000002
   18.51583290  112.83200073    0.86000001    2.73000002
   18.51916695  116.63400269    0.86000001    2.73000002
   18.52222252  117.94300079    0.86000001    2.73000002
   18.52555466  111.71600342    0.83999997    2.73000002
   18.52888870  122.91300201    0.83999997    2.71000004
   18.53194427  114.77300262    0.83999997    2.71000004
   18.53527641  128.13299561    0.83999997    2.73000002
   18.53833199  117.26999664    0.83999997    2.73000002
   18.54166603  112.83100128    0.81999999    2.73000002
   18.54749870  112.83100128    0.81999999    2.73000002
   18.55166626  121.46900177    0.76999998    2.73000002
   18.55499840  117.06900024    0.76999998    2.73000002
   18.55833244  121.90799713    0.76999998    2.75000000
   18.56138802  112.85600281    0.75000000    2.73000002
   18.56472206  113.37899780    0.76999998    2.73000002
   18.56805611  113.50099945    0.76999998    2.73000002
   18.57111168  115.43599701    0.76999998    2.73000002
   18.57444572  110.21199799    0.75000000    2.73000002
   18.57750130  113.42600250    0.75000000    2.73000002
   18.58083344  118.09700012    0.75000000    2.73000002
   18.58277893  110.37300110    0.75000000    2.73000002
   18.58444595  115.72799683    0.75000000    2.73000002
   18.59055710  115.72799683    0.76999998    2.73000002
   18.59472275  116.47399902    0.79000002    2.73000002
   18.59777832  115.69999695    0.79000002    2.73000002
   18.60111237  133.37100220    0.76999998    2.75000000
   18.60444450  110.34600067    0.76999998    2.75000000
   18.60750008  120.41000366    0.75000000    2.73000002
   18.61083412  111.06900024    0.75000000    2.73000002
   18.61416626  113.49299622    0.75000000    2.73000002
   18.61583328  112.77300262    0.75000000    2.73000002
   18.61750031  108.86900330    0.76999998    2.73000002
   18.62083435  118.45700073    0.76999998    2.73000002
   18.62388992  115.54199982    0.76999998    2.73000002
   18.62722206  108.94300079    0.76999998    2.75000000
   18.63333321  108.94300079    0.75000000    2.73000002
   18.63750076  119.57399750    0.75000000    2.73000002
   18.64055634  118.02999878    0.73000002    2.73000002
   18.64388847  107.21499634    0.75000000    2.73000002
   18.64722252  120.48699951    0.75000000    2.75000000
   18.64944458   96.53209686    0.75000000    2.75000000
   18.65083313  118.93800354    0.73000002    2.73000002
   18.65388870  110.72000122    0.73000002    2.73000002
   18.65722275  113.71900177    0.73000002    2.73000002
   18.66055489  112.10299683    0.75000000    2.73000002
   18.66361046  114.61900330    0.73000002    2.73000002
   18.66694450  113.99099731    0.73000002    2.73000002
   18.67027664  107.26000214    0.73000002    2.75000000
   18.67611122  107.26000214    0.73000002    2.73000002
   18.68027687  113.40799713    0.73000002    2.73000002
   18.68277740  114.25499725    0.73000002    2.73000002
   18.68388748  113.04799652    0.73000002    2.73000002
   18.68694305  120.33399963    0.73000002    2.71000004
   18.69027710  109.14800262    0.73000002    2.73000002
   18.69361115  110.74500275    0.73000002    2.73000002
   18.69666672  110.07199860    0.73000002    2.73000002
   18.70000076  118.27400208    0.73000002    2.73000002
   18.70333481  111.42199707    0.75000000    2.73000002
   18.70639038  111.65499878    0.75000000    2.71000004
   18.70972252  112.19100189    0.73000002    2.73000002
   18.71305656  118.60099792    0.75000000    2.73000002
   18.71888924  118.60099792    0.75000000    2.71000004
   18.72305679  116.45999908    0.75000000    2.71000004
   18.72638893  123.88800049    0.75000000    2.73000002
   18.72972298   99.64720154    0.75000000    2.73000002
   18.73277855  110.48600006    0.75000000    2.73000002
   18.73611069  107.49099731    0.76999998    2.73000002
   18.73916626  109.91100311    0.76999998    2.73000002
   18.74250031  116.82399750    0.76999998    2.73000002
   18.74583435  109.77899933    0.76999998    2.73000002
   18.74888992  114.47200012    0.75000000    2.73000002
   18.75000000  111.16400146    0.75000000    2.73000002
   18.75250053  118.29399872    0.75000000    2.73000002
   18.75583267  111.65399933    0.75000000    2.71000004
   18.76194382  111.65399933    0.75000000    2.71000004
   18.76611137  114.63099670    0.75000000    2.71000004
   18.76916695  103.12300110    0.75000000    2.73000002
   18.77249908  106.70800018    0.75000000    2.73000002
   18.77583313  104.01499939    0.75000000    2.73000002
   18.77888870  106.05100250    0.75000000    2.73000002
   18.78222275  119.05300140    0.73000002    2.73000002
   18.78333282  111.45300293    0.73000002    2.73000002
   18.78555489  103.71099854    0.73000002    2.73000002
   18.78888893  108.86699677    0.70999998    2.73000002
   18.79222107  121.85800171    0.70999998    2.73000002
   18.79527664  118.11499786    0.70999998    2.73000002
   18.79861069  110.95600128    0.70999998    2.73000002
   18.80472183  110.95600128    0.69000000    2.73000002
   18.80888748  120.14299774    0.69000000    2.73000002
   18.81194305  106.34300232    0.67000002    2.73000002
   18.81527710  117.77600098    0.67000002    2.73000002
   18.81666756  114.14299774    0.67000002    2.73000002
   18.81888962  107.92199707    0.67000002    2.73000002
   18.82222366  100.48600006    0.69000000    2.73000002
   18.82527924  114.51399994    0.67000002    2.71000004
   18.82861137  120.01899719    0.67000002    2.71000004
   18.83194542  112.07299805    0.67000002    2.71000004
   18.83500099  116.50199890    0.67000002    2.71000004
   18.83833313  115.31600189    0.67000002    2.73000002
   18.84166718  117.37500000    0.67000002    2.73000002
   18.84749985  117.37500000    0.67000002    2.71000004
   18.86583328  106.53199768    0.69000000    2.73000002
   18.86916733  112.06800079    0.69000000    2.73000002
   18.87249947  115.22899628    0.69000000    2.73000002
   18.87555504  111.47599792    0.69000000    2.73000002
   18.87888908  111.00900269    0.69000000    2.71000004
   18.88222313  111.67900085    0.69000000    2.71000004
   18.88527679  105.43599701    0.69000000    2.73000002
   18.89055634  105.43599701    0.69000000    2.73000002
   18.89472198  111.71700287    0.67000002    2.73000002
   18.89805603  107.22200012    0.67000002    2.71000004
   18.89888954  106.33599854    0.67000002    2.71000004
   18.90166664  120.70200348    0.69000000    2.71000004
   18.90499878  112.78800201    0.67000002    2.73000002
   18.90805435  104.36599731    0.67000002    2.73000002
   18.91138840  114.35800171    0.64999998    2.71000004
   18.91444397  106.14399719    0.64999998    2.73000002
   18.91777802  115.15799713    0.63000000    2.73000002
   18.92111015  111.50099945    0.63000000    2.73000002
   18.92416573  115.32700348    0.63000000    2.73000002
   18.92749977  109.78600311    0.63000000    2.73000002
   18.93333244  109.78600311    0.63000000    2.71000004
   18.93750000  108.89600372    0.63000000    2.73000002
   18.94083214  111.60399628    0.63000000    2.71000004
   18.94416618  114.02400208    0.63000000    2.71000004
   18.94722176  108.49199677    0.61000001    2.71000004
   18.95055580  102.38700104    0.63000000    2.73000002
   18.95361137  109.17400360    0.63000000    2.73000002
   18.95694542  111.50800323    0.63000000    2.73000002
   18.96027946  112.39199829    0.64999998    2.73000002
   18.96333504  114.34100342    0.64999998    2.71000004
   18.96555710  109.96299744    0.64999998    2.71000004
   18.96694565  105.49600220    0.64999998    2.71000004
   18.97027779  108.80599976    0.63000000    2.71000004
   18.97638893  108.80599976    0.61000001    2.71000004
   18.98055649  104.98600006    0.61000001    2.71000004
   18.98361206  101.67299652    0.58999997    2.71000004
   18.98694420  104.04900360    0.56999999    2.71000004
   18.98999977  102.61900330    0.56999999    2.71000004
   18.99333382  101.91999817    0.56999999    2.71000004
   18.99666786  108.77500153    0.55000001    2.71000004
   18.99888992   95.67209625    0.55000001    2.71000004
   19.00027847  103.21199799    0.55000001    2.73000002
   19.00361061  105.19200134    0.55000001    2.73000002
   19.00666618  100.61699677    0.55000001    2.71000004
   19.01000023  108.47599792    0.52999997    2.71000004
   19.01305580  112.54100037    0.52999997    2.71000004
   19.01916695  112.54100037    0.52999997    2.71000004
   19.02333260  107.48699951    0.55000001    2.71000004
   19.02638817  111.90000153    0.55000001    2.71000004
   19.02972221  106.15000153    0.56999999    2.71000004
   19.03222275  102.77899933    0.56999999    2.71000004
   19.03333282  108.46900177    0.56999999    2.71000004
   19.03666687  109.42199707    0.56999999    2.71000004
   19.03972244  104.58100128    0.56999999    2.71000004
   19.04305458  102.08799744    0.56999999    2.71000004
   19.04638863  103.68199921    0.56999999    2.71000004
   19.04972076  102.15100098    0.56999999    2.71000004
   19.05305481  104.56600189    0.56999999    2.71000004
   19.05611038  104.80400085    0.56999999    2.71000004
   19.06194305  104.80400085    0.58999997    2.71000004
   19.06611061  103.59500122    0.58999997    2.71000004
   19.06944466  109.18900299    0.58999997    2.71000004
   19.07250023  100.14499664    0.61000001    2.71000004
   19.07583427  107.27600098    0.61000001    2.71000004
   19.07916832  103.45300293    0.58999997    2.71000004
   19.08222389  102.14299774    0.58999997    2.71000004
   19.08555603  110.09100342    0.58999997    2.71000004
   19.08861160  101.14299774    0.61000001    2.71000004
   19.09222221  104.19100189    0.61000001    2.71000004
   19.09527779   99.55889893    0.61000001    2.71000004
   19.09861183  108.94799805    0.61000001    2.71000004
   19.09916687  103.17099762    0.58999997    2.71000004
   19.10472298  103.17099762    0.58999997    2.71000004
   19.10888863  104.06500244    0.56999999    2.71000004
   19.11222267  106.01300049    0.56999999    2.71000004
   19.11555672  105.63800049    0.56999999    2.71000004
   19.11861038  105.64600372    0.56999999    2.71000004
   19.12194443  101.38300323    0.56999999    2.71000004
   19.12500000  105.28099823    0.56999999    2.71000004
   19.12833405   96.09529877    0.56999999    2.71000004
   19.13166618  103.03099823    0.56999999    2.71000004
   19.13249969  100.88200378    0.56999999    2.71000004
   19.13500023  103.65599823    0.55000001    2.71000004
   19.13833237  100.54799652    0.55000001    2.71000004
   19.14166641  104.19599915    0.55000001    2.71000004
   19.14777756  104.19599915    0.55000001    2.71000004
   19.15194321   96.24900055    0.55000001    2.71000004
   19.15499878  107.47000122    0.55000001    2.71000004
   19.15833282  105.44400024    0.55000001    2.69000006
   19.16138840  101.80200195    0.56999999    2.71000004
   19.16472244  114.23000336    0.55000001    2.71000004
   19.16583252  106.58899689    0.55000001    2.71000004
   19.16860962  115.90699768    0.56999999    2.71000004
   19.17166519  105.06600189    0.55000001    2.71000004
   19.17499924  109.38700104    0.55000001    2.71000004
   19.17805481  107.52600098    0.55000001    2.71000004
   19.18138885  110.24400330    0.55000001    2.69000006
   19.18472099  106.75299835    0.55000001    2.71000004
   19.19055557  106.75299835    0.52999997    2.71000004
   19.19472122  106.11900330    0.55000001    2.69000006
   19.19777679   97.19789886    0.52999997    2.71000004
   19.19916534  104.90599823    0.52999997    2.71000004
   19.20138931   98.99530029    0.52999997    2.71000004
   19.20472336  110.45999908    0.52999997    2.71000004
   19.20805550  102.10099792    0.52999997    2.71000004
   19.21111107   99.29920197    0.51999998    2.71000004
   19.21444511  102.05599976    0.51999998    2.71000004
   19.21777916  102.67500305    0.51999998    2.71000004
   19.22083473   98.87090302    0.52999997    2.71000004
   19.22416687   98.68219757    0.51999998    2.71000004
   19.22722244  101.06400299    0.52999997    2.71000004
   19.23333359  101.06400299    0.52999997    2.71000004
   19.23750114  102.53399658    0.52999997    2.71000004
   19.24083328  101.76100159    0.52999997    2.71000004
   19.24388885  105.86799622    0.52999997    2.71000004
   19.24722290  101.24199677    0.52999997    2.71000004
   19.25055504   97.05650330    0.52999997    2.71000004
   19.25361061  105.32499695    0.52999997    2.71000004
   19.25694466  104.80899811    0.55000001    2.71000004
   19.26000023  108.25099945    0.52999997    2.71000004
   19.26333427   99.18160248    0.52999997    2.71000004
   19.26583290   99.53620148    0.52999997    2.69000006
   19.26722145   99.89389801    0.52999997    2.69000006
   19.27055550  107.27799988    0.52999997    2.71000004
   19.27611160  107.27799988    0.52999997    2.71000004
   19.28027725  105.25499725    0.52999997    2.69000006
   19.28361130  102.33300018    0.52999997    2.69000006
   19.28694344  103.74299622    0.55000001    2.69000006
   19.28999901  102.94499969    0.52999997    2.69000006
   19.29333305  103.54900360    0.52999997    2.71000004
   19.29638863  104.86699677    0.52999997    2.71000004
   19.29916573   98.98760223    0.52999997    2.71000004
   19.30027771  103.35800171    0.55000001    2.69000006
   19.30333328  100.25800323    0.52999997    2.71000004
   19.30666542  100.24800110    0.52999997    2.69000006
   19.30972099  103.92800140    0.52999997    2.69000006
   19.31305504  102.79399872    0.52999997    2.71000004
   19.31916809  102.79399872    0.55000001    2.69000006
   19.32333374  101.17400360    0.55000001    2.69000006
   19.32638931  101.09100342    0.55000001    2.69000006
   19.32972336  105.14900208    0.55000001    2.69000006
   19.33250046  101.35800171    0.58999997    2.69000006
   19.33305550   97.05319977    0.58999997    2.69000006
   19.33638954   95.38590240    0.58999997    2.69000006
   19.33972359  100.40399933    0.61000001    2.69000006
   19.34277916  103.58999634    0.61000001    2.69000006
   19.34611130   94.35520172    0.63000000    2.71000004
   19.34944534  103.66000366    0.63000000    2.69000006
   19.35250092   99.03079987    0.55000001    2.69000006
   19.35583305  102.61799622    0.55000001    2.69000006
   19.36194420  102.61799622    0.55000001    2.69000006
   19.36611176  107.75000000    0.51999998    2.69000006
   19.36944389  105.29000092    0.51999998    2.69000006
   19.37249947  110.89299774    0.51999998    2.69000006
   19.37583351  105.65499878    0.51999998    2.69000006
   19.37916756  104.42900085    0.51999998    2.71000004
   19.38222313  100.51899719    0.51999998    2.69000006
   19.38555527  100.31600189    0.51999998    2.69000006
   19.38888931  101.21900177    0.51999998    2.69000006
   19.39194489  102.36699677    0.50000000    2.69000006
   19.39527702  102.51999664    0.50000000    2.69000006
   19.39833260  103.91799927    0.50000000    2.69000006
   19.39916611  103.68800354    0.50000000    2.69000006
   19.40472221  103.68800354    0.50000000    2.69000006
   19.40888786   97.11859894    0.51999998    2.69000006
   19.41222191   97.14920044    0.51999998    2.69000006
   19.41527748  102.44999695    0.51999998    2.69000006
   19.41860962  105.35700226    0.51999998    2.69000006
   19.42194366  107.11399841    0.51999998    2.69000006
   19.42499924  105.93199921    0.51999998    2.69000006
   19.42833328  104.07299805    0.51999998    2.69000006
   19.43138885  110.52300262    0.51999998    2.69000006
   19.43249893  110.39199829    0.51999998    2.69000006
   19.43527603  102.66500092    0.51999998    2.69000006
   19.43833160  106.03900146    0.51999998    2.69000006
   19.44166565   99.00440216    0.52999997    2.69000006
   19.44749832   99.00440216    0.51999998    2.71000004
   19.45166779   99.44750214    0.51999998    2.69000006
   19.45499992  102.22799683    0.51999998    2.69000006
   19.45833397  104.53199768    0.51999998    2.69000006
   19.46138954  102.29799652    0.51999998    2.69000006
   19.46472359  105.39099884    0.51999998    2.67000008
   19.46583366  103.96700287    0.51999998    2.67000008
   19.46833420  104.99900055    0.51999998    2.69000006
   19.47138977  105.98400116    0.51999998    2.69000006
   19.47472191  109.01899719    0.51999998    2.69000006
   19.47777748  102.63999939    0.51999998    2.69000006
   19.48111153  106.09899902    0.51999998    2.69000006
   19.48444557  103.20999908    0.52999997    2.69000006
   19.49055672  103.20999908    0.51999998    2.69000006
   19.49472237  101.64099884    0.52999997    2.69000006
   19.49777794  102.62100220    0.51999998    2.69000006
   19.49916649  105.56600189    0.51999998    2.69000006
   19.50166702  103.66799927    0.51999998    2.67000008
   19.50472260  105.58200073    0.51999998    2.67000008
   19.50805473  107.00499725    0.51999998    2.69000006
   19.51111031  108.57700348    0.51999998    2.67000008
   19.51444435  108.86199951    0.51999998    2.69000006
   19.51777840  104.66200256    0.51999998    2.67000008
   19.52083397  112.84100342    0.51999998    2.69000006
   19.52416611  102.46399689    0.51999998    2.69000006
   19.52750015  106.69599915    0.51999998    2.69000006
   19.53333282  106.69599915    0.51999998    2.69000006
   19.53750038   98.88549805    0.51999998    2.69000006
   19.54055595  101.18099976    0.51999998    2.69000006
   19.54388809  110.86699677    0.51999998    2.67000008
   19.54722214  103.19599915    0.51999998    2.67000008
   19.55027771  111.73799896    0.51999998    2.67000008
   19.55360985  102.51799774    0.51999998    2.67000008
   19.55694389  105.42700195    0.55000001    2.67000008
   19.55999947  103.69100189    0.56999999    2.67000008
   19.56333351  110.73300171    0.56999999    2.67000008
   19.56583214  105.59700012    0.55000001    2.69000006
   19.56694603  108.13099670    0.55000001    2.69000006
   19.57000160  107.78299713    0.55000001    2.67000008
   19.57611275  107.78299713    0.55000001    2.67000008
   19.58055687  108.13999939    0.55000001    2.69000006
   19.58361244   98.93489838    0.55000001    2.69000006
   19.58694458  109.13800049    0.55000001    2.67000008
   19.59027863  108.85299683    0.55000001    2.67000008
   19.59333420  111.57099915    0.55000001    2.67000008
   19.59666824  109.62200165    0.55000001    2.67000008
   19.59944534  105.58799744    0.55000001    2.67000008
   19.60027885  115.42099762    0.55000001    2.67000008
   19.60361099  109.42600250    0.55000001    2.67000008
   19.60694504  107.22299957    0.55000001    2.67000008
   19.61000061  111.34700012    0.55000001    2.67000008
   19.61333466  105.51799774    0.55000001    2.67000008
   19.61888885  105.51799774    0.55000001    2.67000008
   19.62305641   95.77770233    0.55000001    2.67000008
   19.62638855  108.87100220    0.55000001    2.67000008
   19.62972260  103.68699646    0.55000001    2.67000008
   19.63249969  101.96199799    0.55000001    2.67000008
   19.63361168  100.11199951    0.55000001    2.66000009
   19.63666725  105.38999939    0.55000001    2.67000008
   19.63999939  106.48600006    0.55000001    2.67000008
   19.64333344  104.41699982    0.55000001    2.67000008
   19.64638901  101.86199951    0.56999999    2.66000009
   19.64972115  107.99600220    0.56999999    2.67000008
   19.65277672  100.42700195    0.56999999    2.67000008
   19.65611076  113.90799713    0.56999999    2.67000008
   19.66194344  113.90799713    0.56999999    2.67000008
   19.66611099  105.95400238    0.56999999    2.67000008
   19.66916656  105.06900024    0.56999999    2.67000008
   19.67249870  107.65100098    0.56999999    2.67000008
   19.67583275  110.66300201    0.56999999    2.66000009
   19.67888832  115.21600342    0.56999999    2.66000009
   19.68222237  107.40200043    0.56999999    2.66000009
   19.68527603   94.11560059    0.56999999    2.67000008
   19.68861008   97.40509796    0.56999999    2.66000009
   19.69194412  108.47499847    0.55000001    2.66000009
   19.69499969  102.43099976    0.55000001    2.66000009
   19.69833183  102.95200348    0.56999999    2.67000008
   19.69916534  106.67600250    0.56999999    2.67000008
   19.70472336  106.67600250    0.56999999    2.67000008
   19.70888901  102.89399719    0.56999999    2.66000009
   19.71194458   99.72180176    0.56999999    2.66000009
   19.71527863  101.63800049    0.56999999    2.66000009
   19.71861076  108.58399963    0.56999999    2.66000009
   19.72194481  102.41600037    0.56999999    2.66000009
   19.72500038  107.30899811    0.56999999    2.66000009
   19.72833443  113.29399872    0.56999999    2.66000009
   19.73166656  104.37100220    0.56999999    2.66000009
   19.73250008  112.80200195    0.56999999    2.66000009
   19.73527718  107.08499908    0.56999999    2.66000009
   19.73833275  111.79799652    0.56999999    2.66000009
   19.74166679  103.82900238    0.56999999    2.67000008
   19.74749947  103.82900238    0.56999999    2.66000009
   19.75166702  102.65699768    0.56999999    2.66000009
   19.75499916   95.21369934    0.56999999    2.66000009
   19.75805473   95.30149841    0.56999999    2.66000009
   19.75916672  103.17299652    0.56999999    2.66000009
   19.76222229  108.36599731    0.56999999    2.66000009
   19.76361084  110.56900024    0.56999999    2.66000009
   19.76583290  102.64399719    0.58999997    2.66000009
   19.76916695  101.02999878    0.56999999    2.66000009
   19.77249908  103.85900116    0.56999999    2.66000009
   19.77555466   97.80239868    0.56999999    2.66000009
   19.77888870  100.26200104    0.58999997    2.66000009
   19.78194427  103.39800262    0.58999997    2.66000009
   19.78805542  103.39800262    0.58999997    2.66000009
   19.79222107   99.50420380    0.58999997    2.66000009
   19.79555511  102.39099884    0.58999997    2.66000009
   19.79694366  101.23100281    0.58999997    2.66000009
   19.79916573  103.31300354    0.58999997    2.66000009
   19.80222130  107.45700073    0.58999997    2.66000009
   19.80555534  102.21399689    0.58999997    2.66000009
   19.80888748   98.73950195    0.61000001    2.66000009
   19.81194305   98.40399933    0.61000001    2.66000009
   19.81527710  100.87799835    0.61000001    2.66000009
   19.81861115   99.57299805    0.58999997    2.66000009
   19.82166672  102.29900360    0.58999997    2.66000009
   19.82500076  100.61399841    0.61000001    2.66000009
   19.83083344  100.61399841    0.63000000    2.64000010
   19.83500099  107.37699890    0.63000000    2.66000009
   19.83833313   97.74019623    0.63000000    2.64000010
   19.84388924   96.82520294    0.63000000    2.64000010
   19.84722328   93.72979736    0.63000000    2.66000009
   19.85027885  103.22100067    0.61000001    2.66000009
   19.85361099  101.53800201    0.61000001    2.64000010
   19.85666656  101.70400238    0.61000001    2.66000009
   19.86000061  100.39299774    0.61000001    2.66000009
   19.86333466   93.08540344    0.61000001    2.66000009
   19.86583328   99.55200195    0.63000000    2.64000010
   19.88638878   99.55200195    0.61000001    2.64000010
   19.89055634  101.51799774    0.63000000    2.64000010
   19.89388847   98.85540009    0.63000000    2.64000010
   19.89722252  109.41699982    0.63000000    2.64000010
   19.89916611  103.35500336    0.63000000    2.64000010
   19.90083313  106.29199982    0.63000000    2.64000010
   19.90416718  104.88899994    0.63000000    2.64000010
   19.90722275  102.32700348    0.63000000    2.64000010
   19.91055489  107.34600067    0.64999998    2.61999989
   19.91388893   98.70210266    0.64999998    2.64000010
   19.91694450   97.81449890    0.64999998    2.64000010
   19.92055511   97.73300171    0.64999998    2.64000010
   19.92361069   94.66600037    0.64999998    2.64000010
   19.92916679   94.66600037    0.64999998    2.61999989
   19.93361092  100.77700043    0.63000000    2.64000010
   19.93694305   97.31600189    0.63000000    2.64000010
   19.93999863  101.06800079    0.63000000    2.64000010
   19.94333267   92.33119965    0.64999998    2.64000010
   19.94638824   99.85540009    0.64999998    2.64000010
   19.94972038  107.22699738    0.64999998    2.64000010
   19.95305634  111.14099884    0.64999998    2.61999989
   19.95611191   98.95980072    0.64999998    2.64000010
   19.95944595  106.11199951    0.64999998    2.64000010
   19.96277809  102.72399902    0.64999998    2.64000010
   19.96583366  106.51599884    0.64999998    2.64000010
   19.96638870  104.82099915    0.64999998    2.64000010
   19.97222328  104.82099915    0.64999998    2.64000010
   19.97611237  105.08300018    0.64999998    2.61999989
   19.97944450  108.62500000    0.64999998    2.64000010
   19.98277855  100.09200287    0.64999998    2.61999989
   19.98583412   98.21389771    0.67000002    2.61999989
   19.98916626   99.13040161    0.69000000    2.64000010
   19.99250031  102.09799957    0.69000000    2.64000010
   19.99555588   93.06140137    0.67000002    2.64000010
   19.99888992  120.19200134    0.67000002    2.61999989
   19.99944496   97.31089783    0.67000002    2.61999989
   20.00222206  102.46800232    0.67000002    2.64000010
   20.00555611  108.50599670    0.67000002    2.61999989
   20.00888824   98.24310303    0.67000002    2.61999989
   20.01499939   98.24310303    0.69000000    2.61999989
   20.01916695  102.52799988    0.69000000    2.61999989
   20.02222252  103.34999847    0.69000000    2.64000010
   20.02555466   96.23940277    0.69000000    2.61999989
   20.02888870  105.67600250    0.69000000    2.64000010
   20.03194427  105.61799622    0.70999998    2.61999989
   20.03277779  103.54599762    0.70999998    2.61999989
   20.03555489   98.46379852    0.70999998    2.61999989
   20.03888893  113.83200073    0.70999998    2.61999989
   20.04194450  104.00700378    0.70999998    2.61999989
   20.04527664   97.66410065    0.70999998    2.61999989
   20.04861069  103.16300201    0.73000002    2.61999989
   20.05166626  101.10600281    0.73000002    2.64000010
   20.05777740  101.10600281    0.73000002    2.61999989
   20.06194305   95.16079712    0.73000002    2.61999989
   20.06527710  101.60700226    0.73000002    2.61999989
   20.06611061  102.92700195    0.73000002    2.61999989
   20.06861115   99.15390015    0.73000002    2.61999989
   20.07194519  101.76200104    0.73000002    2.61999989
   20.07527924   98.04409790    0.73000002    2.61999989
   20.07833481  100.61799622    0.73000002    2.61999989
   20.08166695   99.84899902    0.73000002    2.61999989
   20.08472252   99.18689728    0.73000002    2.61999989
   20.08805656  106.86199951    0.73000002    2.61999989
   20.09138870  112.47399902    0.73000002    2.61999989
   20.09444427  103.98000336    0.73000002    2.61999989
   20.10055542  103.98000336    0.73000002    2.61999989
   20.10472298  106.56999969    0.73000002    2.61999989
   20.10805511  107.91400146    0.73000002    2.59999990
   20.11111069  101.14600372    0.73000002    2.61999989
   20.11444473  100.79499817    0.73000002    2.61999989
   20.11777878  106.38600159    0.73000002    2.59999990
   20.12083435  102.33000183    0.73000002    2.59999990
   20.12416649   96.10970306    0.73000002    2.61999989
   20.12750053   95.93299866    0.73000002    2.61999989
   20.13055611   97.46440125    0.73000002    2.61999989
   20.13249969   96.28189850    0.73000002    2.61999989
   20.13416672  101.77899933    0.73000002    2.61999989
   20.13750076  104.36000061    0.73000002    2.59999990
   20.14333344  104.36000061    0.73000002    2.59999990
   20.14749908  106.08300018    0.73000002    2.59999990
   20.15083313  106.82099915    0.73000002    2.61999989
   20.15416718  102.04599762    0.73000002    2.59999990
   20.15722275  102.74900055    0.73000002    2.59999990
   20.16055489  106.89199829    0.73000002    2.59999990
   20.16388893  102.04499817    0.73000002    2.59999990
   20.16611099  105.83399963    0.73000002    2.59999990
   20.16749954  100.02300262    0.73000002    2.59999990
   20.17083359   91.53009796    0.73000002    2.61999989
   20.17388916  104.06600189    0.73000002    2.61999989
   20.17722130  105.84999847    0.73000002    2.59999990
   20.18055534  107.71399689    0.73000002    2.59999990
   20.18638802  107.71399689    0.73000002    2.59999990
   20.19027710  106.64700317    0.73000002    2.61999989
   20.19361115  106.97399902    0.73000002    2.59999990
   20.19694328  102.22599792    0.73000002    2.59999990
   20.19916534  106.42900085    0.75000000    2.59999990
   20.20055580  102.56300354    0.75000000    2.59999990
   20.20388985   97.89240265    0.79000002    2.59999990
   20.20694542  104.30500031    0.79000002    2.59999990
   20.21027946  102.87400055    0.83999997    2.59999990
   20.21361160   95.67780304    0.81999999    2.59999990
   20.21666718   97.23329926    0.81999999    2.59999990
   20.22000122   99.58370209    0.80000001    2.59999990
   20.22305679   96.76360321    0.79000002    2.61999989
   20.22916794   96.76360321    0.80000001    2.59999990
   20.23333359  102.40100098    0.80000001    2.59999990
   20.23638916   96.44180298    0.76999998    2.59999990
   20.23972321   93.04180145    0.76999998    2.59999990
   20.24305534   98.28220367    0.76999998    2.59999990
   20.24611092   93.01770020    0.79000002    2.59999990
   20.24944496   96.64199829    0.76999998    2.57999992
   20.25277710  100.34200287    0.76999998    2.59999990
   20.25583267   96.06790161    0.76999998    2.57999992
   20.25916672   96.67739868    0.76999998    2.57999992
   20.26222229   99.37460327    0.79000002    2.59999990
   20.26555634  100.15599823    0.76999998    2.59999990
   20.26611137   94.32779694    0.76999998    2.59999990
   20.27194405   94.32779694    0.76999998    2.59999990
   20.27611160  101.77300262    0.76999998    2.59999990
   20.27944374   96.91909790    0.76999998    2.57999992
   20.28249931   99.81829834    0.76999998    2.57999992
   20.28583336  102.86199951    0.76999998    2.57999992
   20.28916550   92.28369904    0.76999998    2.57999992
   20.29222107   96.29620361    0.76999998    2.57999992
   20.29555511  101.47599792    0.76999998    2.57999992
   20.29861069  106.22899628    0.76999998    2.57999992
   20.29944420  102.85700226    0.76999998    2.57999992
   20.30222130  104.16000366    0.76999998    2.57999992
   20.30555534   96.03119659    0.79000002    2.57999992
   20.30888748  110.96700287    0.79000002    2.57999992
   20.31472206  110.96700287    0.88000000    2.57999992
   20.31888962  105.23500061    0.98000002    2.57999992
   20.32222366   96.55519867    0.98000002    2.57999992
   20.32555580  105.48500061    1.14999998    2.57999992
   20.32861137  100.61699677    1.39999998    2.57999992
   20.33194542   95.55529785    1.09000003    2.57999992
   20.33277893  102.98200226    1.30999994    2.53999996
   20.33555603  107.46299744    2.28999996    2.42000008
   20.33861160  105.80500031    3.05999994    2.46000004
   20.34194565  113.94999695    4.67999983    2.57999992
   20.34500122  109.99700165    4.19999981    2.57999992
   20.34833336   98.09980011    3.23000002    2.55999994
   20.35166740  107.22399902    2.96000004    2.55999994
   20.35777855  107.22399902    4.48999977    1.88000000
   20.36194420  109.58300018    4.90999985    2.34999990
   20.36499977   93.73960114    4.90999985    2.53999996
   20.36611176  104.29799652    4.90999985    2.59999990
   20.36888885  101.88700104    4.90999985    2.57999992
   20.37194443  111.19799805    3.21000004    2.57999992
   20.37527847  103.42199707    2.13000011    2.57999992
   20.37833405  102.58399963    2.26999998    2.57999992
   20.38166618  102.48300171    2.57999992    2.57999992
   20.38500023  100.74199677    2.98000002    2.55999994
   20.38805580  108.40399933    3.20000005    2.55999994
   20.39138794  108.56300354    3.01999998    2.55999994
   20.39472198  109.57499695    2.13000011    2.55999994
   20.40055466  109.57499695    1.25000000    2.55999994
   20.40472221  103.19000244    0.94000000    2.55999994
   20.40777779  101.01599884    0.89999998    2.53999996
   20.41110992  107.87999725    0.94000000    2.55999994
   20.41444397   98.92230225    1.03999996    2.53999996
   20.41749954  101.16699982    1.07000005    2.55999994
   20.42083359  105.27799988    1.09000003    2.55999994
   20.42416573  109.89099884    1.25000000    2.53999996
   20.42722130  115.85199738    1.33000004    2.53999996
   20.43055534  116.58100128    1.48000002    2.42000008
   20.43277740  112.42500305    1.58000004    2.36999989
   20.43416595  116.38999939    1.75000000    2.48000002
   20.43722153  102.34700012    2.26999998    2.57999992
   20.44333267  102.34700012    1.63000000    2.55999994
   20.44749832  101.04000092    1.13000000    2.55999994
   20.45083427  108.24800110    1.05999994    2.55999994
   20.45388985  104.52300262    0.98000002    2.55999994
   20.45722389  107.59899902    0.95999998    2.55999994
   20.46055603  104.26100159    0.94000000    2.55999994
   20.46361160   99.52369690    0.94000000    2.55999994
   20.46611214  102.96800232    0.94000000    2.55999994
   20.46750069  101.07299805    0.94000000    2.55999994
   20.47055626   98.06600189    0.92000002    2.55999994
   20.47389030  100.62500000    0.94000000    2.53999996
   20.47694588   97.95490265    0.94000000    2.53999996
   20.48027802   99.37229919    1.78999996    2.53999996
   20.48611069   99.37229919    2.34999990    2.50000000
   20.49027824   99.36499786    3.59999990    2.28999996
   20.49361229  104.63899994    4.90999985    2.32999992
   20.49694443  109.97699738    4.90999985    2.40000010
   20.49944496  100.37999725    4.90999985    2.53999996
   20.50055504  106.51799774    4.90999985    2.55999994
   20.50361061  101.90399933    4.90999985    2.51999998
   20.50694466  100.14600372    4.90999985    2.53999996
   20.51000023  161.48300171    4.90999985    2.09999990
   20.51333427  115.89299774    4.90999985    2.26999998
   20.51666641  101.45400238    4.90999985    2.50000000
   20.51972198  107.91300201    4.90999985    2.53999996
   20.52305603  105.84899902    4.90999985    2.53999996
   20.52916718  105.84899902    4.90999985    2.57999992
   20.53333282  330.21701050    4.90999985    2.21000004
   20.53638840  191.88900757    4.90999985    1.76999998
   20.53972244  141.99800110    4.90999985    1.50000000
   20.54277802   -1.00000000    4.90999985    1.50000000
   20.54611015   -1.00000000    4.90999985    0.95999998
   20.54944420   -1.00000000    4.90999985    0.98000002
   20.55249977   -1.00000000    4.90999985    1.13000000
   20.55583191  194.34100342    4.90999985    1.26999998
   20.55916595  108.53099823    4.90999985    2.05999994
   20.56222153  110.40399933    4.90999985    2.21000004
   20.56555557  114.52999878    4.90999985    2.57999992
   20.56611061  112.75199890    4.90999985    2.55999994
   20.57194519  112.75199890    4.90999985    2.55999994
   20.57611275  106.83200073    3.64000010    2.53999996
   20.57916832  102.80200195    1.19000006    2.51999998
   20.58250046   96.43969727    1.00000000    2.51999998
   20.58583450  103.96600342    0.95999998    2.53999996
   20.58916664  109.32900238    0.95999998    2.51999998
   20.59222221   97.44000244    1.00000000    2.51999998
   20.59555626  101.43599701    1.00000000    2.51999998
   20.59861183  104.27300262    1.00000000    2.51999998
   20.59944534  103.02799988    1.01999998    2.51999998
   20.60250092  103.13700104    1.19000006    2.51999998
   20.60555649  105.20899963    1.69000006    2.51999998
   20.60888863   96.53399658    1.78999996    2.51999998
   20.61472321   96.53399658    2.82999992    2.53999996
   20.61888885   93.57910156    4.69999981    2.51999998
   20.62222290   92.82140350    4.90999985    2.51999998
   20.62527847   98.78589630    4.90999985    2.51999998
   20.62861061  107.98400116    4.90999985    2.53999996
   20.63194466  116.51100159    4.90999985    2.51999998
   20.63277817  111.12000275    4.90999985    2.51999998
   20.63555527  116.25399780    4.90999985    2.51999998
   20.63861084  101.11900330    4.90999985    2.50000000
   20.64194489  101.10900116    4.90999985    2.53999996
   20.64527702   92.84739685    4.90999985    2.55999994
   20.64833260  109.53800201    4.69999981    2.09999990
   20.65166664  173.35099792    4.90999985    1.96000004
   20.65749931  173.35099792    4.90999985    2.34999990
   20.66166687  107.75800323    4.90999985    2.51999998
   20.66499901   97.81330109    4.90999985    2.50000000
   20.66611099  111.19799805    4.26000023    2.51999998
   20.66860962  105.77300262    1.94000006    2.51999998
   20.67166519   99.42510223    1.05999994    2.50000000
   20.67499924   95.46299744    0.98000002    2.50000000
   20.67833328  101.07800293    0.98000002    2.48000002
   20.68138885   98.04509735    1.03999996    2.48000002
   20.68472099   96.55079651    1.30999994    2.50000000
   20.68777657  100.86499786    1.66999996    2.50000000
   20.69111061   93.63359833    4.51000023    2.50000000
   20.69444275  105.63400269    4.90999985    2.50000000
   20.70055580  105.63400269    4.90999985    2.51999998
   20.70472336  173.91200256    4.90999985    2.51999998
   20.70777893  211.41499329    4.90999985    2.51999998
   20.71111107  233.77200317    4.90999985    2.21000004
   20.71416664  212.27000427    4.90999985    2.40000010
   20.71750069   -1.00000000    4.90999985    2.00000000
   20.72083473   -1.00000000    4.90999985    1.63000000
   20.72389030   -1.00000000    4.90999985    2.55999994
   20.72722244   -1.00000000    4.90999985    2.64000010
   20.73027802   -1.00000000    4.90999985    2.39000010
   20.73388863   -1.00000000    4.90999985    1.48000002
   20.73722267   -1.00000000    4.90999985    0.86000001
   20.74749947   -1.00000000    4.90999985    0.98000002
   20.75055504   -1.00000000    4.90999985    1.26999998
   20.75388908   -1.00000000    4.90999985    1.21000004
   20.75694466   -1.00000000    4.90999985    2.15000010
   20.76027870   -1.00000000    4.90999985    2.40000010
   20.76361084   -1.00000000    4.90999985    1.91999996
   20.76694489   -1.00000000    4.90999985    2.23000002
   20.77027702   -1.00000000    4.90999985    2.30999994
   20.77361107   -1.00000000    4.90999985    2.03999996
   20.77666664   -1.00000000    4.90999985    2.21000004
   20.78000069   -1.00000000    4.90999985    2.50000000
   20.79027748   -1.00000000    1.96000004    2.46000004
   20.79333305   -1.00000000    1.64999998    2.39000010
   20.79666710   -1.00000000    1.75000000    2.40000010
   20.79999924   -1.00000000    3.23000002    2.46000004
   20.80333328   -1.00000000    3.25000000    2.46000004
   20.80666542   -1.00000000    2.80999994    2.46000004
   20.80972099   -1.00000000    2.36999989    2.46000004
   20.81305504   -1.00000000    2.36999989    2.46000004
   20.81638718   -1.00000000    2.57999992    2.46000004
   20.81944466   -1.00000000    2.15000010    2.46000004
   20.82277870   -1.00000000    1.75000000    2.46000004
   20.83305550   -1.00000000    2.36999989    2.44000006
   20.83638954   -1.00000000    2.69000006    2.44000006
   20.83944511   -1.00000000    3.25000000    2.46000004
   20.84277916   -1.00000000    3.51999998    2.48000002
   20.84611130   -1.00000000    4.90999985    2.42000008
   20.84916687   -1.00000000    4.90999985    2.42000008
   20.85250092   -1.00000000    4.90999985    2.44000006
   20.85555649   -1.00000000    4.90999985    2.46000004
   20.85888863   -1.00000000    4.90999985    2.46000004
   20.86222267   -1.00000000    2.64000010    2.34999990
   20.86527824   -1.00000000    4.78000021    2.46000004
   20.87583351   -1.00000000    2.80999994    2.44000006
   20.87916756   -1.00000000    1.44000006    2.44000006
   20.88249969   -1.00000000    1.34000003    2.44000006
   20.90222168   -1.00000000    1.55999994    2.46000004
   20.90555573   -1.00000000    1.91999996    2.44000006
   20.90861130   -1.00000000    2.01999998    2.46000004
   20.91888809   -1.00000000    4.09999990    2.30999994
   20.92222214   -1.00000000    4.90999985    2.50000000
   20.92527771   -1.00000000    4.90999985    2.21000004
   20.92860985   -1.00000000    4.90999985    2.25000000
   20.93166542   -1.00000000    4.90999985    2.42000008
   20.93527603   -1.00000000    4.90999985    2.03999996
   20.93833160   -1.00000000    4.90999985    1.94000006
   20.94166565   -1.00000000    4.90999985    1.64999998
   20.94499969   -1.00000000    4.90999985    1.60000002
   20.94805527   -1.00000000    4.90999985    0.67000002
   20.95138931   -1.00000000    4.90999985    1.09000003
   20.96166801   -1.00000000    4.90999985    2.32999992
   20.96500015   -1.00000000    4.90999985    2.07999992
   20.96861076   -1.00000000    4.90999985    0.94000000
   20.97166634   -1.00000000    4.90999985    0.86000001
   20.97500038   -1.00000000    4.90999985    0.95999998
   20.97833443   -1.00000000    4.90999985    1.88000000
   20.98139000   -1.00000000    4.90999985    1.78999996
   20.98472214   -1.00000000    4.90999985    1.09000003
   20.98777771   -1.00000000    4.90999985    1.03999996
   20.99111176   -1.00000000    4.90999985    1.38000000
   20.99444389   -1.00000000    4.90999985    1.71000004
   21.00499916   -1.00000000    4.90999985    2.46000004
   21.00805473   -1.00000000    4.90999985    1.55999994
   21.01138878   -1.00000000    4.90999985    1.78999996
   21.01472282   -1.00000000    4.90999985    2.40000010
   21.01777840   -1.00000000    4.90999985    1.98000002
   21.02111053   -1.00000000    4.90999985    0.81999999
