    HOUR (UT)   FLARE FACTOR    SKY TESTER    SUN TESTER
   15.25638866   -1.00000000   -1.00000000   -1.00000000
   15.37138939   -1.00000000   -1.00000000   -1.00000000
   15.51333332   -1.00000000   -1.00000000   -1.00000000
   15.69861126   -1.00000000   -1.00000000   -1.00000000
   15.80000019   87.16590118    4.90999985    2.67000008
   15.80305576  127.00000000    4.90999985    2.67000008
   15.80638885  129.86500549    4.90999985    2.67000008
   15.81000042  128.82600403    4.90999985    2.67000008
   15.81305599  123.19300079    4.90999985    2.69000006
   15.81638908  123.41200256    4.90999985    2.69000006
   15.82055569  123.41200256    4.90999985    2.69000006
   15.82472229  131.24499512    4.90999985    2.69000006
   15.82777786  130.85200500    4.90999985    2.69000006
   15.83111095  127.14499664    4.90999985    2.69000006
   15.83333302  116.30300140    4.90999985    2.67000008
   15.83472157  119.12500000    4.90999985    2.69000006
   15.83805561  118.81400299    4.90999985    2.67000008
   15.84138870  131.01199341    4.90999985    2.69000006
   15.84444427  121.51499939    4.90999985    2.67000008
   15.84777737  123.73500061    4.90999985    2.69000006
   15.85083389  124.43599701    4.90999985    2.67000008
   15.85416698  111.65699768    4.90999985    2.69000006
   15.85750008  117.95600128    4.90999985    2.69000006
   15.86333370  117.95600128    4.90999985    2.71000004
   15.86750031  115.34400177    4.90999985    2.69000006
   15.87083340  116.44899750    4.90999985    2.67000008
   15.87388897  125.72899628    4.90999985    2.69000006
   15.87722206  119.86100006    4.90999985    2.69000006
   15.88027763  126.68800354    4.90999985    2.69000006
   15.88361073  119.91200256    4.90999985    2.69000006
   15.88694477  121.77600098    4.90999985    2.69000006
   15.89000034  115.03800201    4.90999985    2.67000008
   15.89333344  116.87100220    4.90999985    2.69000006
   15.89666653  120.57199860    4.90999985    2.69000006
   15.89972210  119.83300018    4.90999985    2.69000006
   15.90027714  117.87100220    4.90999985    2.69000006
   15.90611076  117.87100220    4.90999985    2.69000006
   15.91027737  115.09400177    4.90999985    2.69000006
   15.91361046  122.91699982    4.90999985    2.69000006
   15.91666698  109.99400330    4.90999985    2.67000008
   15.92000008  115.34899902    4.90999985    2.69000006
   15.92333412  113.01899719    4.90999985    2.69000006
   15.92638874  113.86499786    4.90999985    2.69000006
   15.92972279  115.16699982    4.90999985    2.69000006
   15.93305588  115.29299927    4.90999985    2.69000006
   15.93361092  115.86699677    4.90999985    2.69000006
   15.93666649  125.24199677    4.90999985    2.67000008
   15.94000053  119.82499695    4.90999985    2.69000006
   15.94305515  122.33899689    4.90999985    2.67000008
   15.94916630  122.33899689    4.90999985    2.69000006
   15.95333290  118.63200378    4.90999985    2.69000006
   15.95638847  110.38700104    4.90999985    2.69000006
   15.95972157  112.66799927    4.90999985    2.67000008
   15.96277714  116.17700195    4.90999985    2.69000006
   15.96611118  113.70300293    4.90999985    2.69000006
   15.96694374  115.56999969    4.90999985    2.69000006
   15.96972179  124.63500214    4.90999985    2.69000006
   15.97277737  114.39600372    4.90999985    2.67000008
   15.97611046  119.66600037    4.90999985    2.69000006
   15.97944355  110.24400330    4.90999985    2.69000006
   15.98249912  121.15799713    4.90999985    2.67000008
   15.98583317  114.27799988    4.90999985    2.69000006
   15.99194431  114.27799988    0.47999999    2.67000008
   15.99611092  115.84200287    0.40000001    2.67000008
   15.99916649  117.02100372    0.36000001    2.67000008
   16.00027847  122.35900116    0.36000001    2.67000008
   16.00305557  120.79599762    0.38000000    2.67000008
   16.00611115  118.95300293    0.36000001    2.67000008
   16.00944519  120.76799774    0.36000001    2.66000009
   16.01277733  129.57699585    0.36000001    2.66000009
   16.01583290  118.17900085    0.36000001    2.67000008
   16.01916695  115.71499634    0.36000001    2.66000009
   16.02249908  116.58799744    0.36000001    2.64000010
   16.02555466  116.63899994    0.36000001    2.66000009
   16.02888870  113.29699707    0.36000001    2.66000009
   16.03472137  113.29699707    0.36000001    2.67000008
   16.03888893  111.89299774    0.34000000    2.66000009
   16.04222107  117.04299927    0.34000000    2.66000009
   16.04527664  118.16699982    0.34000000    2.66000009
   16.04861069  114.12999725    0.34000000    2.67000008
   16.05166626  111.96499634    0.34000000    2.66000009
   16.05499840  111.59899902    0.34000000    2.67000008
   16.05833244  110.49800110    0.34000000    2.66000009
   16.06138802  111.32099915    0.34000000    2.67000008
   16.06472206  115.57700348    0.34000000    2.66000009
   16.06694603  113.38899994    0.34000000    2.66000009
   16.06833458  112.91600037    0.34000000    2.67000008
   16.07139015  108.57599640    0.34000000    2.67000008
   16.07750130  108.57599640    0.34000000    2.66000009
   16.08166695  111.42199707    0.34000000    2.66000009
   16.08500099  112.09200287    0.34000000    2.66000009
   16.08805656  115.08200073    0.34000000    2.66000009
   16.09138870  116.41799927    0.34000000    2.66000009
   16.09472275  112.07900238    0.36000001    2.67000008
   16.09777832  118.90799713    0.36000001    2.67000008
   16.10027885  110.78600311    0.36000001    2.66000009
   16.10166740  113.17400360    0.36000001    2.67000008
   16.10472298  122.33399963    0.36000001    2.66000009
   16.10805511  111.57299805    0.36000001    2.66000009
   16.11138916  114.02700043    0.36000001    2.67000008
   16.11444473  109.72299957    0.38000000    2.66000009
   16.12055588  109.72299957    0.36000001    2.67000008
   16.12444496  120.64600372    0.36000001    2.67000008
   16.12777710  114.74299622    0.36000001    2.67000008
   16.13111115  113.33300018    0.36000001    2.67000008
   16.13361168  112.84300232    0.36000001    2.67000008
   16.13472176  115.78900146    0.34000000    2.66000009
   16.13777733  118.06600189    0.34000000    2.66000009
   16.14111137  117.75599670    0.34000000    2.66000009
   16.14444351  111.19899750    0.34000000    2.67000008
   16.14749908  116.41400146    0.34000000    2.67000008
   16.15083313  116.69899750    0.34000000    2.66000009
   16.15416718  116.17299652    0.34000000    2.66000009
   16.15722275  111.43099976    0.34000000    2.66000009
   16.16333389  111.43099976    0.34000000    2.66000009
   16.16749954  120.79299927    0.34000000    2.66000009
   16.17055511  121.98999786    0.34000000    2.67000008
   16.17388916  115.94699860    0.36000001    2.67000008
   16.17722130  116.86799622    0.38000000    2.67000008
   16.18027687  113.69300079    0.36000001    2.67000008
   16.18361092  111.26100159    0.38000000    2.67000008
   16.18666649  115.75900269    0.38000000    2.66000009
   16.18999863  112.90699768    0.36000001    2.66000009
   16.19333267  118.39299774    0.38000000    2.66000009
   16.19638824  113.42800140    0.38000000    2.67000008
   16.20000076  111.25000000    0.40000001    2.66000009
   16.20055580  118.66200256    0.40000001    2.66000009
   16.20611191  118.66200256    0.36000001    2.66000009
   16.21027946  112.95999908    0.36000001    2.66000009
   16.21361160  111.15699768    0.36000001    2.67000008
   16.21666718  119.59500122    0.36000001    2.67000008
   16.22000122  114.14600372    0.36000001    2.66000009
   16.22305679  114.50099945    0.38000000    2.67000008
   16.22638893  113.03299713    0.40000001    2.67000008
   16.22972298  117.59899902    0.38000000    2.67000008
   16.23277855  111.30799866    0.38000000    2.66000009
   16.23388863  115.02200317    0.38000000    2.66000009
   16.23666763  111.61399841    0.38000000    2.66000009
   16.23972321  117.79799652    0.40000001    2.67000008
   16.24305534  112.42900085    0.38000000    2.67000008
   16.24888992  112.42900085    0.40000001    2.66000009
   16.25305557  116.87000275    0.40000001    2.67000008
   16.25638962  112.21600342    0.40000001    2.67000008
   16.25944519  114.17800140    0.38000000    2.67000008
   16.26277733  119.51799774    0.38000000    2.66000009
   16.26611137  114.14900208    0.38000000    2.66000009
   16.26722145  108.15699768    0.38000000    2.66000009
   16.26972198  113.71299744    0.38000000    2.67000008
   16.27277756  116.34999847    0.40000001    2.67000008
   16.27611160  110.78399658    0.40000001    2.67000008
   16.27944374  119.63899994    0.40000001    2.67000008
   16.28249931  122.41000366    0.41999999    2.66000009
   16.28583336  115.89199829    0.38000000    2.66000009
   16.29194450  115.89199829    0.36000001    2.66000009
   16.29583359  117.95800018    0.36000001    2.67000008
   16.29916573  119.69699860    0.38000000    2.66000009
   16.30055428  116.46800232    0.36000001    2.66000009
   16.30277634  119.33399963    0.36000001    2.66000009
   16.30583191  111.14099884    0.38000000    2.66000009
   16.30916595  112.47499847    0.38000000    2.64000010
   16.31250000  113.78600311    0.38000000    2.64000010
   16.31555557  110.86100006    0.40000001    2.64000010
   16.31888962  118.04599762    0.38000000    2.64000010
   16.32222366  117.22200012    0.38000000    2.61999989
   16.32527924  116.63899994    0.40000001    2.61999989
   16.32861137  121.96900177    0.40000001    2.61999989
   16.33472252  121.96900177    0.38000000    2.64000010
   16.33889008  117.28099823    0.38000000    2.64000010
   16.34194565  126.60099792    0.38000000    2.64000010
   16.34527779  116.95400238    0.38000000    2.61999989
   16.34861183  121.52999878    0.38000000    2.64000010
   16.35166740  129.98199463    0.38000000    2.64000010
   16.35499954  124.66300201    0.38000000    2.61999989
   16.35805511  130.84199524    0.38000000    2.64000010
   16.36138916  121.33899689    0.38000000    2.64000010
   16.36472321  116.34999847    0.38000000    2.64000010
   16.36722183  116.69999695    0.36000001    2.64000010
   16.36833382  122.31400299    0.36000001    2.64000010
   16.37138939  113.15899658    0.36000001    2.61999989
   16.37750053  113.15899658    0.38000000    2.61999989
   16.38166618  123.01100159    0.40000001    2.64000010
   16.38472176  122.47399902    0.40000001    2.64000010
   16.38805580  118.09500122    0.41999999    2.64000010
   16.39138794  115.07900238    0.41999999    2.61999989
   16.39472198  118.00099945    0.44000000    2.64000010
   16.39777756  122.41600037    0.46000001    2.64000010
   16.40055466  120.74500275    0.47999999    2.64000010
   16.40138817  116.32299805    0.47999999    2.64000010
   16.40444374  116.64399719    0.47999999    2.64000010
   16.40777779  122.15399933    0.47999999    2.64000010
   16.41110992  119.35600281    0.47999999    2.61999989
   16.41416550  113.03199768    0.47999999    2.64000010
   16.42027664  113.03199768    0.47999999    2.64000010
   16.42444420  110.76200104    0.50000000    2.64000010
   16.42777634  122.27799988    0.50000000    2.61999989
   16.43083191  119.04399872    0.50000000    2.61999989
   16.43388748  112.44400024    0.50000000    2.61999989
   16.43472099  117.86900330    0.50000000    2.61999989
   16.43777657  119.23200226    0.50000000    2.64000010
   16.44111061  121.77300262    0.50000000    2.61999989
   16.44444275  108.07299805    0.50000000    2.64000010
   16.44805527  111.99199677    0.47999999    2.64000010
   16.45111275  116.91999817    0.47999999    2.61999989
   16.45444489  112.71700287    0.47999999    2.61999989
   16.45750046  117.15100098    0.47999999    2.64000010
   16.46333504  117.15100098    0.46000001    2.64000010
   16.46722221  118.08499908    0.46000001    2.64000010
   16.47055626  120.83300018    0.46000001    2.64000010
   16.47389030  120.46600342    0.46000001    2.64000010
   16.47694588  119.41600037    0.46000001    2.64000010
   16.48027802  117.78700256    0.46000001    2.64000010
   16.48333359  114.46099854    0.46000001    2.64000010
   16.48666763  117.35299683    0.46000001    2.64000010
   16.48999977  122.10199738    0.44000000    2.64000010
   16.49305534  121.14299774    0.44000000    2.61999989
   16.49638939  113.56800079    0.44000000    2.61999989
   16.49972153  116.09899902    0.44000000    2.64000010
   16.50055504  121.76300049    0.44000000    2.64000010
   16.50611115  121.76300049    0.44000000    2.64000010
   16.51027870  112.10399628    0.46000001    2.64000010
   16.51333427  114.41500092    0.44000000    2.64000010
   16.51666641  108.93900299    0.44000000    2.64000010
   16.52000046  109.44899750    0.44000000    2.64000010
   16.52305603  113.05899811    0.44000000    2.64000010
   16.52638817  114.35399628    0.44000000    2.64000010
   16.52944374  113.13300323    0.46000001    2.64000010
   16.53277779  111.92400360    0.46000001    2.61999989
   16.53388786  116.99900055    0.46000001    2.64000010
   16.53638840  105.84899902    0.46000001    2.64000010
   16.53972244  113.94499969    0.46000001    2.64000010
   16.54277802  109.46199799    0.46000001    2.64000010
   16.54888916  109.46199799    0.46000001    2.64000010
   16.55305481  142.67199707    0.44000000    2.64000010
   16.55611038  155.43600464    0.41999999    2.64000010
   16.55944443  164.97300720    0.44000000    2.64000010
   16.56277657  156.60299683    0.41999999    2.64000010
   16.56583214  165.50100708    0.44000000    2.61999989
   16.56722260  159.75100708    0.44000000    2.64000010
   16.56944466  141.41600037    0.41999999    2.64000010
   16.57277870  163.25999451    0.44000000    2.64000010
   16.57583427  169.05099487    0.41999999    2.64000010
   16.57916832  155.99200439    0.44000000    2.64000010
   16.58222389  139.77299500    0.41999999    2.61999989
   16.58555603  156.42900085    0.41999999    2.64000010
   16.59166718  156.42900085    0.41999999    2.64000010
   16.59583473  138.53399658    0.41999999    2.64000010
   16.59916687  136.18699646    0.41999999    2.64000010
   16.60055542  158.15299988    0.41999999    2.64000010
   16.60277748  135.87600708    0.41999999    2.64000010
   16.60611153  127.06600189    0.41999999    2.61999989
   16.60916710  135.82699585    0.40000001    2.61999989
   16.61250114  128.36599731    0.41999999    2.61999989
   16.61555672  120.47899628    0.40000001    2.64000010
   16.61888885  135.30499268    0.41999999    2.64000010
   16.62222290  143.02400208    0.41999999    2.64000010
   16.62527847  134.87100220    0.41999999    2.64000010
   16.62861061  121.19799805    0.41999999    2.64000010
   16.63472176  121.19799805    0.41999999    2.64000010
   16.63861084  136.43600464    0.44000000    2.64000010
   16.64194489  121.50099945    0.44000000    2.64000010
   16.64527702  131.02099609    0.47999999    2.64000010
   16.64833260  120.54599762    0.47999999    2.64000010
   16.65166664  113.82599640    0.47999999    2.64000010
   16.65472221  136.61399841    0.47999999    2.64000010
   16.65805435  136.96099854    0.47999999    2.64000010
   16.66138840  132.41600037    0.50000000    2.64000010
   16.66444397  111.66200256    0.50000000    2.64000010
   16.66722107  115.20999908    0.50000000    2.64000010
   16.66805458  121.18900299    0.50000000    2.64000010
   16.67138863  129.14799500    0.50000000    2.64000010
   16.67749977  129.14799500    0.50000000    2.64000010
   16.68166542  129.26199341    0.50000000    2.64000010
   16.68472099  115.34200287    0.50000000    2.61999989
   16.68805504  121.28600311    0.50000000    2.64000010
   16.69138718  113.48100281    0.50000000    2.64000010
   16.69444275  119.59500122    0.50000000    2.64000010
   16.69777679  113.37999725    0.50000000    2.64000010
   16.70055580  116.70700073    0.47999999    2.61999989
   16.70138931  114.10900116    0.47999999    2.64000010
   16.70472336  117.06099701    0.50000000    2.64000010
   16.70777893  116.87799835    0.50000000    2.64000010
   16.71111107  122.12999725    0.47999999    2.61999989
   16.71416664  109.34799957    0.47999999    2.64000010
   16.72027779  109.34799957    0.47999999    2.64000010
   16.72444534  115.32399750    0.47999999    2.64000010
   16.72777748  114.36100006    0.50000000    2.64000010
   16.73083305  119.27700043    0.47999999    2.64000010
   16.73388863  113.76300049    0.47999999    2.64000010
   16.73444557  116.26300049    0.47999999    2.64000010
   16.73777771  114.81999969    0.47999999    2.64000010
   16.74083328  110.79599762    0.47999999    2.64000010
   16.74416733  114.33300018    0.50000000    2.64000010
   16.74749947  114.04900360    0.50000000    2.64000010
   16.75083351  112.34400177    0.47999999    2.64000010
   16.75388908  125.86599731    0.47999999    2.64000010
   16.75722313  112.23899841    0.47999999    2.64000010
   16.76305580  112.23899841    0.47999999    2.64000010
   16.76722145  112.70400238    0.46000001    2.64000010
   16.76777840  119.46199799    0.46000001    2.64000010
   16.77111053  116.81600189    0.47999999    2.64000010
   16.77416611  131.87699890    0.47999999    2.64000010
   16.77750015  110.44599915    0.46000001    2.64000010
   16.78055573  131.44099426    0.47999999    2.64000010
   16.78388786  117.28299713    0.46000001    2.64000010
   16.78722191  124.79199982    0.47999999    2.64000010
   16.79027748  125.24500275    0.47999999    2.64000010
   16.79361153  120.58699799    0.46000001    2.61999989
   16.79694366  121.03500366    0.46000001    2.64000010
   16.79999924  116.11900330    0.47999999    2.64000010
   16.81722260  129.19900513    0.44000000    2.64000010
   16.82139015  129.19900513    0.44000000    2.64000010
   16.82555580  126.25099945    0.44000000    2.64000010
   16.82861137  120.79900360    0.44000000    2.64000010
   16.83194542  122.99400330    0.44000000    2.64000010
   16.83500099  121.21099854    0.44000000    2.61999989
   16.83833313  124.15299988    0.44000000    2.64000010
   16.84166718  127.36699677    0.44000000    2.66000009
   16.84472275  117.08000183    0.44000000    2.64000010
   16.84805679  123.54299927    0.44000000    2.64000010
   16.85027885  119.79699707    0.44000000    2.64000010
   16.85166740  121.23000336    0.44000000    2.64000010
   16.85499954  113.08399963    0.46000001    2.64000010
   16.85805511  116.72200012    0.44000000    2.64000010
   16.86416626  116.72200012    0.44000000    2.64000010
   16.86833382  116.51699829    0.46000001    2.64000010
   16.87138939  122.57599640    0.46000001    2.64000010
   16.87472153  117.64800262    0.46000001    2.64000010
   16.87805557  125.38700104    0.46000001    2.64000010
   16.88111115  116.09300232    0.46000001    2.64000010
   16.88388824  123.48999786    0.46000001    2.64000010
   16.88472176  118.72399902    0.46000001    2.64000010
   16.88805580  118.78399658    0.46000001    2.61999989
   16.89111137  117.73300171    0.46000001    2.64000010
   16.89444351  114.72399902    0.44000000    2.64000010
   16.89777756  117.46600342    0.44000000    2.64000010
   16.90083313  124.96099854    0.44000000    2.66000009
   16.90694427  124.96099854    0.44000000    2.64000010
   16.91110992  123.99800110    0.44000000    2.64000010
   16.91444397  116.34899902    0.44000000    2.64000010
   16.91694450  114.55100250    0.46000001    2.64000010
   16.91805458  114.11199951    0.46000001    2.64000010
   16.92138863  115.94400024    0.46000001    2.64000010
   16.92444420  114.71099854    0.47999999    2.64000010
   16.92777634  112.05599976    0.47999999    2.64000010
   16.93111038  113.74299622    0.47999999    2.64000010
   16.93416595  112.38600159    0.47999999    2.64000010
   16.93750000  112.43199921    0.46000001    2.64000010
   16.94083214  114.64199829    0.46000001    2.64000010
   16.94416618  116.49400330    0.47999999    2.64000010
   16.94972038  116.49400330    0.47999999    2.64000010
   16.95388985  109.01999664    0.46000001    2.64000010
   16.95722389  111.26000214    0.46000001    2.66000009
   16.96055603  110.92400360    0.46000001    2.64000010
   16.96361160  114.71199799    0.47999999    2.64000010
   16.96694565  113.57399750    0.47999999    2.64000010
   16.97000122  119.59899902    0.47999999    2.64000010
   16.97333336  120.00499725    0.50000000    2.64000010
   16.97666740  111.90100098    0.50000000    2.64000010
   16.97972298  118.40299988    0.51999998    2.64000010
   16.98305511  113.51100159    0.51999998    2.64000010
   16.98500061  120.59300232    0.51999998    2.64000010
   16.98694420  114.19699860    0.51999998    2.64000010
   16.99277878  114.19699860    0.51999998    2.64000010
   16.99694443  111.35500336    0.51999998    2.64000010
   17.00000000  110.79199982    0.51999998    2.61999989
   17.00333405  118.22499847    0.51999998    2.64000010
   17.00638962  110.34999847    0.50000000    2.64000010
   17.00972176  125.24900055    0.51999998    2.64000010
   17.01305580  119.23300171    0.50000000    2.64000010
   17.01611137  111.69000244    0.51999998    2.64000010
   17.01833344  118.65399933    0.51999998    2.64000010
   17.02000046  111.23300171    0.51999998    2.64000010
   17.02305603  122.44400024    0.51999998    2.64000010
   17.02638817  118.85700226    0.51999998    2.64000010
   17.02944374  116.43099976    0.51999998    2.64000010
   17.03555489  116.43099976    0.51999998    2.64000010
   17.03972244  116.94599915    0.51999998    2.64000010
   17.04277802  123.98000336    0.52999997    2.64000010
   17.04611015  125.61199951    0.52999997    2.64000010
   17.04944420  124.26100159    0.52999997    2.64000010
   17.05166626  119.09799957    0.51999998    2.64000010
   17.05305481  108.58999634    0.51999998    2.64000010
   17.05638885  122.81600189    0.51999998    2.64000010
   17.05944443  115.78700256    0.51999998    2.64000010
   17.06277657  114.95500183    0.51999998    2.64000010
   17.06583214  116.51300049    0.50000000    2.64000010
   17.06916809  117.26000214    0.50000000    2.64000010
   17.07250023  113.31500244    0.47999999    2.64000010
   17.07833481  113.31500244    0.46000001    2.64000010
   17.08250046  121.98999786    0.46000001    2.64000010
   17.08500099  112.51799774    0.46000001    2.64000010
   17.08611107  118.09300232    0.46000001    2.64000010
   17.08944511  114.10900116    0.46000001    2.64000010
   17.09250069  117.04799652    0.44000000    2.64000010
   17.09583473  113.36599731    0.44000000    2.64000010
   17.09889030  117.51499939    0.44000000    2.64000010
   17.10222244  110.86900330    0.44000000    2.66000009
   17.10555649  117.39299774    0.44000000    2.64000010
   17.10861206  116.92900085    0.44000000    2.64000010
   17.11194420  123.40599823    0.41999999    2.64000010
   17.11527824  113.71800232    0.44000000    2.64000010
   17.12111092  113.71800232    0.44000000    2.64000010
   17.12527847  119.87100220    0.44000000    2.64000010
   17.12861061  118.59200287    0.44000000    2.66000009
   17.13194466  112.87799835    0.46000001    2.64000010
   17.13500023  113.05699921    0.46000001    2.64000010
   17.13833237  121.56099701    0.44000000    2.64000010
   17.14138794  118.51899719    0.44000000    2.66000009
   17.14472198  126.00000000    0.44000000    2.64000010
   17.14805603  124.11299896    0.44000000    2.66000009
   17.15111160  113.18199921    0.44000000    2.64000010
   17.15222168  117.56400299    0.44000000    2.64000010
   17.15499878  118.68599701    0.44000000    2.64000010
   17.15805435  121.91999817    0.44000000    2.66000009
   17.16416550  121.91999817    0.41999999    2.66000009
   17.16833305  120.33000183    0.44000000    2.66000009
   17.17138863  117.05300140    0.41999999    2.66000009
   17.17472076  120.28500366    0.44000000    2.66000009
   17.17777634  116.84600067    0.44000000    2.64000010
   17.18111038  116.56900024    0.44000000    2.64000010
   17.18444443  120.99400330    0.44000000    2.66000009
   17.18555450  118.63600159    0.44000000    2.64000010
   17.18777657  124.15699768    0.44000000    2.64000010
   17.19111061  121.87300110    0.44000000    2.64000010
   17.19444275  115.86599731    0.46000001    2.64000010
   17.19749832  125.85399628    0.44000000    2.64000010
   17.20083427  118.26899719    0.44000000    2.64000010
   17.20694542  118.26899719    0.44000000    2.64000010
   17.21111107  114.62899780    0.44000000    2.66000009
   17.21444511  121.16999817    0.46000001    2.66000009
   17.21750069  113.38400269    0.44000000    2.64000010
   17.21916771  109.74099731    0.44000000    2.64000010
   17.22111130  114.59500122    0.44000000    2.64000010
   17.22444534  111.56199646    0.44000000    2.64000010
   17.22750092  123.90399933    0.44000000    2.64000010
   17.23083305  114.28700256    0.44000000    2.64000010
   17.23416710  118.50599670    0.46000001    2.66000009
   17.23722267  117.89299774    0.44000000    2.64000010
   17.24055672  115.50700378    0.44000000    2.64000010
   17.24388885  119.85399628    0.44000000    2.64000010
   17.24972153  119.85399628    0.44000000    2.64000010
   17.25388908  115.93800354    0.44000000    2.64000010
   17.25722313  118.16200256    0.44000000    2.64000010
   17.26027870  118.67900085    0.44000000    2.64000010
   17.26361084  113.42900085    0.41999999    2.64000010
   17.26694489  117.50599670    0.41999999    2.64000010
   17.27000046  114.41300201    0.41999999    2.64000010
   17.27333260  116.53900146    0.44000000    2.64000010
   17.27666664  110.15499878    0.44000000    2.66000009
   17.27972221  111.75900269    0.41999999    2.66000009
   17.28305435  115.69599915    0.41999999    2.66000009
   17.28583336  115.95700073    0.41999999    2.64000010
   17.28666687  126.13600159    0.41999999    2.64000010
   17.29249954  126.13600159    0.41999999    2.64000010
   17.29666710  124.29199982    0.44000000    2.66000009
   17.29999924  121.37200165    0.41999999    2.64000010
   17.30333328  108.83000183    0.44000000    2.64000010
   17.30638885  117.42900085    0.41999999    2.66000009
   17.30972099  117.56600189    0.56999999    2.67000008
   17.31277657  112.93000031    0.41999999    2.67000008
   17.31611061  115.28500366    0.41999999    2.66000009
   17.31916809  118.32700348    0.41999999    2.66000009
   17.31972313  118.23300171    0.41999999    2.66000009
   17.32305717  114.51999664    0.41999999    2.66000009
   17.32611275  113.96199799    0.41999999    2.67000008
   17.32944489  108.95899963    0.41999999    2.66000009
   17.33555603  108.95899963    0.41999999    2.66000009
   17.33972359  117.66100311    0.41999999    2.64000010
   17.34277916  116.44100189    0.41999999    2.64000010
   17.34611130  117.66300201    0.41999999    2.64000010
   17.34916687  113.58100128    0.44000000    2.64000010
   17.35250092  109.28900146    0.41999999    2.64000010
   17.35277748  106.16400146    0.41999999    2.64000010
   17.35611153  114.14700317    0.41999999    2.66000009
   17.35916710  117.38500214    0.44000000    2.66000009
   17.36250114  115.58899689    0.44000000    2.66000009
   17.36583328  117.29199982    0.44000000    2.61999989
   17.36888885  117.30100250    0.44000000    2.64000010
   17.37222290  117.75000000    0.44000000    2.64000010
   17.37833405  117.75000000    0.46000001    2.64000010
   17.38249969  114.59300232    0.44000000    2.61999989
   17.38583374  129.70599365    0.46000001    2.61999989
   17.38611031  124.83599854    0.46000001    2.61999989
   17.38944435  111.40899658    0.46000001    2.64000010
   17.39249992  122.33000183    0.46000001    2.61999989
   17.39583397  121.11299896    0.47999999    2.64000010
   17.39916611  114.71600342    0.46000001    2.64000010
   17.40222168  119.66000366    0.46000001    2.61999989
   17.40555573  124.91999817    0.46000001    2.64000010
   17.40888786  112.02300262    0.46000001    2.64000010
   17.41194344  116.06900024    0.46000001    2.64000010
   17.41527748  119.50599670    0.46000001    2.64000010
   17.42111015  119.50599670    0.47999999    2.64000010
   17.42527771  114.26000214    0.46000001    2.64000010
   17.42860985  113.04299927    0.46000001    2.64000010
   17.43166542  114.73200226    0.46000001    2.64000010
   17.43499947  109.54599762    0.46000001    2.64000010
   17.43833160  114.73500061    0.46000001    2.64000010
   17.44138718  119.05699921    0.46000001    2.64000010
   17.44472122  113.83599854    0.46000001    2.64000010
   17.44777679  115.72699738    0.46000001    2.64000010
   17.45111275  116.48300171    0.44000000    2.64000010
   17.45250130  116.93000031    0.44000000    2.64000010
   17.45472336  113.34700012    0.44000000    2.64000010
   17.45805550  117.14099884    0.44000000    2.64000010
   17.46389008  117.14099884    0.41999999    2.64000010
   17.46805573  119.52300262    0.40000001    2.66000009
   17.47166634  116.40100098    0.40000001    2.66000009
   17.47500038  117.15599823    0.40000001    2.64000010
   17.47805595  113.45600128    0.40000001    2.66000009
   17.48139000  110.06500244    0.40000001    2.61999989
   17.48472214  119.17900085    0.40000001    2.64000010
   17.48583412  109.91899872    0.40000001    2.64000010
   17.48805618  114.15799713    0.40000001    2.64000010
   17.49138832  113.24299622    0.38000000    2.64000010
   17.49472237  119.44999695    0.38000000    2.64000010
   17.49777794  122.73600006    0.38000000    2.66000009
   17.50111198  122.33999634    0.38000000    2.64000010
   17.50694466  122.33999634    0.36000001    2.61999989
   17.51111031  111.31300354    0.36000001    2.64000010
   17.51416588  108.53700256    0.36000001    2.64000010
   17.51749992  117.15399933    0.38000000    2.64000010
   17.51916695  112.75000000    0.38000000    2.64000010
   17.52111053  113.79399872    0.36000001    2.64000010
   17.52444458  118.71199799    0.36000001    2.64000010
   17.52750015  116.94100189    0.36000001    2.64000010
   17.53083229  113.91899872    0.38000000    2.64000010
   17.53416634  119.92099762    0.38000000    2.64000010
   17.53722191  114.78800201    0.41999999    2.64000010
   17.54055595  124.63500214    0.41999999    2.64000010
   17.54361153  120.39199829    0.41999999    2.64000010
   17.54972076  120.39199829    0.44000000    2.64000010
   17.55388832  125.70200348    0.41999999    2.64000010
   17.55694389  123.12799835    0.41999999    2.66000009
   17.56027794  108.87799835    0.41999999    2.64000010
   17.56361008  121.35500336    0.41999999    2.64000010
   17.56666756  125.65499878    0.41999999    2.64000010
   17.57000160  114.80100250    0.44000000    2.64000010
   17.57333374  113.86000061    0.41999999    2.64000010
   17.57638931  112.48600006    0.41999999    2.64000010
   17.57972336  111.49500275    0.41999999    2.64000010
   17.58277893  118.00800323    0.41999999    2.64000010
   17.58583450  117.86799622    0.44000000    2.64000010
   17.58638954  124.77700043    0.41999999    2.64000010
   17.59250069  124.77700043    0.41999999    2.64000010
   17.59666824  113.86199951    0.41999999    2.64000010
   17.60000038  113.75700378    0.41999999    2.64000010
   17.60305595  120.23699951    0.44000000    2.64000010
   17.60639000  117.11499786    0.44000000    2.66000009
   17.60972214  112.98200226    0.44000000    2.64000010
   17.61277771  110.97299957    0.44000000    2.64000010
   17.61611176  121.60500336    0.44000000    2.66000009
   17.61916733  108.35199738    0.44000000    2.64000010
   17.61972237  109.60399628    0.44000000    2.64000010
   17.62305641  121.03800201    0.44000000    2.64000010
   17.62638855  110.89800262    0.44000000    2.61999989
   17.62944412  113.50800323    0.44000000    2.61999989
   17.63527679  113.50800323    0.41999999    2.64000010
   17.63944435  122.05699921    0.41999999    2.64000010
   17.64277840  118.38500214    0.41999999    2.64000010
   17.64611053  121.00299835    0.41999999    2.64000010
   17.64916611  111.32900238    0.41999999    2.66000009
   17.65250015  111.66400146    0.40000001    2.64000010
   17.65305519  110.68499756    0.40000001    2.64000010
   17.65611076  111.79100037    0.41999999    2.64000010
   17.65944481  114.19599915    0.41999999    2.64000010
   17.66277695  109.43399811    0.41999999    2.61999989
   17.66583252  106.24299622    0.44000000    2.64000010
   17.66916656  111.10299683    0.44000000    2.64000010
   17.67249870  111.13999939    0.44000000    2.64000010
   17.67833328  111.13999939    0.44000000    2.64000010
   17.68249893  111.06700134    0.46000001    2.64000010
   17.68555450  110.78299713    0.47999999    2.64000010
   17.68638802  109.04599762    0.47999999    2.64000010
   17.68916512  110.48699951    0.47999999    2.64000010
   17.69249916  111.18399811    0.47999999    2.64000010
   17.69583321  104.92199707    0.47999999    2.61999989
   17.69888878  107.18800354    0.46000001    2.64000010
   17.70222282  113.99700165    0.47999999    2.61999989
   17.70555687  112.80300140    0.47999999    2.64000010
   17.70861244  110.36399841    0.47999999    2.64000010
   17.71194458  110.21199799    0.47999999    2.61999989
   17.71500015  108.49800110    0.50000000    2.64000010
   17.72111130  108.49800110    0.51999998    2.61999989
   17.72527885  111.53199768    0.50000000    2.61999989
   17.72833443  114.93900299    0.50000000    2.61999989
   17.73166656  119.80000305    0.50000000    2.61999989
   17.73500061  113.24700165    0.47999999    2.64000010
   17.73805618  112.26399994    0.47999999    2.64000010
   17.74138832  108.23200226    0.47999999    2.61999989
   17.74472237  116.11000061    0.47999999    2.61999989
   17.74777794  112.35800171    0.47999999    2.64000010
   17.75111198  112.93900299    0.47999999    2.64000010
   17.75305557  121.42299652    0.47999999    2.64000010
   17.75472260  114.55000305    0.47999999    2.64000010
   17.75805473  112.40200043    0.47999999    2.64000010
   17.76388931  112.40200043    0.47999999    2.61999989
   17.76805496  109.74800110    0.47999999    2.64000010
   17.77138901  119.95999908    0.47999999    2.64000010
   17.77444458  117.59500122    0.47999999    2.64000010
   17.77777672  116.52400208    0.47999999    2.64000010
   17.78111076  117.71099854    0.47999999    2.61999989
   17.78416634  114.67700195    0.47999999    2.64000010
   17.78638840  116.85399628    0.46000001    2.61999989
   17.78777695  120.36100006    0.46000001    2.61999989
   17.79111099  117.76999664    0.46000001    2.64000010
   17.79444313  116.83499908    0.47999999    2.64000010
   17.79749870  112.91000366    0.47999999    2.61999989
   17.80083275  112.89099884    0.47999999    2.61999989
   17.80666542  112.89099884    0.46000001    2.64000010
   17.81083298  117.31500244    0.46000001    2.61999989
   17.81416512  115.30899811    0.44000000    2.64000010
   17.81750107  116.18900299    0.44000000    2.64000010
   17.83444595  117.13899994    0.44000000    2.64000010
   17.83750153  116.74199677    0.44000000    2.64000010
   17.84055710  118.53199768    0.44000000    2.61999989
   17.84388924  121.82700348    0.46000001    2.61999989
   17.84972191  121.82700348    0.50000000    2.61999989
   17.85388947  120.29399872    0.50000000    2.61999989
   17.85722351  110.50199890    0.47999999    2.64000010
   17.86055565  115.98400116    1.11000001    2.66000009
   17.86361122  113.68000031    0.94000000    2.64000010
   17.86694527  113.95500183    0.92000002    2.64000010
   17.86777878  108.18399811    0.92000002    2.64000010
   17.87055588  112.62000275    0.89999998    2.64000010
   17.87388992  109.31199646    0.88000000    2.64000010
   17.87722206  117.29799652    0.86000001    2.64000010
   17.88027763  114.29000092    0.86000001    2.64000010
   17.88361168  114.60600281    0.86000001    2.66000009
   17.88666725  119.97299957    0.86000001    2.66000009
   17.89277840  119.97299957    0.81999999    2.66000009
   17.89694405  118.40000153    0.69000000    2.64000010
   17.89999962  110.24800110    0.61000001    2.66000009
   17.90111160  114.41300201    0.58999997    2.64000010
   17.90361023  115.25000000    0.58999997    2.64000010
   17.90694427  113.80899811    0.58999997    2.64000010
   17.91027832  133.77600098    0.58999997    2.66000009
   17.91333389  145.01499939    0.63000000    2.66000009
   17.91666603  146.00500488    0.61000001    2.64000010
   17.92000008  134.07099915    0.64999998    2.64000010
   17.92305565  118.23200226    0.70999998    2.64000010
   17.92638779  131.31199646    0.70999998    2.64000010
   17.92944336  142.35099792    0.69000000    2.64000010
   17.93555450  142.35099792    0.69000000    2.66000009
   17.93972206  130.76600647    0.69000000    2.66000009
   17.94277763  135.41999817    0.67000002    2.66000009
   17.94610977  145.13299561    0.63000000    2.66000009
   17.94944382  132.12100220    0.58999997    2.66000009
   17.95250130  146.54899597    0.61000001    2.66000009
   17.95583344  135.99000549    0.58999997    2.64000010
   17.95916748  145.02799988    0.58999997    2.64000010
   17.96222305  123.33100128    0.56999999    2.66000009
   17.96555710  120.46900177    0.56999999    2.66000009
   17.96777916  116.63899994    0.56999999    2.66000009
   17.96916771  124.45500183    0.56999999    2.64000010
   17.97249985  136.66799927    0.55000001    2.64000010
   17.97833443  136.66799927    0.55000001    2.66000009
   17.98250008  114.22100067    0.55000001    2.66000009
   17.98583412  121.45700073    0.55000001    2.64000010
   17.98888969  114.08000183    0.56999999    2.64000010
   17.99222183  125.88099670    0.56999999    2.64000010
   17.99555588  119.46199799    0.56999999    2.64000010
   17.99861145  110.49099731    0.56999999    2.66000009
   18.00111198  124.81999969    0.58999997    2.66000009
   18.00222206  124.00399780    0.61000001    2.64000010
   18.00555611  127.96299744    0.63000000    2.64000010
   18.00888824  121.01799774    0.67000002    2.64000010
   18.01194382  117.91200256    0.67000002    2.64000010
   18.01527786  131.62699890    0.69000000    2.64000010
   18.02111053  131.62699890    0.69000000    2.64000010
   18.02527809  126.30000305    0.70999998    2.64000010
   18.02861023  122.80100250    0.70999998    2.64000010
   18.03194427  127.23300171    0.70999998    2.64000010
   18.03444481  129.40899658    0.70999998    2.64000010
   18.03527641  125.33799744    0.70999998    2.66000009
   18.03861046  129.33399963    0.69000000    2.64000010
   18.04194450  124.66400146    0.67000002    2.64000010
   18.04500008  123.92099762    0.67000002    2.64000010
   18.04833221  127.14199829    0.67000002    2.64000010
   18.05166626  124.10500336    0.64999998    2.64000010
   18.05472183  122.40499878    0.63000000    2.64000010
   18.05805397  123.80699921    0.61000001    2.64000010
   18.06416512  123.80699921    0.61000001    2.64000010
   18.06833458  119.87300110    0.63000000    2.64000010
   18.07139015  122.32299805    0.61000001    2.64000010
   18.07472229  122.34600067    0.61000001    2.64000010
   18.07777786  119.89800262    0.63000000    2.64000010
   18.08111191  114.08699799    0.63000000    2.66000009
   18.08444595  118.10299683    0.61000001    2.64000010
   18.08750153  127.76799774    0.61000001    2.61999989
   18.09083366  123.47699738    0.63000000    2.64000010
   18.09416771  114.75900269    0.63000000    2.64000010
   18.09722328  116.57099915    0.63000000    2.64000010
   18.10055542  122.09999847    0.63000000    2.64000010
   18.10111237  115.29199982    0.63000000    2.64000010
   18.10694504  115.29199982    0.63000000    2.64000010
   18.11111069  122.24900055    0.63000000    2.64000010
   18.11416626  117.08200073    0.63000000    2.64000010
   18.11750031  123.48899841    0.63000000    2.61999989
   18.12083435  116.52799988    0.64999998    2.64000010
   18.12388992  117.26699829    0.64999998    2.61999989
   18.12722206  113.61599731    0.67000002    2.64000010
   18.13055611  118.12599945    0.67000002    2.64000010
   18.13361168  112.87699890    0.67000002    2.64000010
   18.13444519  109.19400024    0.67000002    2.64000010
   18.13722229  111.59200287    0.64999998    2.61999989
   18.14055634  114.08000183    0.64999998    2.64000010
   18.14388847  121.87100220    0.64999998    2.64000010
   18.14972115  121.87100220    0.64999998    2.61999989
   18.15388870  113.99099731    0.64999998    2.64000010
   18.15722275  114.46800232    0.63000000    2.64000010
   18.16027832  126.54699707    0.63000000    2.64000010
   18.16361046  117.38200378    0.61000001    2.64000010
   18.16694450  119.81900024    0.61000001    2.64000010
   18.16777802  121.73799896    0.61000001    2.64000010
   18.17055511  114.44200134    0.61000001    2.66000009
   18.17361069  119.59100342    0.61000001    2.64000010
   18.17694473  126.80999756    0.63000000    2.64000010
   18.18000031  126.73699951    0.64999998    2.64000010
   18.18333244  123.09400177    0.64999998    2.61999989
   18.18666649  121.81500244    0.67000002    2.64000010
   18.19249916  121.81500244    0.67000002    2.64000010
   18.19666672  149.22999573    0.67000002    2.64000010
   18.20000076  130.00000000    0.67000002    2.64000010
   18.20111275  136.42599487    0.64999998    2.64000010
   18.20361137  143.60400391    0.64999998    2.64000010
   18.20666695  145.27200317    0.67000002    2.64000010
   18.21000099  138.02600098    0.67000002    2.64000010
   18.21333504  138.25300598    0.67000002    2.64000010
   18.21638870  128.28100586    0.67000002    2.61999989
   18.21972275  129.17999268    0.67000002    2.61999989
   18.22277832  133.79699707    0.63000000    2.61999989
   18.22611237  130.04299927    0.63000000    2.64000010
   18.22944450  127.19799805    0.63000000    2.64000010
   18.23555565  127.19799805    0.63000000    2.61999989
   18.23972321  124.21499634    0.63000000    2.61999989
   18.24277878  114.78500366    0.63000000    2.64000010
   18.24611092  121.07599640    0.61000001    2.64000010
   18.24916649  125.13200378    0.56999999    2.61999989
   18.25250053  123.98200226    0.56999999    2.64000010
   18.25583267  130.67300415    0.55000001    2.64000010
   18.25888824  119.88800049    0.55000001    2.64000010
   18.26222229  115.34200287    0.55000001    2.64000010
   18.26555634  119.28600311    0.52999997    2.61999989
   18.26777840  122.36299896    0.52999997    2.64000010
   18.26916695  118.95200348    0.52999997    2.64000010
   18.27222252  117.31199646    0.52999997    2.64000010
   18.27833366  117.31199646    0.52999997    2.64000010
   18.28249931  112.76599884    0.55000001    2.64000010
   18.28555489  115.76000214    0.56999999    2.64000010
   18.28916550  115.23000336    0.56999999    2.64000010
   18.29222107  118.49800110    0.58999997    2.61999989
   18.29555511  119.41000366    0.58999997    2.64000010
   18.29861069  114.07700348    0.63000000    2.64000010
   18.30111122  109.80500031    0.63000000    2.64000010
   18.30249977  115.56800079    0.63000000    2.61999989
   18.30555534  112.82399750    0.67000002    2.64000010
   18.30888748  121.61199951    0.67000002    2.61999989
   18.31194305  119.62100220    0.69000000    2.61999989
   18.31527710  118.13800049    0.70999998    2.61999989
   18.32111168  118.13800049    0.75000000    2.61999989
   18.32527924  109.32299805    0.76999998    2.61999989
   18.32861137  112.70200348    0.70999998    2.61999989
   18.33166695  109.56500244    0.69000000    2.61999989
   18.33444595  108.25000000    0.63000000    2.64000010
   18.33555603  119.20899963    0.61000001    2.64000010
   18.33861160  113.07900238    0.61000001    2.61999989
   18.34194565  122.48200226    0.61000001    2.64000010
   18.34500122  119.31199646    0.61000001    2.61999989
   18.34833336  119.43800354    0.58999997    2.61999989
   18.35166740  115.11599731    0.58999997    2.61999989
   18.35472298  113.56199646    0.58999997    2.64000010
   18.35805511  122.48799896    0.56999999    2.64000010
   18.36388969  122.48799896    0.56999999    2.61999989
   18.36805534  121.43599701    0.56999999    2.61999989
   18.37138939  116.28700256    0.58999997    2.61999989
   18.37444496  114.61699677    0.56999999    2.61999989
   18.37777710  121.96700287    0.56999999    2.61999989
   18.38111115  120.33899689    0.56999999    2.64000010
   18.38416672  126.65100098    0.56999999    2.61999989
   18.38750076  118.96399689    0.56999999    2.61999989
   18.39083290  124.83599854    0.55000001    2.64000010
   18.39388847  124.74600220    0.55000001    2.64000010
   18.39722252  118.58100128    0.51999998    2.61999989
   18.40027809  121.18699646    0.52999997    2.61999989
   18.40111160  119.21900177    0.52999997    2.61999989
   18.40694427  119.21900177    0.55000001    2.61999989
   18.41083336  126.87599945    0.52999997    2.64000010
   18.41416550  117.41000366    0.55000001    2.61999989
   18.41749954  116.71499634    0.56999999    2.64000010
   18.42055511  118.53700256    0.55000001    2.61999989
   18.42388916  121.51599884    0.56999999    2.61999989
   18.42722130  117.81999969    0.56999999    2.61999989
   18.43027687  121.20700073    0.56999999    2.64000010
   18.43361092  121.34600067    0.55000001    2.64000010
   18.43444443  124.41400146    0.56999999    2.61999989
   18.43722153  130.29499817    0.55000001    2.64000010
   18.44027710  126.00199890    0.55000001    2.61999989
   18.44361115  118.42099762    0.56999999    2.64000010
   18.44972038  118.42099762    0.81999999    2.61999989
   18.45388985  123.61199951    0.56999999    2.61999989
   18.45694542  135.21400452    0.58999997    2.61999989
   18.46027946  125.13899994    0.56999999    2.61999989
   18.46361160  132.91200256    1.34000003    2.61999989
   18.46666718  131.11799622    1.30999994    2.61999989
   18.46777916  130.39700317    1.33000004    2.61999989
   18.47055626  122.56199646    1.33000004    2.61999989
   18.47361183  120.25399780    1.30999994    2.61999989
   18.47694588  118.81099701    1.28999996    2.61999989
   18.48027802  119.49299622    1.28999996    2.61999989
   18.48333359  117.17600250    1.26999998    2.59999990
   18.48666763  122.03099823    1.26999998    2.61999989
   18.49250031  122.03099823    1.25000000    2.61999989
   18.49666786  117.84500122    1.11000001    2.61999989
   18.50000000  115.38099670    0.98000002    2.61999989
   18.50111198  119.59799957    1.00000000    2.61999989
   18.50361061  118.89099884    1.01999998    2.61999989
   18.50666618  119.66600037    0.94000000    2.59999990
   18.51000023  114.66400146    0.94000000    2.61999989
   18.51333427  111.79699707    1.14999998    2.61999989
   18.51638794  111.83799744    1.14999998    2.61999989
   18.51972198  111.64199829    1.13000000    2.61999989
   18.52305603  113.86000061    1.13000000    2.61999989
   18.52611160  113.66999817    1.16999996    2.61999989
   18.52944374  111.62200165    1.19000006    2.61999989
   18.53527641  111.62200165    1.21000004    2.61999989
   18.53944397  114.06800079    1.26999998    2.61999989
   18.54277802  117.14499664    1.28999996    2.61999989
   18.54583359  119.91000366    1.26999998    2.61999989
   18.54916573  120.88999939    1.26999998    2.61999989
   18.55249977  115.07800293    1.41999996    2.61999989
   18.55555534  121.00800323    0.64999998    2.61999989
   18.55888748  113.17500305    0.56999999    2.61999989
   18.56222153  111.23100281    0.56999999    2.61999989
   18.56527710  115.96700287    0.56999999    2.59999990
   18.56777954  114.33399963    0.55000001    2.59999990
   18.56916809  108.07399750    0.56999999    2.61999989
   18.57222366  122.80699921    0.56999999    2.59999990
   18.57833481  122.80699921    0.58999997    2.61999989
   18.58222389  116.38200378    0.58999997    2.59999990
   18.58555603  117.57299805    0.58999997    2.59999990
   18.58889008  112.54799652    0.61000001    2.59999990
   18.59194565  111.39499664    0.64999998    2.59999990
   18.59527779  113.92400360    0.61000001    2.59999990
   18.59861183  110.14900208    0.63000000    2.59999990
   18.60111237  106.94699860    0.67000002    2.59999990
   18.60222244  113.30999756    0.61000001    2.59999990
   18.60527802  117.19999695    0.79000002    2.59999990
   18.60861206  109.78900146    0.83999997    2.59999990
   18.61194420  113.00499725    0.67000002    2.59999990
   18.61499977  109.96299744    0.67000002    2.59999990
   18.62111092  109.96299744    0.70999998    2.59999990
   18.62527847  114.20700073    0.69000000    2.59999990
   18.62833405  118.27500153    0.69000000    2.59999990
   18.63166618  117.16999817    0.67000002    2.59999990
   18.63444519  119.84899902    0.67000002    2.59999990
   18.63527679  113.57399750    0.67000002    2.59999990
   18.63833237  116.57700348    0.69000000    2.57999992
   18.64166641  117.25199890    0.70999998    2.59999990
   18.64500046  114.53800201    0.73000002    2.59999990
   18.64805603  112.62999725    0.70999998    2.59999990
   18.65138817  112.62500000    0.69000000    2.59999990
   18.65444374  112.40799713    0.67000002    2.57999992
   18.65777779  111.80799866    0.69000000    2.59999990
   18.66388893  111.80799866    0.64999998    2.59999990
   18.66805458  117.30200195    0.63000000    2.59999990
   18.67138863  116.37599945    0.64999998    2.59999990
   18.67444420  113.14299774    0.69000000    2.59999990
   18.67777634  116.62699890    0.70999998    2.59999990
   18.68083191  113.39499664    0.70999998    2.59999990
   18.68416595  115.12300110    0.75000000    2.59999990
   18.68750000  116.15100098    0.81999999    2.59999990
   18.69055557  112.58999634    0.81999999    2.59999990
   18.69388771  117.43699646    0.83999997    2.59999990
   18.69722176  111.70400238    0.81999999    2.59999990
   18.70027924  117.23000336    0.79000002    2.59999990
   18.70111275  112.63999939    0.79000002    2.59999990
   18.70666695  112.63999939    0.70999998    2.59999990
   18.71083450  112.90299988    0.69000000    2.59999990
   18.71416664  111.48100281    0.69000000    2.57999992
   18.71722221  112.35099792    0.70999998    2.59999990
   18.72055626  108.86000061    0.73000002    2.59999990
   18.72389030  113.40399933    0.76999998    2.59999990
   18.72694588  116.04900360    0.76999998    2.59999990
   18.73027802  113.46800232    0.75000000    2.59999990
   18.73361206  121.31099701    0.73000002    2.59999990
   18.73444557  112.30599976    0.73000002    2.59999990
   18.73722267  118.51000214    0.73000002    2.59999990
   18.74027824  117.23400116    0.73000002    2.57999992
   18.74361229  114.52700043    0.75000000    2.59999990
   18.74972153  114.52700043    0.81999999    2.57999992
   18.75361061  116.46299744    0.86000001    2.57999992
   18.75694466  113.60399628    0.83999997    2.59999990
   18.76027870  116.67099762    0.86000001    2.59999990
   18.76333427  121.29199982    0.88000000    2.59999990
   18.76666641  118.70600128    0.83999997    2.57999992
   18.76777840  122.21800232    0.83999997    2.57999992
   18.77027702  114.71299744    0.86000001    2.57999992
   18.77333260  119.54699707    0.86000001    2.57999992
   18.77666664  132.51499939    0.88000000    2.57999992
   18.78000069  115.29000092    0.80000001    2.57999992
   18.78305435  119.47799683    0.76999998    2.57999992
   18.78638840  115.24099731    0.75000000    2.57999992
   18.79249954  115.24099731    0.73000002    2.57999992
   18.79666710  117.13099670    0.69000000    2.59999990
   18.79972076  127.24199677    0.67000002    2.57999992
   18.80111122  117.45899963    0.67000002    2.59999990
   18.80360985  116.00399780    0.67000002    2.59999990
   18.80666542  123.90499878    0.64999998    2.57999992
   18.80999947  118.44699860    0.64999998    2.59999990
   18.81333351  120.39199829    0.64999998    2.57999992
   18.81638718  118.25199890    0.63000000    2.57999992
   18.81972313  111.23100281    0.64999998    2.57999992
   18.82305717  116.55000305    0.64999998    2.57999992
   18.82611275  122.30699921    0.67000002    2.57999992
   18.82944489  113.50299835    0.69000000    2.57999992
   18.85166740  114.11399841    0.75000000    2.57999992
   18.85194397  113.55400085    0.73000002    2.55999994
   18.85527802  116.27899933    0.73000002    2.55999994
   18.85861206  110.30699921    0.73000002    2.55999994
   18.86166763  115.41600037    0.73000002    2.57999992
   18.86499977  114.77700043    0.69000000    2.55999994
   18.86777878  112.21099854    0.70999998    2.57999992
   18.86861038  112.48500061    0.70999998    2.57999992
   18.87166595  118.37899780    0.67000002    2.55999994
   18.87805557  118.37899780    0.69000000    2.55999994
   18.88222313  111.05200195    0.67000002    2.55999994
   18.88555527  111.89700317    0.69000000    2.53999996
   18.88888931  111.37999725    0.70999998    2.53999996
   18.89194489  111.99500275    0.70999998    2.55999994
   18.89527702  117.65599823    0.73000002    2.55999994
   18.89833260  122.49199677    0.73000002    2.55999994
   18.90111160  115.95600128    0.69000000    2.55999994
   18.90222168  126.25499725    0.69000000    2.55999994
   18.90555573  127.43099976    0.69000000    2.55999994
   18.90861130  146.15899658    0.67000002    2.53999996
   18.91194344  148.17900085    0.67000002    2.55999994
   18.91499901  117.72699738    0.75000000    2.55999994
   18.92111015  117.72699738    0.80000001    2.53999996
   18.92527771  120.79699707    0.80000001    2.55999994
   18.92833328  132.66700745    0.79000002    2.55999994
   18.93166542  129.50300598    0.79000002    2.55999994
   18.93444443  137.56300354    0.76999998    2.55999994
   18.93527603  135.65800476    0.76999998    2.55999994
   18.93861008  130.16799927    0.75000000    2.55999994
   18.94166565  133.33900452    0.73000002    2.55999994
   18.94499969  121.65499878    0.75000000    2.55999994
   18.94805527  134.09899902    0.75000000    2.55999994
   18.95138931  118.82499695    0.70999998    2.55999994
   18.95472336  134.27600098    0.70999998    2.55999994
   18.95777893  133.67300415    0.79000002    2.55999994
   18.96389008  133.67300415    0.79000002    2.53999996
   18.96805573  121.95200348    0.79000002    2.53999996
   18.97111130  125.02500153    0.79000002    2.55999994
   18.97444534  131.92999268    0.81999999    2.53999996
   18.97777748  123.99600220    0.80000001    2.55999994
   18.98083305  127.90699768    0.79000002    2.53999996
   18.98416710  124.28299713    0.79000002    2.53999996
   18.98750114  128.05499268    0.70999998    2.55999994
   18.99055672  122.99700165    0.69000000    2.55999994
   18.99388885  128.53599548    0.70999998    2.55999994
   18.99694443  132.91099548    0.70999998    2.55999994
   19.00027847  118.55699921    0.70999998    2.53999996
   19.00111198  123.76599884    0.73000002    2.55999994
   19.00666618  123.76599884    0.75000000    2.55999994
   19.01083374  125.41100311    0.76999998    2.53999996
   19.01416588  127.02700043    0.70999998    2.55999994
   19.01722145  119.40599823    0.69000000    2.55999994
   19.02055550  117.61799622    0.69000000    2.55999994
   19.02388954  130.24899292    0.64999998    2.53999996
   19.02694511  119.32499695    0.64999998    2.55999994
   19.03027725  114.98300171    0.58999997    2.55999994
   19.03361130  127.63800049    0.58999997    2.55999994
   19.03444481  125.18599701    0.58999997    2.55999994
   19.03722191  121.52100372    0.56999999    2.55999994
   19.04055595  123.59400177    0.58999997    2.55999994
   19.04361153  115.29199982    0.64999998    2.55999994
   19.04944420  115.29199982    0.67000002    2.53999996
   19.05360985  115.76499939    0.67000002    2.53999996
   19.05694389  114.85299683    0.73000002    2.55999994
   19.06027794  114.42299652    0.70999998    2.53999996
   19.06333351  115.23899841    0.70999998    2.53999996
   19.06666756  117.97100067    0.73000002    2.55999994
   19.06777954  114.26399994    0.73000002    2.55999994
   19.07027817  123.42500305    0.75000000    2.53999996
   19.07361221  120.20700073    0.73000002    2.53999996
   19.07666779  111.94200134    0.73000002    2.55999994
   19.08000183  118.60500336    0.73000002    2.55999994
   19.08333397  123.41799927    0.73000002    2.53999996
   19.08638954  121.49800110    0.73000002    2.53999996
   19.09250069  121.49800110    0.75000000    2.53999996
   19.09666824  118.73000336    0.76999998    2.53999996
   19.09972191  120.86499786    0.70999998    2.53999996
   19.10111237  118.28099823    0.70999998    2.53999996
   19.10333443  121.07299805    0.70999998    2.53999996
   19.10666656  116.88200378    0.70999998    2.53999996
   19.10972214  131.74499512    0.76999998    2.53999996
   19.11305618  130.14199829    0.75000000    2.55999994
   19.11638832  116.60600281    0.69000000    2.53999996
   19.11944389  118.33699799    0.70999998    2.53999996
   19.12277794  115.11299896    0.75000000    2.53999996
   19.12583351  116.31199646    0.75000000    2.53999996
   19.12916756  117.82399750    0.73000002    2.53999996
   19.13527679  117.82399750    0.70999998    2.53999996
   19.13944435  116.59100342    0.64999998    2.53999996
   19.14249992  116.37400055    0.61000001    2.53999996
   19.14583397  118.92099762    0.61000001    2.53999996
   19.14916611  109.39499664    0.63000000    2.55999994
   19.15222168  118.29399872    0.61000001    2.53999996
   19.15555573  114.47399902    0.61000001    2.53999996
   19.15888786  121.17400360    0.61000001    2.53999996
   19.16194344  117.83899689    0.61000001    2.53999996
   19.16527748  117.25099945    0.58999997    2.53999996
   19.16777802  123.06999969    0.58999997    2.53999996
   19.16888809  115.56999969    0.58999997    2.55999994
   19.17222214  116.01999664    0.61000001    2.53999996
   19.17805481  116.01999664    0.56999999    2.55999994
   19.18222237  114.84600067    0.63000000    2.53999996
   19.18555450  115.59400177    0.61000001    2.53999996
   19.18861008  121.82800293    0.67000002    2.53999996
   19.19194412  114.33799744    0.63000000    2.53999996
   19.19527626  111.44100189    0.64999998    2.53999996
   19.19833183  117.65100098    0.67000002    2.53999996
   19.20111275  113.38099670    0.67000002    2.51999998
   19.20194435  118.83699799    0.67000002    2.51999998
   19.20527840  116.96600342    0.64999998    2.53999996
   19.20833397  117.81700134    0.67000002    2.51999998
   19.21166801  118.30200195    0.67000002    2.51999998
   19.21500015  116.95099640    0.70999998    2.53999996
   19.22083473  116.95099640    0.70999998    2.53999996
   19.22500038  114.74400330    0.64999998    2.53999996
   19.22833443  113.80599976    0.63000000    2.53999996
   19.23166656  113.74700165    0.64999998    2.53999996
   19.23444557  109.85500336    0.64999998    2.53999996
   19.23527718  111.70999908    0.63000000    2.53999996
   19.23861122  111.50700378    0.64999998    2.53999996
   19.24166679  114.66899872    0.64999998    2.51999998
   19.24500084  112.52999878    0.64999998    2.53999996
   19.24833298  111.45700073    0.67000002    2.53999996
   19.25138855  117.06600189    0.64999998    2.51999998
   19.25472260  116.81400299    0.67000002    2.53999996
   19.25777817  111.76300049    0.69000000    2.51999998
   19.26388931  111.76300049    0.69000000    2.51999998
   19.26805496  114.61000061    0.69000000    2.51999998
   19.27111053  119.47599792    0.70999998    2.51999998
   19.27444458  114.46800232    0.64999998    2.51999998
   19.27750015  114.40799713    0.63000000    2.51999998
   19.28083229  112.89499664    0.61000001    2.51999998
   19.28416634  117.27999878    0.61000001    2.51999998
   19.28722191  111.13099670    0.61000001    2.51999998
   19.29055595  117.48300171    0.61000001    2.51999998
   19.29388809  114.64800262    0.63000000    2.51999998
   19.29694366  116.59799957    0.63000000    2.51999998
   19.30027771  112.18900299    0.61000001    2.51999998
   19.30111122  117.98100281    0.63000000    2.51999998
   19.30666542  117.98100281    0.63000000    2.51999998
   19.31083298  117.37000275    0.64999998    2.51999998
   19.31388855  110.49800110    0.63000000    2.51999998
   19.31722260  115.12899780    0.61000001    2.51999998
   19.32055664  115.14700317    0.61000001    2.53999996
   19.32361221  111.62799835    0.63000000    2.51999998
   19.32694626  108.98000336    0.61000001    2.51999998
   19.33000183  109.91999817    0.63000000    2.51999998
   19.33333397  113.04900360    0.63000000    2.51999998
   19.33444595  118.98100281    0.63000000    2.51999998
   19.33694458  117.75700378    0.63000000    2.50000000
   19.34027863  121.29199982    0.63000000    2.51999998
   19.34333420  118.84999847    0.64999998    2.50000000
   19.34944534  118.84999847    0.64999998    2.51999998
   19.35361099  118.41899872    0.67000002    2.51999998
   19.35694504  123.78299713    0.64999998    2.51999998
   19.36000061  117.46499634    0.64999998    2.50000000
   19.36333466  118.14499664    0.64999998    2.51999998
   19.36666679  116.24199677    0.64999998    2.50000000
   19.36777878  116.49500275    0.64999998    2.51999998
   19.37027740  113.09999847    0.64999998    2.51999998
   19.37361145  118.01100159    0.63000000    2.50000000
   19.37666702  112.98200226    0.64999998    2.50000000
   19.38000107  113.90100098    0.67000002    2.50000000
   19.38333321  112.89199829    0.67000002    2.50000000
   19.38638878  116.41600037    0.64999998    2.50000000
   19.39222145  116.41600037    0.67000002    2.51999998
   19.39638901  118.02200317    0.67000002    2.50000000
   19.39972115  116.55999756    0.67000002    2.50000000
   19.40111160  118.54100037    0.67000002    2.50000000
   19.40333366  114.17500305    0.67000002    2.50000000
   19.40666580  111.36900330    0.64999998    2.50000000
   19.40972137  113.61100006    0.64999998    2.50000000
   19.41305542  113.20099640    0.63000000    2.50000000
   19.41638756  114.63700104    0.63000000    2.50000000
   19.41944313  116.91000366    0.63000000    2.50000000
   19.42277718  114.35500336    0.58999997    2.50000000
   19.42611122  115.86100006    0.58999997    2.50000000
   19.42916679  113.38300323    0.58999997    2.51999998
   19.43527603  113.38300323    0.64999998    2.51999998
   19.43916512  121.97200012    0.70999998    2.50000000
   19.44249916  117.07800293    0.64999998    2.50000000
   19.44583321  135.33399963    0.61000001    2.50000000
   19.44888878  114.29499817    0.63000000    2.51999998
   19.45222282  121.36599731    0.63000000    2.50000000
   19.45555687  125.22799683    0.63000000    2.50000000
   19.45861244  125.93000031    0.69000000    2.50000000
   19.46194458  113.76899719    0.69000000    2.50000000
   19.46500015  121.48500061    0.69000000    2.50000000
   19.46805573  120.69400024    0.67000002    2.48000002
   19.46861076  114.73200226    0.67000002    2.48000002
   19.47194481  118.60299683    0.63000000    2.50000000
   19.47805595  118.60299683    0.63000000    2.50000000
   19.48222351  117.21600342    0.63000000    2.50000000
   19.48527718  117.09200287    0.63000000    2.48000002
   19.48861122  110.76899719    0.63000000    2.50000000
   19.49166679  115.75399780    0.63000000    2.50000000
   19.49500084  108.69200134    0.64999998    2.48000002
   19.49833298  109.07800293    0.63000000    2.48000002
   19.50138855  113.92500305    0.63000000    2.48000002
   19.50194359  111.94699860    0.63000000    2.48000002
   19.50527763  108.19799805    0.63000000    2.48000002
   19.50833321  114.99700165    0.64999998    2.50000000
   19.51166725  113.85800171    0.63000000    2.48000002
   19.51499939  111.74900055    0.64999998    2.50000000
   19.52083397  111.74900055    0.69000000    2.48000002
   19.52499962  116.25800323    0.67000002    2.50000000
   19.52805519  115.79799652    0.67000002    2.50000000
   19.53138924  115.64399719    0.67000002    2.48000002
   19.53472137  121.53199768    0.67000002    2.48000002
   19.53499985  119.95200348    0.64999998    2.48000002
   19.53833199  117.65799713    0.67000002    2.48000002
   19.54138756  119.45099640    0.67000002    2.48000002
   19.54472160  117.15799713    0.64999998    2.48000002
   19.54805565  121.03199768    0.64999998    2.50000000
   19.55111122  122.07299805    0.67000002    2.48000002
   19.55444336  123.62100220    0.67000002    2.48000002
   19.55749893  121.40299988    0.67000002    2.48000002
   19.56361008  121.40299988    0.64999998    2.48000002
   19.56777954  127.34300232    0.69000000    2.50000000
   19.56833458  121.55000305    0.69000000    2.50000000
   19.57166672  121.02600098    0.67000002    2.50000000
   19.57472229  125.55699921    0.69000000    2.50000000
   19.57805634  117.97499847    0.67000002    2.50000000
   19.58139038  128.57899475    0.69000000    2.50000000
   19.58444595  124.89900208    0.69000000    2.50000000
   19.58777809  130.74400330    0.67000002    2.50000000
   19.59083366  123.24199677    0.69000000    2.50000000
   19.59416771  122.51999664    0.69000000    2.50000000
   19.59749985  119.43800354    0.67000002    2.50000000
   19.60055542  119.94799805    0.69000000    2.50000000
   19.60166740  115.76300049    0.67000002    2.50000000
   19.60666656  115.76300049    0.69000000    2.50000000
   19.61055565  127.36900330    0.70999998    2.50000000
   19.61388969  125.52999878    0.70999998    2.50000000
   19.61722183  121.18199921    0.70999998    2.50000000
   19.62027740  117.46900177    0.69000000    2.50000000
   19.62361145  120.74199677    0.69000000    2.48000002
   19.62694550  115.70200348    0.69000000    2.50000000
   19.63000107  118.37699890    0.67000002    2.50000000
   19.63333321  129.50999451    0.69000000    2.50000000
   19.63500023  130.03300476    0.67000002    2.50000000
   19.63694382  152.15699768    0.67000002    2.50000000
   19.63999939  149.94599915    0.67000002    2.50000000
   19.64333344  175.63099670    0.67000002    2.50000000
   19.64944458  175.63099670    0.69000000    2.48000002
   19.65361023  199.11099243    0.69000000    2.50000000
   19.65666580  197.61599731    0.69000000    2.48000002
   19.65999985  178.21800232    0.67000002    2.48000002
   19.66305542   -1.00000000    0.67000002    2.48000002
   19.66638756   -1.00000000    0.67000002    2.48000002
   19.66972160   -1.00000000    0.64999998    2.50000000
   19.67305565   -1.00000000    0.64999998    2.48000002
   19.67638779   -1.00000000    0.64999998    2.48000002
   19.67944336   -1.00000000    0.64999998    2.48000002
   19.68277740   -1.00000000    0.67000002    2.48000002
   19.68583298   -1.00000000    0.64999998    2.48000002
   19.69638824   -1.00000000    0.67000002    2.48000002
   19.69944382   -1.00000000    0.67000002    2.48000002
   19.70305634   -1.00000000    0.69000000    2.48000002
   19.70639038   -1.00000000    0.69000000    2.48000002
   19.70972252   -1.00000000    0.70999998    2.48000002
   19.71277809   -1.00000000    0.70999998    2.48000002
   19.71611214   -1.00000000    0.70999998    2.46000004
   19.71916771   -1.00000000    0.73000002    2.48000002
   19.72249985   -1.00000000    0.73000002    2.48000002
   19.72583389   -1.00000000    0.73000002    2.48000002
   19.72888947   -1.00000000    0.75000000    2.46000004
   19.73916626   -1.00000000    0.75000000    2.46000004
   19.74222183   -1.00000000    0.76999998    2.46000004
   19.74555588   -1.00000000    0.76999998    2.48000002
   19.74888992   -1.00000000    0.76999998    2.46000004
   19.75194359   -1.00000000    0.76999998    2.46000004
   19.75527763   -1.00000000    0.76999998    2.46000004
   19.75861168   -1.00000000    0.79000002    2.46000004
   19.76166725   -1.00000000    0.79000002    2.46000004
   19.76499939   -1.00000000    0.79000002    2.46000004
   19.76805496   -1.00000000    0.79000002    2.46000004
   19.77194405   -1.00000000    0.80000001    2.46000004
   19.78194427   -1.00000000    0.80000001    2.46000004
   19.78527641   -1.00000000    0.80000001    2.46000004
   19.78833199   -1.00000000    0.80000001    2.46000004
   19.79166603   -1.00000000    0.80000001    2.46000004
   19.79472160   -1.00000000    0.80000001    2.46000004
   19.79805565   -1.00000000    0.80000001    2.46000004
   19.80138779   -1.00000000    0.81999999    2.46000004
   19.80499840   -1.00000000    0.81999999    2.46000004
   19.80805397   -1.00000000    0.81999999    2.44000006
   19.81138802   -1.00000000    0.81999999    2.46000004
   19.81472206   -1.00000000    0.83999997    2.46000004
   19.82472229   -1.00000000    0.80000001    2.44000006
   19.82805634   -1.00000000    0.80000001    2.44000006
   19.83139038   -1.00000000    0.79000002    2.44000006
   19.83444595   -1.00000000    0.79000002    2.44000006
   19.83805656   -1.00000000    0.79000002    2.44000006
   19.84111214   -1.00000000    0.79000002    2.44000006
   19.84444427   -1.00000000    0.79000002    2.44000006
   19.84777832   -1.00000000    0.79000002    2.44000006
   19.85083389   -1.00000000    0.79000002    2.44000006
   19.87638855   -1.00000000    0.80000001    2.44000006
   19.87944412   -1.00000000    0.80000001    2.44000006
   19.88277817   -1.00000000    0.81999999    2.44000006
   19.88583374   -1.00000000    0.81999999    2.44000006
   19.88916588   -1.00000000    0.81999999    2.44000006
   19.89249992   -1.00000000    0.83999997    2.42000008
   19.89555550   -1.00000000    0.83999997    2.42000008
   19.89888954   -1.00000000    0.83999997    2.42000008
   19.90222168   -1.00000000    0.86000001    2.42000008
   19.90555573   -1.00000000    0.83999997    2.42000008
   19.90888786   -1.00000000    0.83999997    2.42000008
   19.91916656   -1.00000000    0.83999997    2.42000008
   19.92222214   -1.00000000    0.83999997    2.42000008
   19.92555428   -1.00000000    0.83999997    2.44000006
   19.92860985   -1.00000000    0.83999997    2.42000008
   19.93194389   -1.00000000    0.86000001    2.42000008
   19.93527603   -1.00000000    0.86000001    2.42000008
   19.93861008   -1.00000000    0.86000001    2.42000008
   19.94194412   -1.00000000    0.86000001    2.42000008
   19.94499969   -1.00000000    0.83999997    2.42000008
   19.94833183   -1.00000000    0.83999997    2.40000010
   19.95166779   -1.00000000    0.81999999    2.40000010
   19.96194458   -1.00000000    0.83999997    2.39000010
   19.96500015   -1.00000000    0.83999997    2.39000010
   19.96833420   -1.00000000    0.83999997    2.39000010
   19.97194481   -1.00000000    0.86000001    2.40000010
   19.97527885   -1.00000000    0.86000001    2.39000010
   19.97833443   -1.00000000    0.86000001    2.40000010
   19.98166656   -1.00000000    0.86000001    2.39000010
   19.98500061   -1.00000000    0.88000000    2.39000010
   19.98805618   -1.00000000    0.88000000    2.39000010
   19.99138832   -1.00000000    0.88000000    2.40000010
   19.99444389   -1.00000000    0.86000001    2.40000010
   20.00472260   -1.00000000    0.86000001    2.39000010
   20.00805473   -1.00000000    0.83999997    2.39000010
   20.01111031   -1.00000000    0.86000001    2.39000010
   20.01444435   -1.00000000    0.86000001    2.39000010
   20.01777840   -1.00000000    0.86000001    2.39000010
   20.02083397   -1.00000000    0.86000001    2.39000010
   20.02416611   -1.00000000    0.86000001    2.39000010
   20.02722168   -1.00000000    0.88000000    2.39000010
   20.03055573   -1.00000000    0.88000000    2.39000010
   20.03388786   -1.00000000    0.89999998    2.36999989
   20.03722191   -1.00000000    0.98000002    2.39000010
   20.04749870   -1.00000000    0.95999998    2.39000010
   20.05083275   -1.00000000    0.94000000    2.36999989
   20.05416679   -1.00000000    0.92000002    2.36999989
   20.05722237   -1.00000000    0.94000000    2.39000010
   20.06055450   -1.00000000    0.94000000    2.36999989
   20.06361008   -1.00000000    0.94000000    2.36999989
   20.06694603   -1.00000000    0.94000000    2.36999989
   20.07055664   -1.00000000    0.94000000    2.36999989
   20.07389069   -1.00000000    0.94000000    2.34999990
   20.07694626   -1.00000000    0.95999998    2.36999989
   20.08027840   -1.00000000    0.95999998    2.36999989
   20.09055710   -1.00000000    0.98000002    2.36999989
   20.09361267   -1.00000000    0.95999998    2.36999989
   20.09694481   -1.00000000    0.95999998    2.36999989
   20.10000038   -1.00000000    0.94000000    2.34999990
   20.10361099   -1.00000000    0.94000000    2.34999990
   20.10694504   -1.00000000    0.94000000    2.34999990
   20.11000061   -1.00000000    0.95999998    2.34999990
   20.11333466   -1.00000000    0.95999998    2.34999990
   20.11666679   -1.00000000    0.95999998    2.34999990
   20.11972237   -1.00000000    0.95999998    2.34999990
   20.12305641   -1.00000000    0.95999998    2.34999990
   20.13333321   -1.00000000    0.95999998    2.34999990
   20.13638878   -1.00000000    0.98000002    2.34999990
   20.14027786   -1.00000000    0.98000002    2.34999990
   20.14333344   -1.00000000    0.98000002    2.34999990
   20.14666748   -1.00000000    0.98000002    2.34999990
   20.14999962   -1.00000000    1.00000000    2.32999992
   20.15305519   -1.00000000    1.00000000    2.34999990
   20.15638924   -1.00000000    1.00000000    2.32999992
