    HOUR (UT)   FLARE FACTOR    SKY TESTER    SUN TESTER
   11.49527836   -1.00000000   -1.00000000   -1.00000000
   11.51916599  209.72999573    0.00000000    0.00000000
   11.52222157  213.60200500    0.00000000    0.00000000
   11.52555561  224.29299927    0.00000000    0.00000000
   11.52861118  228.75399780    0.00000000    0.00000000
   11.53194427  223.24800110    0.00000000    0.00000000
   11.53833389  223.24800110    0.00000000    0.00000000
   11.54361153  235.55999756    0.00000000    0.00000000
   11.54666710  227.02999878    0.00000000    0.00000000
   11.55000019  210.63099670    0.00000000    0.00000000
   11.55138874  223.93899536    0.00000000    0.00000000
   11.55500031  219.94099426    0.00000000    0.00000000
   11.55833340  214.08799744    0.00000000    0.00000000
   11.56166649  223.26499939    0.00000000    0.00000000
   11.56472206  221.58900452    0.00000000    0.00000000
   11.56805515  233.41700745    0.00000000    0.00000000
   11.57111073  225.48100281    0.00000000    0.00000000
   11.57444477  209.07800293    3.78999996    1.94000006
   11.58111095  209.07800293    3.78999996    1.94000006
   11.58527756  203.85899353    3.78999996    1.94000006
   11.58833313  204.22999573    3.78999996    1.94000006
   11.59166622  209.12100220    3.78999996    1.94000006
   11.59499931  217.18499756    3.78999996    1.94000006
   11.59888840  219.94900513    3.78999996    1.94000006
   11.60194492  212.45300293    3.78999996    1.94000006
   11.60527802  223.05499268    3.78999996    1.94000006
   11.60833359  199.31799316    3.78999996    1.94000006
   11.61166668  219.15199280    3.78999996    1.94000006
   11.61500072  201.47599792    3.78999996    1.94000006
   11.61805534  214.69400024    3.78999996    1.94000006
   11.61833382  211.83000183    3.78999996    1.94000006
   11.62388897  211.83000183    3.78999996    1.94000006
   11.62805557  212.71000671    3.78999996    1.94000006
   11.63138866  192.15800476    3.78999996    1.94000006
   11.63444424  208.96400452    3.78999996    1.94000006
   11.63777733  219.52200317    3.78999996    1.94000006
   11.64111137  203.83500671    3.78999996    1.94000006
   11.64416695  213.92399597    3.78999996    1.94000006
   11.64750004  198.97999573    3.78999996    1.94000006
   11.65055561  219.05400085    3.78999996    1.94000006
   11.65138817  195.61000061    3.78999996    1.94000006
   11.65416622  196.80400085    3.78999996    1.94000006
   11.65749931  204.61999512    3.78999996    1.94000006
   11.66083336  210.32200623    3.78999996    1.94000006
   11.66666698  210.32200623    3.78999996    1.94000006
   11.67083359  201.27699280    3.78999996    1.94000006
   11.67416668  206.97300720    3.78999996    1.94000006
   11.67750072  199.14799500    3.78999996    1.94000006
   11.68055630  218.40699768    3.78999996    1.94000006
   11.68388939  201.41799927    3.78999996    1.94000006
   11.68472195  210.53199768    3.78999996    1.94000006
   11.68722248  212.17900085    3.78999996    1.94000006
   11.69055557  204.08000183    3.78999996    1.94000006
   11.69388866  202.98399353    3.78999996    1.94000006
   11.69694424  199.50100708    3.78999996    1.94000006
   11.70027733  201.74499512    3.78999996    1.94000006
   11.70361137  204.63499451    3.78999996    1.94000006
   11.70972157  204.63499451    3.78999996    1.94000006
   11.71388912  196.05099487    3.78999996    1.94000006
   11.71694374  236.15899658    3.78999996    1.94000006
   11.71805477  238.50599670    3.78999996    1.94000006
   11.72055531  202.10699463    3.78999996    1.94000006
   11.72388840  227.91099548    3.78999996    1.94000006
   11.72722149  224.87500000    3.78999996    1.94000006
   11.73027706  233.93200684    3.78999996    1.94000006
   11.73361111  249.81599426    3.78999996    1.94000006
   11.73694515  210.51600647    3.78999996    1.94000006
   11.74000072  205.29200745    3.78999996    1.94000006
   11.74333382  206.72500610    3.78999996    1.94000006
   11.74638939  209.43699646    3.78999996    1.94000006
   11.75249958  209.43699646    3.78999996    1.94000006
   11.75666714  202.40299988    3.78999996    1.94000006
   11.76000023  197.08799744    3.78999996    1.94000006
   11.76305580  227.77400208    3.78999996    1.94000006
   11.76638889  195.97900391    3.78999996    1.94000006
   11.76944447  191.24699402    3.78999996    1.94000006
   11.77277756  197.01600647    3.78999996    1.94000006
   11.77611065  206.14700317    3.78999996    1.94000006
   11.77916622  197.80599976    3.78999996    1.94000006
   11.78249931  198.69000244    3.78999996    1.94000006
   11.78472233  194.45100403    3.78999996    1.94000006
   11.78611183  197.27299500    3.78999996    1.94000006
   11.78944492  194.62800598    3.78999996    1.94000006
   11.79527855  194.62800598    3.78999996    1.94000006
   11.79944515  201.64300537    3.78999996    1.94000006
   11.80277824  208.24400330    3.78999996    1.94000006
   11.80583382  202.81900024    3.78999996    1.94000006
   11.80916691  200.04100037    3.78999996    1.94000006
   11.81250000  188.16799927    3.78999996    1.94000006
   11.81555557  189.46800232    3.78999996    1.94000006
   11.81805515  196.94000244    3.78999996    1.94000006
   11.81916618  204.42199707    3.78999996    1.94000006
   11.82250023  206.17900085    3.78999996    1.94000006
   11.82583332  201.10000610    3.78999996    1.94000006
   11.82888889  209.55900574    3.78999996    1.94000006
   11.83222198  194.53999329    3.78999996    1.94000006
   11.83805561  194.53999329    3.78999996    1.94000006
   11.84222221  203.07400513    3.78999996    1.94000006
   11.84555531  196.91099548    3.78999996    1.94000006
   11.84888840  197.22200012    3.78999996    1.94000006
   11.85138893  197.19799805    3.78999996    1.94000006
   11.85222244  197.51300049    3.78999996    1.94000006
   11.85555553  197.51300049    3.78999996    1.94000006
   11.85888958  196.79100037    3.78999996    1.94000006
   11.86194515  204.95399475    3.78999996    1.94000006
   11.86527824  188.12399292    3.78999996    1.94000006
   11.86861134  198.05700684    3.78999996    1.94000006
   11.87166691  183.01499939    3.78999996    1.94000006
   11.87500000  192.30799866    3.78999996    1.94000006
   11.88111115  192.30799866    3.78999996    1.94000006
   11.88527775  204.52400208    3.78999996    1.94000006
   11.88833332  207.20399475    3.78999996    1.94000006
   11.89166641  190.87399292    3.78999996    1.94000006
   11.89499950  189.84399414    3.78999996    1.94000006
   11.89805508  209.50300598    3.78999996    1.94000006
   11.90138817  203.30900574    3.78999996    1.94000006
   11.90444374  190.33200073    3.78999996    1.94000006
   11.90777779  190.93499756    3.78999996    1.94000006
   11.91111088  176.33599854    3.78999996    1.94000006
   11.91416645  196.53199768    3.78999996    1.94000006
   11.91750050  192.58599854    3.78999996    1.94000006
   11.91805553  188.93800354    3.78999996    1.94000006
   11.92388916  188.93800354    3.78999996    1.94000006
   11.92805576  206.77999878    3.78999996    1.94000006
   11.93138885  201.69200134    3.78999996    1.94000006
   11.93444443  197.05999756    3.78999996    1.94000006
   11.93777752  194.21099854    3.78999996    1.94000006
   11.94111156  185.46200562    3.78999996    1.94000006
   11.94416714  208.94799805    3.78999996    1.94000006
   11.94750023  196.48100281    3.78999996    1.94000006
   11.95055580  193.41099548    3.78999996    1.94000006
   11.95138836  202.57000732    3.78999996    1.94000006
   11.95444393  202.36500549    3.78999996    1.94000006
   11.95749950  186.18800354    3.78999996    1.94000006
   11.96083355  197.39799500    3.78999996    1.94000006
   11.96666622  197.39799500    3.78999996    1.94000006
   11.97083282  186.72399902    3.78999996    1.94000006
   11.97416592  181.46299744    3.78999996    1.94000006
   11.97722149  202.76600647    3.78999996    1.94000006
   11.98055553  185.95300293    3.78999996    1.94000006
   11.98361111  196.90600586    3.78999996    1.94000006
   11.98472214  172.20799255    3.78999996    1.94000006
   11.98750019  174.86099243    3.78999996    1.94000006
   11.99055576  186.57400513    3.78999996    1.94000006
   11.99388885  190.41799927    3.78999996    1.94000006
   11.99694443  185.75700378    3.78999996    1.94000006
   12.00027752  182.63400269    3.78999996    1.94000006
   12.00361156  186.52600098    3.78999996    1.94000006
   12.00944424  186.52600098    3.78999996    1.94000006
   12.01361084  191.42700195    3.78999996    1.94000006
   12.01694393  185.41400146    3.78999996    1.94000006
   12.01805496  192.90800476    3.78999996    1.94000006
   12.02055550  195.94299316    3.78999996    1.94000006
   12.02361107  187.81399536    3.78999996    1.94000006
   12.02694416  195.27200317    3.78999996    1.94000006
   12.02999973  168.97500610    3.78999996    1.94000006
   12.03333378  200.83900452    3.78999996    1.94000006
   12.03666687  195.93400574    3.78999996    1.94000006
   12.03972244  200.24899292    3.78999996    1.94000006
   12.04305553  188.80200195    3.78999996    1.94000006
   12.04638958  189.64399719    3.78999996    1.94000006
   12.05249977  189.64399719    3.78999996    1.94000006
   12.05666733  177.03700256    3.78999996    1.94000006
   12.05972195  197.96400452    3.78999996    1.94000006
   12.06305599  191.50199890    3.78999996    1.94000006
   12.06611156  187.72300720    3.78999996    1.94000006
   12.06944466  183.72999573    3.78999996    1.94000006
   12.07277775  187.86300659    3.78999996    1.94000006
   12.07583332  197.02799988    3.78999996    1.94000006
   12.07916641  188.71899414    3.78999996    1.94000006
   12.08249950  187.65600586    3.78999996    1.94000006
   12.08472157  184.40899658    3.78999996    1.94000006
   12.08611107  185.82899475    3.78999996    1.94000006
   12.08916664  193.04100037    3.78999996    1.94000006
   12.09527779  193.04100037    3.78999996    1.94000006
   12.09944439  189.60499573    3.78999996    1.94000006
   12.10249996  186.31199646    3.78999996    1.94000006
   12.10583401  206.83399963    3.78999996    1.94000006
   12.10916710  194.21499634    3.78999996    1.94000006
   12.11222267  201.54499817    3.78999996    1.94000006
   12.11555576  202.95300293    3.78999996    1.94000006
   12.11805534  196.33799744    3.78999996    1.94000006
   12.11916637  191.22200012    3.78999996    1.94000006
   12.12222195  197.66700745    3.78999996    1.94000006
   12.12555599  173.45300293    3.78999996    1.94000006
   12.12861156  201.68200684    3.78999996    1.94000006
   12.13194466  200.22700500    3.78999996    1.94000006
   12.13805580  200.22700500    3.78999996    1.94000006
   12.14222240  194.35600281    3.78999996    1.94000006
   12.14555550  187.11399841    3.78999996    1.94000006
   12.14861107  198.86099243    3.78999996    1.94000006
   12.15138817  180.53900146    3.78999996    1.94000006
   12.15249920  197.26600647    3.78999996    1.94000006
   12.15555477  182.85800171    3.78999996    1.94000006
   12.15888882  190.18499756    3.78999996    1.94000006
   12.16222191  188.58999634    3.78999996    1.94000006
   12.16527748  183.75900269    3.78999996    1.94000006
   12.16861153  185.81199646    3.78999996    1.94000006
   12.17166710  191.30000305    3.78999996    1.94000006
   12.17500019  188.88499451    3.78999996    1.94000006
   12.18083382  188.88499451    3.78999996    1.94000006
   12.18500042  189.01300049    3.78999996    1.94000006
   12.18833351  184.88400269    3.78999996    1.94000006
   12.19166660  185.22500610    3.78999996    1.94000006
   12.19472218  196.58799744    3.78999996    1.94000006
   12.19805527  187.23300171    3.78999996    1.94000006
   12.20111084  194.70199585    3.78999996    1.94000006
   12.20444393  188.14799500    3.78999996    1.94000006
   12.20777798  196.52099609    3.78999996    1.94000006
   12.21083355  192.43899536    3.78999996    1.94000006
   12.21416664  181.13000488    3.78999996    1.94000006
   12.21749973  189.28999329    3.78999996    1.94000006
   12.21805477  184.54499817    3.78999996    1.94000006
   12.22388840  184.54499817    3.78999996    1.94000006
   12.22805500  182.55999756    3.78999996    1.94000006
   12.23111057  194.30200195    3.78999996    1.94000006
   12.23444462  205.96400452    3.78999996    1.94000006
   12.23750019  190.06500244    3.78999996    1.94000006
   12.24083328  182.38099670    3.78999996    1.94000006
   12.24416733  190.43600464    3.78999996    1.94000006
   12.24722290  192.69400024    3.78999996    1.94000006
   12.25055599  194.06900024    3.78999996    1.94000006
   12.25138855  189.05000305    3.78999996    1.94000006
   12.25416660  189.30900574    3.78999996    1.94000006
   12.25722218  188.48500061    3.78999996    1.94000006
   12.26055527  193.21400452    3.78999996    1.94000006
   12.26666641  193.21400452    3.78999996    1.94000006
   12.27083302  181.80900574    3.78999996    1.94000006
   12.27388859  178.00399780    3.78999996    1.94000006
   12.27722168  185.47000122    3.78999996    1.94000006
   12.28055573  186.73399353    3.78999996    1.94000006
   12.28388977  180.99400330    3.78999996    1.94000006
   12.28472233  195.44299316    3.78999996    1.94000006
   12.28750038  185.25300598    3.78999996    1.94000006
   12.29055595  184.58399963    3.78999996    1.94000006
   12.29388905  181.76800537    3.78999996    1.94000006
   12.29722309  179.48599243    3.78999996    1.94000006
   12.30027771  176.93699646    3.78999996    1.94000006
   12.30361176  178.88299561    3.78999996    1.94000006
   12.30944443  178.88299561    3.78999996    1.94000006
   12.31361103  179.48899841    3.78999996    1.94000006
   12.31694412  176.11099243    3.78999996    1.94000006
   12.31805515  186.69400024    3.78999996    1.94000006
   12.32055569  181.35699463    3.78999996    1.94000006
   12.32361126  194.95300293    3.78999996    1.94000006
   12.32694435  185.21200562    3.78999996    1.94000006
   12.33027744  188.69500732    3.78999996    1.94000006
   12.33333302  184.95399475    3.78999996    1.94000006
   12.33666611  174.38400269    3.78999996    1.94000006
   12.33972168  180.36300659    3.78999996    1.94000006
   12.34305477  183.59100342    3.78999996    1.94000006
   12.34638882  182.47099304    3.78999996    1.94000006
   12.35222244  182.47099304    3.78999996    1.94000006
   12.35638905  179.59599304    3.78999996    1.94000006
   12.35972214  179.04100037    3.78999996    1.94000006
   12.36305618  187.88099670    3.78999996    1.94000006
   12.36611176  188.54699707    3.78999996    1.94000006
   12.36944485  184.59199524    3.78999996    1.94000006
   12.37277794  190.97700500    3.78999996    1.94000006
   12.37583351  186.02400208    3.78999996    1.94000006
   12.37916660  194.23399353    3.78999996    1.94000006
   12.38222218  179.55200195    3.78999996    1.94000006
   12.38472176  180.47700500    3.78999996    1.94000006
   12.38611126  180.58599854    3.78999996    1.94000006
   12.38916683  187.30999756    3.78999996    1.94000006
   12.39527798  187.30999756    3.78999996    1.94000006
   12.39944458  183.55000305    3.78999996    1.94000006
   12.40249920  185.74400330    3.78999996    1.94000006
   12.40583324  173.03100586    3.78999996    1.94000006
   12.40888882  175.56300354    3.78999996    1.94000006
   12.41222191  171.15600586    3.78999996    1.94000006
   12.41555500  184.81399536    3.78999996    1.94000006
   12.41805553  178.38699341    3.78999996    1.94000006
   12.41916656  184.17300415    3.78999996    1.94000006
   12.42222214  173.28300476    3.78999996    1.94000006
   12.42555618  172.09300232    3.78999996    1.94000006
   12.42888927  172.94799805    3.78999996    1.94000006
   12.43194485  176.38299561    3.78999996    1.94000006
   12.43805599  176.38299561    3.78999996    1.94000006
   12.44222260  182.95199585    3.78999996    1.94000006
   12.44527817  187.48699951    3.78999996    1.94000006
   12.44861126  188.97000122    3.78999996    1.94000006
   12.45138836  193.72399902    3.78999996    1.94000006
   12.45222187  177.91600037    3.78999996    1.94000006
   12.45527744  180.90199280    3.78999996    1.94000006
   12.45861053  173.10299683    3.78999996    1.94000006
   12.46194458  177.24400330    3.78999996    1.94000006
   12.46500015  186.88000488    3.78999996    1.94000006
   12.46833324  181.14199829    3.78999996    1.94000006
   12.47138882  170.54800415    3.78999996    1.94000006
   12.47472191  186.60099792    3.78999996    1.94000006
   12.48083305  186.60099792    3.78999996    1.94000006
   12.48500061  179.72700500    3.78999996    1.94000006
   12.48833370  181.41600037    3.78999996    1.94000006
   12.49138927  182.57600403    3.78999996    1.94000006
   12.49472237  178.77799988    3.78999996    1.94000006
   12.49777794  181.38999939    3.78999996    1.94000006
   12.50111103  181.55799866    3.78999996    1.94000006
   12.50444412  176.64900208    3.78999996    1.94000006
   12.50749969  186.72200012    3.78999996    1.94000006
   12.51083374  175.51400757    3.78999996    1.94000006
   12.51416683  180.48300171    3.78999996    1.94000006
   12.51722240  176.89300537    3.78999996    1.94000006
   12.51805496  183.89999390    3.78999996    1.94000006
   12.53972244  183.89999390    3.78999996    1.94000006
   12.54388905  177.36999512    3.78999996    1.94000006
   12.54722309  181.07499695    3.78999996    1.94000006
   12.55027771  182.74000549    3.78999996    1.94000006
   12.55138874  175.74699402    3.78999996    1.94000006
   12.55388927  182.77000427    3.78999996    1.94000006
   12.55694485  182.76400757    3.78999996    1.94000006
   12.56027794  181.21499634    3.78999996    1.94000006
   12.56361103  183.91700745    3.78999996    1.94000006
   12.56666660  181.36399841    3.78999996    1.94000006
   12.56999969  181.98899841    3.78999996    1.94000006
   12.57333374  184.29400635    3.78999996    1.94000006
   12.57638836  177.28500366    3.78999996    1.94000006
   12.58249950  177.28500366    3.78999996    1.94000006
   12.58666611  181.98699951    3.78999996    1.94000006
   12.58972168  180.27200317    3.78999996    1.94000006
   12.59305477  192.55000305    3.78999996    1.94000006
   12.59638882  185.29400635    3.78999996    1.94000006
   12.59944439  169.90199280    3.78999996    1.94000006
   12.60277843  174.15600586    3.78999996    1.94000006
   12.60611153  183.46699524    3.78999996    1.94000006
   12.60916710  175.30999756    3.78999996    1.94000006
   12.61250019  179.39999390    3.78999996    1.94000006
   12.61555576  173.19999695    3.78999996    1.94000006
   12.61805534  181.55499268    3.78999996    1.94000006
   12.61944485  176.71499634    3.78999996    1.94000006
   12.62527752  176.71499634    3.78999996    1.94000006
   12.62944412  171.74899292    3.78999996    1.94000006
   12.63277817  176.95799255    3.78999996    1.94000006
   12.63583279  184.29800415    3.78999996    1.94000006
   12.63916683  182.40899658    3.78999996    1.94000006
   12.64249992  174.47999573    3.78999996    1.94000006
   12.64555550  184.40199280    3.78999996    1.94000006
   12.64888859  182.03500366    3.78999996    1.94000006
   12.65138817  178.29899597    3.78999996    1.94000006
   12.65249920  178.09199524    3.78999996    1.94000006
   12.65555477  180.92599487    3.78999996    1.94000006
   12.65888882  169.41499329    3.78999996    1.94000006
   12.66222191  177.14199829    3.78999996    1.94000006
   12.66805553  177.14199829    3.78999996    1.94000006
   12.67222214  179.96400452    3.78999996    1.94000006
   12.67555618  170.77600098    3.78999996    1.94000006
   12.67888927  172.97900391    3.78999996    1.94000006
   12.68194485  177.02799988    3.78999996    1.94000006
   12.68500042  177.10299683    3.78999996    1.94000006
   12.68583298  176.55499268    3.78999996    1.94000006
   12.68888855  167.68299866    3.78999996    1.94000006
   12.69222260  177.23500061    3.78999996    1.94000006
   12.69555569  169.61500549    3.78999996    1.94000006
   12.69861126  174.62500000    3.78999996    1.94000006
   12.70194435  158.83399963    3.78999996    1.94000006
   12.70527744  175.21800232    3.78999996    1.94000006
   12.71111107  175.21800232    3.78999996    1.94000006
   12.71527767  187.51199341    3.78999996    1.94000006
   12.71833324  182.39199829    3.78999996    1.94000006
   12.71888828  173.23100281    3.78999996    1.94000006
   12.72194386  174.28599548    3.78999996    1.94000006
   12.72527695  166.50999451    3.78999996    1.94000006
   12.72861099  176.38499451    3.78999996    1.94000006
   12.73166656  160.53199768    3.78999996    1.94000006
   12.73500061  168.42199707    3.78999996    1.94000006
   12.73805618  164.56900024    3.78999996    1.94000006
   12.74138927  181.08700562    3.78999996    1.94000006
   12.74472237  187.02499390    3.78999996    1.94000006
   12.74777794  178.41600037    3.78999996    1.94000006
   12.75944424  178.41600037    3.78999996    1.94000006
   12.76361084  174.30000305    3.78999996    1.94000006
   12.76694393  183.34399414    3.78999996    1.94000006
   12.77027798  172.58700562    3.78999996    1.94000006
   12.77333355  181.92999268    3.78999996    1.94000006
   12.77666664  181.80700684    3.78999996    1.94000006
   12.77972221  176.09300232    3.78999996    1.94000006
   12.78305531  179.64399719    3.78999996    1.94000006
   12.78500080  171.24400330    3.78999996    1.94000006
   12.78666687  176.75599670    3.78999996    1.94000006
   12.78972244  169.22000122    3.78999996    1.94000006
   12.79666710  169.22000122    3.78999996    1.94000006
   12.80083370  169.91499329    3.78999996    1.94000006
   12.80416679  173.96200562    3.78999996    1.94000006
   12.80722237  165.35000610    3.78999996    1.94000006
   12.81055546  163.05599976    3.78999996    1.94000006
   12.81388950  174.41700745    3.78999996    1.94000006
   12.81694412  177.38200378    3.78999996    1.94000006
   12.81833363  173.72799683    3.78999996    1.94000006
   12.82083321  175.17300415    3.78999996    1.94000006
   12.82388878  168.37800598    3.78999996    1.94000006
   12.82722187  171.52699280    3.78999996    1.94000006
   12.83055592  174.79800415    3.78999996    1.94000006
   12.83361053  171.19400024    3.78999996    1.94000006
   12.83944416  171.19400024    3.78999996    1.94000006
   12.84361076  168.22500610    3.78999996    1.94000006
   12.84694386  168.02699280    3.78999996    1.94000006
   12.85027790  172.19400024    3.78999996    1.94000006
   12.85194492  174.90699768    3.78999996    1.94000006
   12.85388947  166.85299683    3.78999996    1.94000006
   12.85694504  163.38200378    3.78999996    1.94000006
   12.86027813  169.16099548    3.78999996    1.94000006
   12.86361122  173.94599915    3.78999996    1.94000006
   12.86666679  171.13000488    3.78999996    1.94000006
   12.86999989  172.93400574    3.78999996    1.94000006
   12.87333393  167.25000000    3.78999996    1.94000006
   12.87638855  164.04100037    3.78999996    1.94000006
   12.88249969  164.04100037    3.78999996    1.94000006
   12.88666630  171.53399658    3.78999996    1.94000006
   12.88972187  176.87500000    3.78999996    1.94000006
   12.89305496  153.54299927    3.78999996    1.94000006
   12.89638901  176.85899353    3.78999996    1.94000006
   12.89944458  165.80499268    3.78999996    1.94000006
   12.90277767  161.02200317    3.78999996    1.94000006
   12.90583324  175.87199402    3.78999996    1.94000006
   12.90916634  159.97200012    3.78999996    1.94000006
   12.91249943  176.30299377    3.78999996    1.94000006
   12.91555500  179.40100098    3.78999996    1.94000006
   12.91861153  181.14300537    3.78999996    1.94000006
   12.91944504  165.30599976    3.78999996    1.94000006
   12.92527771  165.30599976    3.78999996    1.94000006
   12.92944431  170.10800171    3.78999996    1.94000006
   12.93249989  165.13099670    3.78999996    1.94000006
   12.93583298  157.27900696    3.78999996    1.94000006
   12.93916702  168.78399658    3.78999996    1.94000006
   12.94222260  167.18400574    3.78999996    1.94000006
   12.94555569  166.78799438    3.78999996    1.94000006
   12.94888878  158.25799561    3.78999996    1.94000006
   12.95194435  177.48100281    3.78999996    1.94000006
   12.95249939  175.28799438    3.78999996    1.94000006
   12.95555496  187.99600220    3.78999996    1.94000006
   12.95888901  165.99400330    3.78999996    1.94000006
   12.96222210  172.18899536    3.78999996    1.94000006
   12.96805477  172.18899536    3.78999996    1.94000006
   12.97222137  162.89399719    3.78999996    1.94000006
   12.97555542  166.14799500    3.78999996    1.94000006
   12.97861099  169.97000122    3.78999996    1.94000006
   12.98194408  170.67999268    3.78999996    1.94000006
   12.98527813  183.97700500    3.78999996    1.94000006
   12.98583317  153.85099792    3.78999996    1.94000006
   12.98888874  162.26499939    3.78999996    1.94000006
   12.99222279  163.76300049    3.78999996    1.94000006
   12.99555588  169.09300232    3.78999996    1.94000006
   12.99861145  164.46299744    3.78999996    1.94000006
   13.00194454  155.44000244    3.78999996    1.94000006
   13.00500011  169.78199768    3.78999996    1.94000006
   13.01083374  169.78199768    3.78999996    1.94000006
   13.01500034  160.24499512    3.78999996    1.94000006
   13.01833344  158.77600098    3.78999996    1.94000006
   13.01916599  169.75300598    3.78999996    1.94000006
   13.02194405  165.02699280    3.78999996    1.94000006
   13.02527714  159.13900757    3.78999996    1.94000006
   13.02833271  158.16099548    3.78999996    1.94000006
   13.03166676  164.31900024    3.78999996    1.94000006
   13.03500080  158.35099792    3.78999996    1.94000006
   13.03805637  169.23599243    3.78999996    1.94000006
   13.04138947  163.30200195    3.78999996    1.94000006
   13.04472256  158.61000061    3.78999996    1.94000006
   13.04777813  166.67700195    3.78999996    1.94000006
   13.05388927  166.67700195    3.78999996    1.94000006
   13.05777836  167.53999329    3.78999996    1.94000006
   13.06111145  157.33299255    3.78999996    1.94000006
   13.06444454  169.05700684    3.78999996    1.94000006
   13.06750011  155.88200378    3.78999996    1.94000006
   13.07083321  158.37899780    3.78999996    1.94000006
   13.07416630  160.69299316    3.78999996    1.94000006
   13.07722187  160.59599304    3.78999996    1.94000006
   13.08055592  170.58599854    3.78999996    1.94000006
   13.08361053  159.46000671    3.78999996    1.94000006
   13.08583260  150.26300049    3.78999996    1.94000006
   13.08722210  166.69099426    3.78999996    1.94000006
   13.09055519  156.74699402    3.78999996    1.94000006
   13.09666634  156.74699402    3.78999996    1.94000006
   13.10083389  150.84399414    3.78999996    1.94000006
   13.10388947  167.99200439    3.78999996    1.94000006
   13.10722256  162.24200439    3.78999996    1.94000006
   13.11055565  161.56599426    3.78999996    1.94000006
   13.11361122  159.43200684    3.78999996    1.94000006
   13.11694431  159.09399414    3.78999996    1.94000006
   13.11916637  164.80400085    3.78999996    1.94000006
   13.12055588  166.81700134    3.78999996    1.94000006
   13.12388897  156.37899780    3.78999996    1.94000006
   13.12722206  159.68600464    3.78999996    1.94000006
   13.13027763  172.07899475    3.78999996    1.94000006
   13.13361073  151.72700500    3.78999996    1.94000006
   13.13944435  151.72700500    3.78999996    1.94000006
   13.14361095  156.61599731    3.78999996    1.94000006
   13.14694405  153.58099365    3.78999996    1.94000006
   13.14999962  147.93600464    3.78999996    1.94000006
   13.15249920  165.83599854    3.78999996    1.94000006
   13.15361118  164.35200500    3.78999996    1.94000006
   13.15694427  162.26100159    3.78999996    1.94000006
   13.16027737  154.91600037    3.78999996    1.94000006
   13.16333294  168.09500122    3.78999996    1.94000006
   13.16666698  158.42199707    3.78999996    1.94000006
   13.16972256  159.42199707    3.78999996    1.94000006
   13.17305565  158.56300354    3.78999996    1.94000006
   13.17638874  161.02699280    3.78999996    1.94000006
   13.18222237  161.02699280    3.78999996    1.94000006
   13.18638897  159.69299316    3.78999996    1.94000006
   13.18972206  155.82099915    3.78999996    1.94000006
   13.19305515  150.59100342    3.78999996    1.94000006
   13.19611073  152.64999390    3.78999996    1.94000006
   13.19944477  154.66900635    3.78999996    1.94000006
   13.20249939  155.54499817    3.78999996    1.94000006
   13.20583344  158.28399658    3.78999996    1.94000006
   13.20916653  153.36199951    3.78999996    1.94000006
   13.21222210  147.89300537    3.78999996    1.94000006
   13.21555519  148.80700684    3.78999996    1.94000006
   13.21888828  154.11399841    3.78999996    1.94000006
   13.21944427  157.79899597    3.78999996    1.94000006
   13.22527695  157.79899597    3.78999996    1.94000006
   13.22944355  156.47900391    3.78999996    1.94000006
   13.23249912  153.50100708    3.78999996    1.94000006
   13.23583317  152.22700500    3.78999996    1.94000006
   13.23888874  145.34300232    3.78999996    1.94000006
   13.24222279  150.06500244    3.78999996    1.94000006
   13.24555588  157.83200073    3.78999996    1.94000006
   13.24861145  160.30200195    3.78999996    1.94000006
   13.25194454  159.11399841    3.78999996    1.94000006
   13.25277805  161.34500122    3.78999996    1.94000006
   13.25555515  152.39100647    3.78999996    1.94000006
   13.25888920  153.81900024    3.78999996    1.94000006
   13.26194477  154.12600708    3.78999996    1.94000006
   13.26805496  154.12600708    3.78999996    1.94000006
   13.27222157  156.05700684    3.78999996    1.94000006
   13.27527714  154.62600708    3.78999996    1.94000006
   13.27861118  160.93699646    3.78999996    1.94000006
   13.28194427  152.61500549    3.78999996    1.94000006
   13.28500080  154.97399902    3.78999996    1.94000006
   13.28611183  156.50599670    3.78999996    1.94000006
   13.28861141  159.53300476    3.78999996    1.94000006
   13.29194450  157.24499512    3.78999996    1.94000006
   13.29500008  160.39500427    3.78999996    1.94000006
   13.29833412  161.13299561    3.78999996    1.94000006
   13.30166721  162.20899963    3.78999996    1.94000006
   13.30472279  165.58500671    3.78999996    1.94000006
   13.31083393  165.58500671    3.78999996    1.94000006
   13.31500053  161.76100159    3.78999996    1.94000006
   13.31833363  158.07099915    3.78999996    1.94000006
   13.31944466  158.61900330    3.78999996    1.94000006
   13.32166672  161.97300720    3.78999996    1.94000006
   13.32499981  161.79600525    3.78999996    1.94000006
   13.32805538  167.36500549    3.78999996    1.94000006
   13.33138847  156.67799377    3.78999996    1.94000006
   13.33472157  163.56700134    3.78999996    1.94000006
   13.33777714  162.94099426    3.78999996    1.94000006
   13.34111118  164.14999390    3.78999996    1.94000006
   13.34444427  154.87600708    3.78999996    1.94000006
   13.34749985  161.82000732    3.78999996    1.94000006
   13.35361195  161.82000732    3.78999996    1.94000006
   13.35777855  162.45599365    3.78999996    1.94000006
   13.36111164  161.35800171    3.78999996    1.94000006
   13.36416721  152.91099548    3.78999996    1.94000006
   13.36750031  160.88099670    3.78999996    1.94000006
   13.37083340  160.05999756    3.78999996    1.94000006
   13.37416649  154.72000122    3.78999996    1.94000006
   13.37722206  161.46499634    3.78999996    1.94000006
   13.38055611  160.99299622    3.78999996    1.94000006
   13.38361073  156.80700684    3.78999996    1.94000006
   13.38611126  160.89900208    3.78999996    1.94000006
   13.38722229  164.77099609    3.78999996    1.94000006
   13.39055538  163.31700134    3.78999996    1.94000006
   13.39666653  163.31700134    3.78999996    1.94000006
   13.40055561  160.54299927    3.78999996    1.94000006
   13.40388870  158.23399353    3.78999996    1.94000006
   13.40722179  159.54600525    3.78999996    1.94000006
   13.41027737  163.28300476    3.78999996    1.94000006
   13.41361046  161.48199463    3.78999996    1.94000006
   13.41694450  162.24099731    3.78999996    1.94000006
   13.41944504  162.47200012    3.78999996    1.94000006
   13.42027855  154.05099487    3.78999996    1.94000006
   13.42361164  159.17799377    3.78999996    1.94000006
   13.42694473  160.76400757    3.78999996    1.94000006
   13.43000031  164.67300415    3.78999996    1.94000006
   13.43333340  160.92599487    3.78999996    1.94000006
   13.43944454  160.92599487    3.78999996    1.94000006
   13.44361115  165.12399292    3.78999996    1.94000006
   13.44666672  160.05700684    3.78999996    1.94000006
   13.44999981  163.69500732    3.78999996    1.94000006
   13.45277786  157.81399536    3.78999996    1.94000006
   13.45361137  163.96000671    3.78999996    1.94000006
   13.45694447  164.08700562    3.78999996    1.94000006
   13.46027756  162.00900269    3.78999996    1.94000006
   13.46333313  156.92700195    3.78999996    1.94000006
   13.46666622  158.83200073    3.78999996    1.94000006
   13.46972179  149.87899780    3.78999996    1.94000006
   13.47305489  161.10699463    3.78999996    1.94000006
   13.47638798  150.59599304    3.78999996    1.94000006
   13.48222160  150.59599304    3.78999996    1.94000006
   13.48638916  155.92199707    3.78999996    1.94000006
   13.48972225  163.93200684    3.78999996    1.94000006
   13.49277782  166.76899719    3.78999996    1.94000006
   13.49611092  172.82899475    3.78999996    1.94000006
   13.49916649  161.27299500    3.78999996    1.94000006
   13.50249958  161.07699585    3.78999996    1.94000006
   13.50583363  167.19299316    3.78999996    1.94000006
   13.50888920  161.56100464    3.78999996    1.94000006
   13.51222229  163.22900391    3.78999996    1.94000006
   13.51555538  146.74899292    3.78999996    1.94000006
   13.51861095  162.70199585    3.78999996    1.94000006
   13.51944447  157.31700134    3.78999996    1.94000006
   13.52499962  157.31700134    3.78999996    1.94000006
   13.52916622  161.32200623    3.78999996    1.94000006
   13.53249931  148.77799988    3.78999996    1.94000006
   13.53555584  160.29200745    3.78999996    1.94000006
   13.53888893  155.68899536    3.78999996    1.94000006
   13.55833340  135.43200684    3.78999996    1.94000006
   13.55888939  149.39399719    3.78999996    1.94000006
   13.56222248  148.13999939    3.78999996    1.94000006
   13.56805515  148.13999939    3.78999996    1.94000006
   13.57194424  155.26699829    3.78999996    1.94000006
   13.57527733  161.93299866    3.78999996    1.94000006
   13.57861137  159.82499695    3.78999996    1.94000006
   13.58166695  157.95100403    3.78999996    1.94000006
   13.58500004  159.39900208    3.78999996    1.94000006
   13.58833313  162.99899292    3.78999996    1.94000006
   13.59138870  164.65499878    3.78999996    1.94000006
   13.59222221  161.05599976    3.78999996    1.94000006
   13.59499931  158.08200073    3.78999996    1.94000006
   13.59833336  165.27900696    3.78999996    1.94000006
   13.60138893  148.28999329    3.78999996    1.94000006
   13.60472298  170.42300415    3.78999996    1.94000006
   13.61083412  170.42300415    3.78999996    1.94000006
   13.61500072  162.43600464    3.78999996    1.94000006
   13.61805534  162.69599915    3.78999996    1.94000006
   13.62138939  160.73300171    3.78999996    1.94000006
   13.62472248  158.85800171    3.78999996    1.94000006
   13.62555599  158.53999329    3.78999996    1.94000006
   13.63805580  152.21000671    0.00000000    0.00000000
   13.64111137  163.22700500    1.41999996    2.64000010
   13.64444447  158.64799500    1.41999996    2.66000009
   13.64777756  148.75199890    1.41999996    2.66000009
   13.65361118  148.75199890    1.39999998    2.64000010
   13.65777779  151.00100708    1.39999998    2.64000010
   13.65888882  157.49699402    1.39999998    2.64000010
   13.66138840  162.55499268    1.39999998    2.66000009
   13.66472149  151.65400696    1.39999998    2.66000009
   13.66777802  156.29299927    1.39999998    2.64000010
   13.67111111  161.98199463    1.39999998    2.64000010
   13.67444515  155.30599976    1.39999998    2.66000009
   13.67750072  145.64100647    1.39999998    2.64000010
   13.68083382  158.63600159    1.39999998    2.64000010
   13.69666672  148.05200195    0.00000000    0.00000000
   13.69722271  150.29899597    1.39999998    2.64000010
   13.70027733  145.55000305    1.38000000    2.66000009
   13.70611095  145.55000305    1.38000000    2.66000009
   13.71888828  157.33299255    0.00000000    0.00000000
   13.72222137  150.82899475    1.38000000    2.66000009
   13.72555542  150.42799377    1.38000000    2.66000009
   13.72861099  153.44299316    1.38000000    2.66000009
   13.73194408  157.34800720    1.38000000    2.66000009
   13.73500061  149.10299683    1.38000000    2.66000009
   13.73583317  153.59899902    1.38000000    2.66000009
   13.73916721  148.24899292    1.38000000    2.66000009
   13.74250031  148.15600586    1.38000000    2.66000009
   13.75805569  148.15600586    1.36000001    2.67000008
   13.76222229  157.02299500    1.36000001    2.66000009
   13.76555538  146.67300415    1.36000001    2.66000009
   13.76861095  145.13200378    1.36000001    2.66000009
   13.77194405  145.58799744    1.34000003    2.66000009
   13.77388859  149.70300293    1.36000001    2.66000009
   13.77555561  151.34599304    1.36000001    2.66000009
   13.77888870  154.75300598    1.36000001    2.66000009
   13.78222179  146.83599854    1.36000001    2.67000008
   13.78555584  127.74900055    1.36000001    2.66000009
   13.79194450  127.74900055    1.36000001    2.67000008
   13.79583359  146.75199890    1.36000001    2.66000009
   13.79916668  153.65199280    1.36000001    2.66000009
   13.80249977  150.91600037    1.36000001    2.66000009
   13.80555534  151.61900330    1.36000001    2.66000009
   13.80722237  142.15699768    1.36000001    2.66000009
   13.80916691  158.11199951    1.36000001    2.66000009
   13.81250000  151.99899292    1.36000001    2.67000008
   13.81583309  144.58299255    1.36000001    2.66000009
   13.81916618  155.34500122    1.36000001    2.66000009
   13.82222176  145.94400024    1.36000001    2.67000008
   13.82555580  158.61399841    1.38000000    2.66000009
   13.82861137  153.19900513    1.39999998    2.67000008
   13.83472157  153.19900513    1.39999998    2.67000008
   13.83888817  164.51199341    1.44000006    2.67000008
   13.84055519  158.90199280    1.46000004    2.66000009
   13.84277725  153.60499573    1.46000004    2.66000009
   13.84583282  158.53199768    1.46000004    2.66000009
   13.84916592  154.38900757    1.46000004    2.66000009
   13.85222244  157.63200378    1.41999996    2.66000009
   13.85555553  153.07400513    1.39999998    2.67000008
   13.85888958  144.26199341    1.38000000    2.67000008
   13.86194515  142.36700439    1.36000001    2.66000009
   13.86527824  149.10299683    1.36000001    2.67000008
   13.86861134  154.99800110    1.36000001    2.66000009
   13.87166691  153.82699585    1.36000001    2.67000008
   13.87388897  146.18899536    1.36000001    2.66000009
   13.87805557  146.18899536    1.36000001    2.67000008
   13.88222218  147.04400635    1.36000001    2.67000008
   13.88527775  152.88999939    1.36000001    2.66000009
   13.88861084  147.21499634    1.36000001    2.66000009
   13.89194393  139.00700378    1.38000000    2.67000008
   13.89499950  153.21800232    1.38000000    2.67000008
   13.89833355  156.30799866    1.38000000    2.67000008
   13.90138817  153.84800720    1.39999998    2.67000008
   13.90472221  148.49200439    1.38000000    2.67000008
   13.90722179  152.76899719    1.38000000    2.67000008
   13.90833282  158.48300171    1.39999998    2.66000009
   13.91166592  153.46699524    1.36000001    2.66000009
   13.91499996  147.84100342    1.36000001    2.67000008
   13.92083359  147.84100342    1.34000003    2.67000008
   13.92500019  140.22300720    1.33000004    2.67000008
   13.92805576  149.92100525    1.33000004    2.67000008
   13.93138885  147.95799255    1.30999994    2.67000008
   13.93472195  139.46699524    1.30999994    2.67000008
   13.93777752  150.50599670    1.30999994    2.67000008
   13.94055557  146.13999939    1.30999994    2.67000008
   13.94138908  146.76400757    1.30999994    2.67000008
   13.94472218  147.70700073    1.30999994    2.66000009
   13.94805527  144.41499329    1.28999996    2.67000008
   13.95111084  139.73899841    1.30999994    2.67000008
   13.95444393  142.35000610    1.30999994    2.67000008
   13.95777798  144.25999451    1.30999994    2.67000008
   13.96361065  144.25999451    1.30999994    2.67000008
   13.96777725  148.32699585    1.30999994    2.67000008
   13.97111034  131.13900757    1.30999994    2.67000008
   13.97388840  142.56900024    1.30999994    2.69000006
   13.97472191  145.22200012    1.30999994    2.67000008
   13.97805500  144.20599365    1.30999994    2.67000008
   13.98138809  143.51800537    1.30999994    2.67000008
   13.98472214  148.70700073    1.30999994    2.67000008
   13.98777771  149.23699951    1.30999994    2.69000006
   13.99111176  160.20500183    1.30999994    2.67000008
   13.99416733  147.34500122    1.30999994    2.67000008
   13.99750042  142.88999939    1.30999994    2.67000008
   14.00083351  151.55299377    1.30999994    2.69000006
   14.00666714  151.55299377    1.28999996    2.67000008
   14.01083374  146.87100220    1.28999996    2.67000008
   14.01388931  145.35200500    1.28999996    2.67000008
   14.01722240  146.69500732    1.28999996    2.67000008
   14.02055550  144.40800476    1.28999996    2.69000006
   14.02361107  143.47300720    1.26999998    2.69000006
   14.02694416  126.14700317    1.26999998    2.69000006
   14.03027725  146.92900085    1.26999998    2.69000006
   14.03333378  153.97999573    1.26999998    2.67000008
   14.03666687  142.20100403    1.26999998    2.69000006
   14.03972244  143.38999939    1.26999998    2.69000006
   14.04166698  149.81599426    1.25000000    2.67000008
   14.04361153  149.17500305    1.25000000    2.67000008
   14.04944515  149.17500305    1.26999998    2.69000006
   14.05361176  149.46400452    1.26999998    2.69000006
   14.05666733  143.21000671    1.26999998    2.69000006
   14.06000042  139.84399414    1.26999998    2.69000006
   14.06305599  141.02799988    1.33000004    2.69000006
   14.06638908  155.72900391    1.28999996    2.69000006
   14.06972218  140.97300720    1.28999996    2.69000006
   14.07277775  145.46600342    1.28999996    2.69000006
   14.07499981  141.83700562    1.28999996    2.69000006
   14.07666683  142.93200684    1.28999996    2.69000006
   14.07999992  145.32000732    1.28999996    2.67000008
   14.08305550  143.16000366    1.28999996    2.69000006
   14.08638859  136.10800171    1.28999996    2.71000004
   14.09222221  136.10800171    1.26999998    2.67000008
   14.09638882  149.75500488    1.28999996    2.69000006
   14.09944439  141.86300659    1.26999998    2.67000008
   14.10277843  149.26300049    1.26999998    2.69000006
   14.10611153  151.43499756    1.26999998    2.69000006
   14.10833359  144.17799377    1.26999998    2.69000006
   14.10972214  150.05000305    1.26999998    2.69000006
   14.11305618  150.79800415    1.26999998    2.69000006
   14.11611176  140.05200195    1.26999998    2.69000006
   14.11944485  142.08999634    1.26999998    2.69000006
   14.12277794  147.91400146    1.26999998    2.69000006
   14.12583351  145.49200439    1.26999998    2.69000006
   14.12916660  149.01199341    1.26999998    2.69000006
   14.13500023  149.01199341    1.26999998    2.69000006
   14.13916683  144.19999695    1.25000000    2.69000006
   14.14166641  135.61500549    1.25000000    2.69000006
   14.14277744  147.32699585    1.25000000    2.69000006
   14.14611053  146.89500427    1.25000000    2.71000004
   14.14916611  140.49400330    1.25000000    2.71000004
   14.15249920  137.28999329    1.25000000    2.71000004
   14.15583324  145.81100464    1.25000000    2.71000004
   14.15888882  157.16799927    1.25000000    2.69000006
   14.16222191  139.42500305    1.23000002    2.69000006
   14.16527748  141.68400574    1.23000002    2.69000006
   14.16861153  142.51699829    1.23000002    2.69000006
   14.17194462  150.04600525    1.23000002    2.69000006
   14.17777824  150.04600525    1.21000004    2.69000006
   14.18194485  142.72000122    1.21000004    2.69000006
   14.18527794  139.62300110    1.19000006    2.69000006
   14.18861103  136.33999634    1.21000004    2.71000004
   14.19166660  150.47799683    1.19000006    2.69000006
   14.19499969  142.70899963    1.21000004    2.71000004
   14.19805527  128.86399841    1.19000006    2.71000004
   14.20138836  138.56500244    1.19000006    2.69000006
   14.20472240  149.72099304    1.19000006    2.69000006
   14.20805550  147.65899658    1.19000006    2.69000006
   14.20888901  145.93499756    1.19000006    2.69000006
   14.21138859  141.86399841    1.19000006    2.69000006
   14.21472168  145.52499390    1.19000006    2.69000006
   14.22499943  145.52499390    1.19000006    2.71000004
   14.22916603  142.36399841    1.19000006    2.71000004
   14.23249912  141.54699707    1.19000006    2.71000004
   14.23555565  131.87100220    1.19000006    2.71000004
   14.23888874  137.50399780    1.19000006    2.71000004
   14.24222279  143.88499451    1.19000006    2.69000006
   14.24250031  141.15100098    1.19000006    2.69000006
   14.24583340  145.22599792    1.19000006    2.69000006
   14.24916649  140.70300293    1.19000006    2.71000004
   14.25222206  126.74900055    1.19000006    2.71000004
   14.25555515  140.29600525    1.21000004    2.71000004
   14.25888920  140.27499390    1.19000006    2.69000006
   14.26361084  140.27499390    1.19000006    2.71000004
   14.26777744  139.10899353    1.19000006    2.69000006
   14.27083302  139.61399841    1.19000006    2.71000004
   14.27416611  137.83799744    1.19000006    2.71000004
   14.27555561  130.03100586    1.19000006    2.71000004
   14.27777767  141.69200134    1.19000006    2.71000004
   14.28111076  142.70700073    1.19000006    2.71000004
   14.28416729  153.80900574    1.19000006    2.71000004
   14.28750038  132.13600159    1.16999996    2.71000004
   14.29083347  136.82200623    1.19000006    2.71000004
   14.29388905  146.81100464    1.19000006    2.71000004
   14.29722309  149.27699280    1.16999996    2.71000004
   14.30055618  139.84500122    1.19000006    2.71000004
   14.30638885  139.84500122    1.19000006    2.71000004
   14.31055546  138.40600586    1.19000006    2.71000004
   14.31388950  138.34199524    1.19000006    2.69000006
   14.31722260  133.83399963    1.21000004    2.71000004
   14.32027817  137.06100464    1.21000004    2.69000006
   14.32361126  139.59700012    1.21000004    2.69000006
   14.32666683  143.69900513    1.21000004    2.69000006
   14.32999992  142.44099426    1.23000002    2.71000004
   14.33333302  148.07699585    1.23000002    2.71000004
   14.33638859  144.97599792    1.23000002    2.71000004
   14.33972168  136.86999512    1.23000002    2.71000004
   14.34222221  143.75799561    1.23000002    2.71000004
   14.34333324  155.16200256    1.23000002    2.71000004
   14.34916592  155.16200256    1.25000000    2.71000004
   14.35333347  153.15199280    1.26999998    2.69000006
   14.35666752  134.81700134    1.26999998    2.69000006
   14.36000061  149.15600586    1.25000000    2.69000006
   14.36305618  128.71200562    1.25000000    2.69000006
   14.36694431  148.40499878    1.26999998    2.71000004
   14.36999989  140.30000305    1.25000000    2.69000006
   14.37333393  139.63499451    1.25000000    2.69000006
   14.37555599  145.74800110    1.26999998    2.71000004
   14.37694454  145.52600098    1.25000000    2.71000004
   14.38027763  146.28500366    1.25000000    2.69000006
   14.38333321  146.63400269    1.25000000    2.71000004
   14.38666630  143.63299561    1.25000000    2.71000004
   14.40111065  143.63299561    1.21000004    2.71000004
   14.40527725  136.02900696    1.21000004    2.71000004
   14.40861034  143.53199768    1.23000002    2.71000004
   14.41194439  138.91400146    1.23000002    2.71000004
   14.41527748  144.31900024    1.21000004    2.69000006
   14.41694450  143.93400574    1.21000004    2.69000006
   14.41916656  144.52900696    1.21000004    2.69000006
   14.42222214  142.77099609    1.21000004    2.71000004
   14.42555618  143.65199280    1.21000004    2.71000004
   14.42888927  151.05799866    1.19000006    2.71000004
   14.43500042  151.05799866    1.19000006    2.71000004
   14.43916702  131.00000000    1.16999996    2.71000004
   14.44222260  143.84899902    1.14999998    2.71000004
   14.44555569  155.06700134    1.14999998    2.71000004
   14.44888878  143.71299744    1.14999998    2.71000004
   14.45027733  134.52099609    1.14999998    2.71000004
   14.45249939  151.01699829    1.13000000    2.73000002
   14.45555496  143.44599915    1.13000000    2.71000004
   14.45888901  145.26300049    1.13000000    2.71000004
   14.46222210  149.72700500    1.13000000    2.71000004
   14.46555519  148.08599854    1.11000001    2.71000004
   14.46861076  143.20300293    1.11000001    2.71000004
   14.47194386  150.50100708    1.11000001    2.71000004
   14.47777748  150.50100708    1.11000001    2.71000004
   14.48249912  148.19700623    1.11000001    2.73000002
   14.48361111  151.22900391    1.11000001    2.73000002
   14.48638916  145.09700012    1.11000001    2.73000002
   14.48972225  145.58799744    1.11000001    2.73000002
   14.49388885  150.55900574    1.11000001    2.71000004
   14.49722290  152.94299316    1.13000000    2.71000004
   14.50027752  149.44500732    1.13000000    2.71000004
   14.50361156  152.25900269    1.11000001    2.73000002
   14.50666714  148.89199829    1.11000001    2.73000002
   14.51000023  145.93800354    1.11000001    2.71000004
   14.51333332  153.42300415    1.11000001    2.71000004
   14.51638889  142.72099304    1.13000000    2.71000004
   14.51694393  152.24200439    1.13000000    2.71000004
   14.52138901  152.24200439    1.13000000    2.73000002
   14.52583313  130.18200684    1.13000000    2.71000004
   14.52916622  144.02000427    1.13000000    2.71000004
   14.53222179  153.76100159    1.13000000    2.71000004
   14.53555584  138.56700134    1.13000000    2.71000004
   14.53861141  151.67500305    1.14999998    2.71000004
   14.54194450  144.16299438    1.14999998    2.71000004
   14.54527855  147.60699463    1.13000000    2.71000004
   14.54916668  148.98100281    1.14999998    2.71000004
   14.55027771  149.60200500    1.14999998    2.71000004
   14.55277824  143.67599487    1.14999998    2.69000006
   14.55611134  147.56799316    1.14999998    2.69000006
   14.55916691  145.31799316    1.14999998    2.71000004
   14.56444454  145.31799316    1.14999998    2.71000004
   14.56861115  148.62800598    1.14999998    2.69000006
   14.58111095  147.98100281    0.00000000    0.00000000
   14.59944439  152.75100708    1.11000001    2.71000004
   14.60111141  151.18099976    1.11000001    2.73000002
   14.60416698  142.63099670    1.11000001    2.73000002
   14.60888958  142.63099670    1.11000001    2.73000002
   14.61305618  148.84199524    1.11000001    2.71000004
   14.61611176  151.18600464    1.11000001    2.71000004
   14.61944485  149.76800537    1.11000001    2.73000002
   14.62277794  150.56100464    1.11000001    2.71000004
   14.62611103  151.94500732    1.11000001    2.71000004
   14.62916660  154.91200256    1.11000001    2.71000004
   14.63249969  158.80200195    1.11000001    2.71000004
   14.63305569  148.57899475    1.11000001    2.71000004
   14.63638878  159.80299377    1.11000001    2.71000004
   14.63944435  150.86500549    1.11000001    2.73000002
   14.64277744  156.19900513    1.11000001    2.73000002
   14.64583302  155.57000732    1.11000001    2.73000002
   14.65166664  155.57000732    1.13000000    2.73000002
   14.65583324  145.66900635    1.13000000    2.73000002
   14.65916634  149.87800598    1.14999998    2.73000002
   14.66222191  134.34199524    1.13000000    2.71000004
   14.66555500  134.50000000    1.13000000    2.73000002
   14.66638851  144.59300232    1.13000000    2.73000002
   14.66944504  150.18699646    1.13000000    2.73000002
   14.67250061  145.02799988    1.13000000    2.73000002
   14.67583370  150.33999634    1.13000000    2.73000002
   14.67916679  146.22599792    1.13000000    2.73000002
   14.68222237  147.25399780    1.11000001    2.73000002
   14.68555546  137.97300720    1.13000000    2.73000002
   14.68888855  150.64500427    1.13000000    2.73000002
   14.70361137  150.64500427    1.13000000    2.73000002
   14.70749950  145.48199463    1.13000000    2.73000002
   14.71083355  150.11199951    1.14999998    2.73000002
   14.71416664  143.83999634    1.14999998    2.73000002
   14.71722221  153.82000732    1.16999996    2.73000002
   14.72055531  143.26899719    1.16999996    2.71000004
   14.72388840  154.59199524    1.16999996    2.71000004
   14.72749996  143.00100708    1.14999998    2.71000004
   14.73083305  145.95399475    1.14999998    2.73000002
   14.73750019  145.95399475    1.16999996    2.73000002
   14.74166679  152.20300293    1.16999996    2.73000002
   14.74499989  153.69400024    1.16999996    2.73000002
   14.74833393  146.64300537    1.14999998    2.75000000
   14.75138855  137.82699585    1.14999998    2.73000002
   14.75472260  140.82400513    1.13000000    2.71000004
   14.75805569  138.77099609    1.13000000    2.71000004
   14.76249981  143.48100281    1.11000001    2.73000002
   14.76583290  152.20700073    1.11000001    2.73000002
   14.76888847  144.57200623    1.11000001    2.73000002
   14.77222157  149.97399902    1.11000001    2.73000002
   14.77277756  142.61000061    1.11000001    2.73000002
   14.77583313  140.59700012    1.11000001    2.75000000
   14.78027725  140.59700012    1.11000001    2.73000002
   14.79333401  135.75199890    0.00000000    0.00000000
   14.89888859   -1.00000000   -1.00000000   -1.00000000
   14.99833393   -1.00000000   -1.00000000   -1.00000000
   15.11500072   -1.00000000   -1.00000000   -1.00000000
   15.14333344  143.43200684    1.09000003    2.75000000
   15.14666653  140.38999939    1.09000003    2.75000000
   15.14972210  151.74499512    1.09000003    2.75000000
   15.15305519  150.19099426    1.07000005    2.75000000
   15.15749931  143.57200623    1.07000005    2.75000000
   15.16361046  143.57200623    1.07000005    2.75000000
   15.16861153  155.28399658    1.07000005    2.75000000
   15.17166710  165.50399780    1.07000005    2.75000000
   15.17500019  172.35800171    1.07000005    2.75000000
   15.17666721  163.62300110    1.07000005    2.75000000
   15.17861176  179.67399597    1.07000005    2.75000000
   15.18166733  176.92999268    1.07000005    2.75000000
   15.18500042  168.90299988    1.07000005    2.75000000
   15.18833351  174.25500488    1.07000005    2.75000000
   15.19138908  181.47999573    1.07000005    2.75000000
   15.19472218  173.25300598    1.07000005    2.75000000
   15.19777775  169.52799988    1.07000005    2.75000000
   15.20111084  193.92700195    1.07000005    2.75000000
   15.20638847  193.92700195    1.07000005    2.75000000
   15.21055508  176.59199524    1.07000005    2.75000000
   15.21388912  189.37899780    1.07000005    2.75000000
   15.21694374  182.75199890    1.07000005    2.75000000
   15.22027779  178.05099487    1.07000005    2.75000000
   15.22361088  187.23800659    1.07000005    2.75000000
   15.22694397  176.22799683    1.07000005    2.75000000
   15.22999954  177.72900391    1.07000005    2.75000000
   15.23333359  169.64500427    1.07000005    2.75000000
   15.23638916  177.43499756    1.07000005    2.75000000
   15.23972225  158.07800293    1.07000005    2.75000000
   15.24305534  167.85499573    1.07000005    2.75000000
   15.24361134  170.05099487    1.07000005    2.75000000
   15.24916649  170.05099487    1.07000005    2.75000000
   15.25333309  155.26199341    1.07000005    2.75000000
   15.25666714  169.28999329    1.07000005    2.75000000
   15.26000023  170.88600159    1.07000005    2.75000000
   15.26305580  166.67199707    1.07000005    2.75000000
   15.26638889  178.10600281    1.07000005    2.75000000
   15.26972198  162.50300598    1.07000005    2.75000000
   15.27277756  158.45100403    1.07000005    2.75000000
   15.27611065  156.97200012    1.07000005    2.75000000
   15.27694416  182.90499878    1.07000005    2.75000000
   15.27972221  157.70500183    1.07000005    2.75000000
   15.28305531  167.41799927    1.07000005    2.75000000
   15.28638935  169.51800537    1.07000005    2.75000000
   15.29222298  169.51800537    1.07000005    2.75000000
   15.29638958  168.86000061    1.07000005    2.75000000
   15.29944515  185.53300476    1.07000005    2.75000000
   15.30277824  166.61599731    1.07000005    2.75000000
   15.30611134  159.99699402    1.07000005    2.75000000
   15.30916691  160.53199768    1.07000005    2.75000000
   15.31027794  177.53799438    1.07000005    2.75000000
   15.31277752  139.58900452    1.09000003    2.75000000
   15.31611156  155.44999695    0.98000002    2.75000000
   15.31944466  151.80700684    0.98000002    2.75000000
   15.32250023  151.39500427    0.98000002    2.75000000
   15.32583332  156.30499268    0.98000002    2.75000000
   15.32888889  156.62899780    0.98000002    2.75000000
   15.33527756  156.62899780    0.95999998    2.75000000
   15.33944416  154.44200134    0.95999998    2.75000000
   15.34249973  142.83200073    0.95999998    2.75000000
   15.34361076  149.07499695    0.95999998    2.75000000
   15.35555553  156.75300598    0.00000000    0.00000000
   15.35888958  141.69900513    0.95999998    2.75000000
   15.36194515  137.53999329    0.94000000    2.76999998
   15.36527824  151.05799866    0.94000000    2.76999998
   15.36861134  147.50900269    0.95999998    2.75000000
   15.37166691  137.31500244    0.94000000    2.76999998
   15.37500000  146.33299255    0.94000000    2.75000000
   15.37694454  142.84500122    0.94000000    2.75000000
   15.37861156  159.92999268    0.94000000    2.75000000
   15.38333321  159.92999268    0.94000000    2.75000000
   15.38722229  151.10400391    0.94000000    2.75000000
   15.39055538  157.27200317    0.95999998    2.75000000
   15.39472198  145.37800598    0.95999998    2.76999998
   15.39805508  141.85800171    0.94000000    2.76999998
   15.40111065  149.13900757    0.94000000    2.76999998
   15.40444374  144.95500183    0.94000000    2.75000000
   15.40777779  135.22999573    0.94000000    2.76999998
   15.41027737  138.24499512    0.94000000    2.75000000
   15.41138840  135.45899963    0.94000000    2.75000000
   15.41472149  140.95399475    0.94000000    2.75000000
   15.41777802  138.56300354    0.94000000    2.75000000
   15.42111111  134.53599548    0.95999998    2.75000000
   15.42611122  134.53599548    0.95999998    2.75000000
   15.43027782  136.09199524    0.94000000    2.75000000
   15.43333340  139.27699280    0.94000000    2.76999998
   15.43666649  147.95500183    0.94000000    2.75000000
   15.44000053  145.73500061    0.94000000    2.76999998
   15.44305515  144.03399658    0.94000000    2.76999998
   15.44361115  137.89300537    0.94000000    2.76999998
   15.44694424  124.69599915    0.92000002    2.75000000
   15.45027733  136.54200745    0.92000002    2.75000000
   15.45361137  146.50300598    0.92000002    2.76999998
   15.45666695  151.14399719    0.94000000    2.75000000
   15.46138859  144.54299927    0.94000000    2.75000000
   15.46444416  165.72000122    0.92000002    2.76999998
   15.46888828  165.72000122    0.92000002    2.76999998
   15.47305489  131.30799866    0.89999998    2.76999998
   15.47638798  138.35400391    0.89999998    2.75000000
   15.47694397  138.49800110    0.89999998    2.76999998
   15.47999954  137.47300720    0.92000002    2.76999998
   15.48333359  131.95700073    0.92000002    2.76999998
   15.48638916  132.11000061    0.92000002    2.76999998
   15.48972225  138.97099304    0.98000002    2.76999998
   15.49305534  132.78199768    1.01999998    2.76999998
   15.49638939  134.80999756    1.00000000    2.75000000
   15.49972248  132.29100037    1.00000000    2.75000000
   15.50277805  135.22099304    1.01999998    2.75000000
   15.50611115  126.00599670    0.98000002    2.76999998
   15.51166630  126.00599670    1.00000000    2.76999998
   15.51583290  150.27400208    0.98000002    2.76999998
   15.51916599  132.29400635    1.00000000    2.75000000
   15.52222157  142.24099731    0.98000002    2.75000000
   15.52555561  134.99099731    0.98000002    2.76999998
   15.52888870  137.04600525    1.00000000    2.76999998
   15.53194427  136.30599976    1.00000000    2.75000000
   15.53527832  130.01300049    1.01999998    2.75000000
   15.53861141  132.42300415    1.00000000    2.78999996
   15.54166698  131.97900391    1.00000000    2.76999998
   15.54361153  132.30200195    1.00000000    2.76999998
   15.54527855  138.38600159    1.00000000    2.76999998
   15.54861164  128.57000732    0.98000002    2.76999998
   15.55444431  128.57000732    0.98000002    2.76999998
   15.55888939  132.42599487    0.95999998    2.76999998
   15.56222248  135.97500610    0.98000002    2.76999998
   15.56555557  132.44599915    0.98000002    2.76999998
   15.56861115  135.00900269    0.98000002    2.76999998
   15.57194424  132.08399963    0.98000002    2.76999998
   15.57499981  135.01800537    1.00000000    2.76999998
   15.57694435  132.46099854    1.01999998    2.76999998
   15.57861137  132.68899536    1.00000000    2.75000000
   15.58611107  129.00100708    1.00000000    2.76999998
   15.58944416  136.25399780    1.00000000    2.76999998
   15.59249973  125.83200073    0.98000002    2.76999998
   15.59749985  125.83200073    0.98000002    2.76999998
   15.60166740  135.93400574    0.98000002    2.76999998
   15.61333370  137.67100525    0.00000000    0.00000000
   15.61388969  136.11599731    1.00000000    2.76999998
   15.61694431  138.24299622    0.98000002    2.75000000
   15.61999989  139.56500244    1.01999998    2.78999996
   15.62333393  139.92199707    1.01999998    2.76999998
   15.62666702  144.66099548    1.01999998    2.76999998
   15.62972260  140.61900330    0.95999998    2.76999998
   15.63305569  145.15199280    0.92000002    2.76999998
   15.63638878  136.61799622    0.89999998    2.76999998
   15.64083290  136.61799622    0.89999998    2.76999998
   15.64499950  129.80900574    0.88000000    2.76999998
   15.64722252  137.49699402    0.88000000    2.76999998
   15.64888859  139.32200623    0.89999998    2.76999998
   15.65222168  135.75900269    0.88000000    2.78999996
   15.65527725  145.11500549    0.89999998    2.78999996
   15.66777802  147.47999573    0.00000000    0.00000000
   15.67111111  136.25599670    0.94000000    2.76999998
   15.67416668  141.22300720    0.94000000    2.76999998
   15.67750072  133.78399658    0.94000000    2.76999998
   15.68388939  133.78399658    0.98000002    2.76999998
   15.68805599  139.14199829    0.98000002    2.76999998
   15.69111156  142.89799500    1.00000000    2.76999998
   15.69444466  134.63400269    1.00000000    2.78999996
   15.69777775  138.32499695    1.01999998    2.76999998
   15.70083332  135.83999634    1.01999998    2.76999998
   15.70416641  134.21299744    1.01999998    2.76999998
   15.70722198  145.42799377    1.03999996    2.75000000
   15.71055508  146.85299683    1.03999996    2.76999998
   15.71388912  142.52000427    1.05999994    2.76999998
   15.71694374  137.02000427    1.07000005    2.75000000
   15.71749973  140.20199585    1.07000005    2.75000000
   15.72083282  136.19799805    1.05999994    2.76999998
   15.72666645  136.19799805    1.03999996    2.76999998
   15.73083305  128.35600281    1.03999996    2.76999998
   15.73416710  130.63600159    1.03999996    2.76999998
   15.73722267  139.79200745    1.07000005    2.76999998
   15.74055576  141.00100708    1.09000003    2.75000000
   15.74361134  133.34700012    1.07000005    2.75000000
   15.74694443  143.86599731    1.07000005    2.76999998
   15.75027752  141.44500732    1.05999994    2.76999998
   15.75055599  145.33500671    1.03999996    2.76999998
   15.75388908  136.50599670    1.03999996    2.76999998
   15.75694466  134.00199890    1.01999998    2.76999998
   15.76027775  140.36000061    0.98000002    2.75000000
   15.76361084  143.47000122    1.00000000    2.76999998
   15.76944447  143.47000122    1.00000000    2.78999996
   15.77361107  139.85000610    0.98000002    2.76999998
   15.77694416  145.37500000    0.95999998    2.76999998
   15.77999973  123.43399811    0.95999998    2.76999998
   15.78333378  133.86300659    0.95999998    2.76999998
   15.78388977  140.63200378    0.95999998    2.76999998
   15.78722286  133.10699463    0.95999998    2.76999998
   15.79027843  135.32600403    0.95999998    2.76999998
   15.79361153  138.98699951    0.95999998    2.76999998
   15.79694462  141.98100281    0.95999998    2.76999998
   15.80027771  134.88000488    0.95999998    2.76999998
   15.80333328  142.38099670    0.95999998    2.76999998
   15.80694485  146.64399719    0.95999998    2.76999998
   15.81222248  146.64399719    0.98000002    2.75000000
   15.82555580  134.85099792    0.00000000    0.00000000
   15.82611084  141.09800720    1.00000000    2.76999998
   15.82916641  158.13900757    0.98000002    2.76999998
   15.83249950  132.34800720    0.98000002    2.75000000
   15.83555508  134.42199707    1.00000000    2.76999998
   15.83888817  137.88900757    0.98000002    2.75000000
   15.84194374  135.41099548    0.98000002    2.76999998
   15.84527779  140.95100403    0.98000002    2.76999998
   15.84861088  136.06799316    0.98000002    2.76999998
   15.85527802  136.06799316    1.00000000    2.75000000
   15.85944462  137.76800537    0.95999998    2.76999998
   15.86000061  138.12800598    0.95999998    2.76999998
   15.86583328  148.35000610    0.95999998    2.76999998
   15.86916637  140.30499268    0.95999998    2.75000000
   15.87222195  143.66999817    0.95999998    2.75000000
   15.87555599  143.69900513    0.95999998    2.76999998
   15.87888908  135.47599792    0.95999998    2.76999998
   15.88194466  146.21200562    0.95999998    2.76999998
   15.88527775  144.61000061    0.98000002    2.76999998
   15.88861084  141.80599976    0.95999998    2.75000000
   15.89166641  141.29200745    0.95999998    2.76999998
   15.89333344  148.33599854    0.95999998    2.76999998
   15.89805508  148.33599854    0.95999998    2.76999998
   15.90222168  136.70899963    0.95999998    2.76999998
   15.90555477  132.75900269    0.95999998    2.76999998
   15.90861034  144.98699951    0.95999998    2.76999998
   15.91194439  141.14599609    0.94000000    2.76999998
   15.91527748  140.87399292    0.94000000    2.76999998
   15.91833401  143.29100037    0.94000000    2.78999996
   15.92166710  140.46400452    0.94000000    2.78999996
   15.92472267  140.60800171    0.94000000    2.76999998
   15.92666721  146.71000671    0.94000000    2.76999998
   15.92833328  141.92500305    0.94000000    2.76999998
   15.93166733  147.95300293    0.92000002    2.76999998
   15.93500042  141.81199646    0.92000002    2.76999998
   15.94083309  141.81199646    0.92000002    2.76999998
   15.94499969  142.98500061    0.89999998    2.76999998
   15.94833374  140.47399902    0.92000002    2.76999998
   15.95222187  135.25799561    0.89999998    2.76999998
   15.95555496  144.33399963    0.89999998    2.76999998
   15.95861053  141.19200134    0.89999998    2.76999998
   15.96000004  146.13800049    0.89999998    2.76999998
   15.96222210  142.85600281    0.92000002    2.76999998
   15.96555519  138.84199524    0.92000002    2.76999998
   15.96888828  143.48699951    0.92000002    2.76999998
   15.97194386  136.10800171    0.92000002    2.76999998
   15.97527695  127.88700104    0.92000002    2.76999998
   15.97861099  133.77000427    0.92000002    2.76999998
   15.98361111  133.77000427    0.92000002    2.76999998
   15.98777771  138.31100464    0.94000000    2.76999998
   15.99111176  132.01400757    0.92000002    2.76999998
   15.99333382  135.51699829    0.94000000    2.76999998
   15.99472237  141.38099670    0.94000000    2.76999998
   15.99805546  138.89100647    0.94000000    2.78999996
   16.00138855  141.28500366    0.94000000    2.78999996
   16.00444412  137.59399414    0.94000000    2.76999998
   16.00777817  144.96400452    0.94000000    2.76999998
   16.01111031  136.71800232    0.94000000    2.76999998
   16.01416588  135.74299622    0.94000000    2.76999998
   16.01749992  137.23599243    0.94000000    2.76999998
   16.02055550  135.34599304    0.94000000    2.76999998
   16.02666664  135.34599304    0.92000002    2.76999998
   16.03083229  139.81700134    0.92000002    2.76999998
   16.03388786  139.19099426    0.92000002    2.76999998
   16.03722191  147.29899597    0.89999998    2.78999996
   16.04027748  137.46400452    0.89999998    2.78999996
   16.04361153  143.72500610    0.89999998    2.76999998
   16.04694366  138.89199829    0.94000000    2.76999998
   16.04999924  137.36500549    0.92000002    2.76999998
   16.05333328  143.39300537    0.94000000    2.76999998
   16.05666542  134.38800049    0.92000002    2.76999998
   16.05999947  132.95899963    0.92000002    2.76999998
   16.06027794  139.03999329    0.92000002    2.76999998
   16.06361008  147.99499512    0.89999998    2.76999998
   16.06944466  147.99499512    0.92000002    2.76999998
   16.07361221  146.73800659    0.92000002    2.76999998
   16.07666779  133.64799500    0.92000002    2.76999998
   16.08000183  142.27400208    0.92000002    2.76999998
   16.08333397  130.58299255    0.88000000    2.76999998
   16.08638954  141.24400330    0.86000001    2.76999998
   16.08972359  135.32800293    0.88000000    2.76999998
   16.09305573  139.93899536    0.88000000    2.78999996
   16.09361267  136.35299683    0.88000000    2.78999996
   16.09666824  145.52299500    0.88000000    2.78999996
   16.10000038  132.85699463    0.88000000    2.78999996
   16.10333443  139.36700439    0.88000000    2.76999998
   16.10639000  146.02999878    0.89999998    2.78999996
   16.11222267  146.02999878    0.89999998    2.76999998
   16.11638832  145.84599304    0.88000000    2.76999998
   16.11972237  138.14500427    0.88000000    2.76999998
   16.12305641  141.70899963    0.88000000    2.76999998
   16.12611198  143.68800354    0.88000000    2.76999998
   16.12694550  138.09700012    0.88000000    2.76999998
   16.12972260  139.65699768    0.88000000    2.76999998
   16.13305473  147.42399597    0.88000000    2.78999996
   16.13638878  136.42300415    0.89999998    2.78999996
   16.13944435  141.75599670    0.89999998    2.78999996
   16.14305496  139.68899536    0.88000000    2.78999996
   16.14611053  144.74200439    0.89999998    2.76999998
   16.14944458  135.70700073    0.89999998    2.76999998
   16.17777634   79.06189728    0.89999998    2.76999998
   16.17888832  137.11599731    0.89999998    2.76999998
   16.18222237  141.43600464    0.88000000    2.78999996
   16.18527603  144.38099670    0.88000000    2.78999996
   16.18861008  140.89399719    0.88000000    2.78999996
   16.19194412  141.90100098    0.88000000    2.76999998
   16.19499969  133.22900391    0.88000000    2.76999998
   16.19833183  135.93200684    0.88000000    2.78999996
   16.20166779  128.97900391    0.89999998    2.76999998
   16.20583344  128.97900391    0.94000000    2.78999996
   16.21000099  139.65600586    0.95999998    2.78999996
   16.22222328  131.50799561    0.00000000    0.00000000
   16.22555542  172.32499695    0.95999998    2.76999998
   16.22861099  185.53399658    0.95999998    2.76999998
   16.24111176  206.32600403    0.00000000    0.00000000
   16.24166679  255.10400391    0.89999998    2.76999998
   16.24472237  253.79899597    0.89999998    2.76999998
   16.25055504  253.79899597    0.89999998    2.78999996
   16.25555611  290.38800049    0.89999998    2.78999996
   16.25888824  269.25100708    0.92000002    2.76999998
   16.27111053  285.05398560    0.89999998    2.76999998
   16.27444458  274.70599365    0.92000002    2.78999996
   16.27499962  243.23899841    0.92000002    2.78999996
   16.27805519  266.28900146    0.92000002    2.78999996
   16.28111076  269.63198853    0.89999998    2.76999998
   16.28444481  263.90100098    0.89999998    2.78999996
   16.28777695  263.34600830    0.89999998    2.78999996
   16.29083252  273.33700562    0.89999998    2.78999996
   16.29416656  265.69601440    0.89999998    2.78999996
   16.29888916  265.69601440    0.89999998    2.76999998
   16.30305481  252.91200256    0.89999998    2.78999996
   16.30611038  223.67999268    0.89999998    2.76999998
   16.30833244  259.72698975    0.89999998    2.76999998
   16.30999947  245.66400146    0.88000000    2.76999998
   16.31305504  250.53399658    0.88000000    2.76999998
   16.31638718  237.65199280    0.88000000    2.76999998
   16.31972313  245.72799683    0.86000001    2.78999996
   16.32277870  246.25300598    0.88000000    2.76999998
   16.32611275  249.87800598    0.88000000    2.78999996
   16.32944489  254.48100281    0.88000000    2.76999998
   16.33250046  227.86000061    0.88000000    2.76999998
   16.33583450  230.45199585    0.89999998    2.76999998
   16.34166718  230.45199585    0.88000000    2.76999998
   16.34583473  218.03300476    0.88000000    2.76999998
   16.34916687  240.11599731    0.88000000    2.76999998
   16.35222244  195.93899536    0.89999998    2.76999998
   16.35555649  214.87800598    0.89999998    2.76999998
   16.35888863  211.14100647    0.89999998    2.76999998
   16.36194420  210.17199707    0.89999998    2.78999996
   16.36527824  237.71600342    0.89999998    2.78999996
   16.36833382  215.11000061    0.92000002    2.78999996
   16.37166595  226.89199829    0.92000002    2.76999998
   16.37500000  232.66999817    0.92000002    2.76999998
   16.37555504  205.02200317    0.92000002    2.76999998
   16.37861061  216.35299683    0.92000002    2.76999998
   16.38444519  216.35299683    0.89999998    2.76999998
   16.38861084  198.68200684    0.92000002    2.78999996
   16.39194489  192.13600159    0.92000002    2.76999998
   16.39527702  203.39599609    0.94000000    2.76999998
   16.39833260  196.55499268    0.94000000    2.76999998
   16.40166664  192.75000000    0.94000000    2.76999998
   16.40472221  200.27099609    0.94000000    2.76999998
   16.40805435  199.27499390    0.94000000    2.76999998
   16.40888786  189.51300049    0.94000000    2.76999998
   16.41166687  189.35800171    0.94000000    2.76999998
   16.41499901  180.86000061    0.94000000    2.76999998
   16.41805458  201.27900696    0.92000002    2.76999998
   16.42138863  186.47999573    0.92000002    2.76999998
   16.42749977  186.47999573    0.92000002    2.76999998
   16.43138885  204.67500305    0.92000002    2.76999998
   16.43472099  186.85000610    0.92000002    2.78999996
   16.43805504  209.26899719    0.92000002    2.76999998
   16.44111061  206.10600281    0.92000002    2.76999998
   16.44222069  205.02099609    0.92000002    2.76999998
   16.44472122  195.87800598    0.92000002    2.76999998
   16.44805527  181.00399780    0.89999998    2.76999998
   16.45111275  186.88600159    0.89999998    2.78999996
   16.45444489  200.72399902    0.89999998    2.76999998
   16.45777893  189.38499451    0.89999998    2.76999998
   16.46083450  175.40299988    0.89999998    2.76999998
   16.46416664  184.74699402    0.92000002    2.78999996
   16.47027779  184.74699402    0.92000002    2.76999998
   16.47444534  179.86799622    0.92000002    2.76999998
   16.47555542  178.97599792    0.89999998    2.76999998
   16.47805595  185.11900330    0.89999998    2.76999998
   16.48139000  169.83900452    0.92000002    2.78999996
   16.48472214  162.23500061    0.92000002    2.78999996
   16.48777771  217.06199646    0.92000002    2.76999998
   16.49111176  188.81599426    0.92000002    2.78999996
   16.49444389  174.09899902    0.92000002    2.76999998
   16.49749947  191.03700256    0.92000002    2.76999998
   16.50083351  159.21699524    0.92000002    2.78999996
   16.50388908  186.91000366    0.92000002    2.76999998
   16.50722313  157.76300049    0.92000002    2.78999996
   16.50888824  166.84399414    0.92000002    2.78999996
   16.51305580  166.84399414    0.94000000    2.76999998
   16.51722145  158.14700317    0.94000000    2.76999998
   16.52055550  179.93600464    0.94000000    2.78999996
   16.52361107  165.93200684    0.92000002    2.78999996
   16.52694511  164.55599976    0.89999998    2.76999998
   16.53027725  172.35400391    0.92000002    2.76999998
   16.53333282  164.53199768    0.89999998    2.78999996
   16.53666687  171.18499756    0.89999998    2.78999996
   16.53999901  186.02799988    0.89999998    2.76999998
   16.54222107  185.41600037    0.89999998    2.76999998
   16.54333305  166.38600159    0.89999998    2.76999998
   16.54666710  158.27299500    0.89999998    2.76999998
   16.54999924  173.69500732    0.89999998    2.76999998
   16.55583191  173.69500732    0.89999998    2.78999996
   16.55999947  171.22099304    0.92000002    2.76999998
   16.56333351  160.52099609    0.92000002    2.78999996
   16.56666756  142.36999512    0.92000002    2.78999996
   16.56972313  153.25399780    0.92000002    2.78999996
   16.57305717  165.58799744    0.94000000    2.78999996
   16.57555580  154.83599854    0.94000000    2.76999998
   16.57666779  183.88600159    0.94000000    2.78999996
   16.58000183  146.74099731    0.94000000    2.76999998
   16.58333397  153.56399536    0.94000000    2.76999998
   16.58694458  173.56399536    0.92000002    2.76999998
   16.59027863  158.24899292    0.92000002    2.76999998
   16.59361267  151.35299683    0.94000000    2.76999998
   16.60000038  151.35299683    0.94000000    2.78999996
   16.60416794  147.05000305    0.92000002    2.78999996
   16.60722351  147.48399353    0.92000002    2.76999998
   16.60888863  161.01600647    0.92000002    2.76999998
   16.61083412  151.49299622    0.94000000    2.78999996
   16.61416626  146.83200073    0.92000002    2.78999996
   16.61750031  156.33599854    0.92000002    2.78999996
   16.62055588  146.09500122    0.92000002    2.78999996
   16.62388992  146.81399536    0.92000002    2.78999996
   16.62722206  147.44700623    0.92000002    2.78999996
   16.63027763  149.33500671    0.92000002    2.76999998
   16.63361168  136.93499756    0.92000002    2.76999998
   16.63694382  136.27799988    0.92000002    2.76999998
   16.64166641  136.27799988    0.92000002    2.78999996
   16.64583397  138.41700745    0.92000002    2.78999996
   16.64888954  139.76400757    0.89999998    2.78999996
   16.65222168  133.79499817    0.92000002    2.76999998
   16.65555573  129.06700134    0.89999998    2.78999996
   16.65861130  147.81100464    0.89999998    2.78999996
   16.66194344  140.13499451    0.92000002    2.76999998
   16.66499901  132.43200684    0.92000002    2.76999998
   16.66833305  127.79199982    0.92000002    2.76999998
   16.67166519  140.80799866    0.92000002    2.76999998
   16.67472076  134.02099609    0.89999998    2.76999998
   16.67694473  142.63299561    0.89999998    2.76999998
   16.67860985  131.93899536    0.89999998    2.76999998
   16.68444443  131.93899536    0.94000000    2.78999996
   16.68916512  135.14500427    0.94000000    2.78999996
   16.69249916  131.17100525    0.92000002    2.78999996
   16.69555473  138.33999634    0.92000002    2.78999996
   16.69888878  136.77900696    0.94000000    2.78999996
   16.70194435  138.37899780    0.95999998    2.76999998
   16.70527840  143.05000305    0.94000000    2.76999998
   16.70861244  132.66900635    0.92000002    2.76999998
   16.71000099  138.77499390    0.92000002    2.78999996
   16.71222305  141.69000244    0.92000002    2.78999996
   16.71527863  137.99899292    0.89999998    2.78999996
   16.71861076  130.03599548    0.89999998    2.78999996
   16.72194481  140.13600159    0.89999998    2.76999998
   16.72722244  140.13600159    0.89999998    2.78999996
   16.73139000  125.79199982    0.89999998    2.78999996
   16.73472214  138.05400085    0.89999998    2.76999998
   16.73777771  135.01199341    0.89999998    2.78999996
   16.74111176  133.75300598    0.92000002    2.78999996
   16.74361229  138.50399780    0.92000002    2.78999996
   16.74472237  139.71400452    0.92000002    2.78999996
   16.74805641  140.36999512    0.92000002    2.78999996
   16.75138855  140.00000000    0.92000002    2.78999996
   16.75444412  137.75700378    0.95999998    2.76999998
   16.75777817  133.63200378    0.95999998    2.78999996
   16.76111031  124.18499756    0.95999998    2.78999996
   16.76416588  129.39599609    0.95999998    2.78999996
   16.77027702  129.39599609    1.00000000    2.76999998
   16.77416611  153.01100159    1.00000000    2.78999996
   16.77694511  131.61399841    0.98000002    2.76999998
   16.77777672  134.16900635    0.98000002    2.76999998
   16.78111076  138.82200623    0.95999998    2.78999996
   16.78444481  146.23300171    0.95999998    2.76999998
   16.78750038  140.08000183    0.95999998    2.78999996
   16.79083252  138.03599548    0.95999998    2.78999996
   16.79388809  127.85800171    0.94000000    2.76999998
   16.79722214  139.64799500    0.94000000    2.76999998
   16.80055428  133.79899597    0.94000000    2.76999998
   16.80360985  133.97500610    0.92000002    2.78999996
   16.80694389  139.37500000    0.92000002    2.78999996
   16.81305504  139.37500000    0.89999998    2.78999996
   16.81722260  137.26199341    0.89999998    2.78999996
   16.82027817  136.00700378    0.88000000    2.78999996
   16.82361221  135.05599976    0.88000000    2.78999996
   16.82694626  131.54699707    0.88000000    2.78999996
   16.83000183  138.10899353    0.88000000    2.78999996
   16.83333397  135.66000366    0.88000000    2.78999996
   16.83638954  141.40499878    0.89999998    2.78999996
   16.83972359  141.58099365    0.88000000    2.76999998
   16.84305573  141.24800110    0.86000001    2.78999996
   16.84388924  131.34199524    0.86000001    2.78999996
   16.84666824  128.16799927    0.86000001    2.78999996
   16.84972191  137.33700562    0.86000001    2.78999996
   16.85583305  137.33700562    0.86000001    2.78999996
   16.86000061  142.37699890    0.86000001    2.78999996
   16.86333466  140.15800476    0.86000001    2.78999996
   16.86638832  136.76699829    0.83999997    2.78999996
   16.86972237  137.62899780    0.83999997    2.78999996
   16.87277794  139.16000366    0.83999997    2.78999996
   16.87611198  136.20199585    0.83999997    2.78999996
   16.87722206  140.48699951    0.83999997    2.78999996
   16.88000107  134.34800720    0.83999997    2.76999998
   16.88305473  144.94999695    0.83999997    2.76999998
   16.88638878  130.40899658    0.80000001    2.78999996
   16.88972282  139.26800537    0.80000001    2.80999994
   16.89277840  143.09100342    0.80000001    2.80999994
   16.89861107  143.09100342    0.79000002    2.78999996
   16.90277672  138.69099426    0.79000002    2.78999996
   16.90611076  140.34500122    0.79000002    2.78999996
   16.90916634  130.77699280    0.80000001    2.78999996
   16.91083336  135.46299744    0.80000001    2.78999996
   16.91277695  144.32699585    0.81999999    2.78999996
   16.91611099  136.65699768    0.81999999    2.78999996
   16.91944313  128.48500061    0.81999999    2.78999996
   16.92249870  136.44900513    0.81999999    2.78999996
   16.92583275  132.46699524    0.81999999    2.78999996
   16.92888832  139.83799744    0.86000001    2.78999996
   16.93222237  135.64999390    0.83999997    2.78999996
   16.93555450  135.75599670    0.83999997    2.78999996
   16.94138718  135.75599670    0.80000001    2.78999996
   16.94555473  134.55900574    0.80000001    2.78999996
   16.95777893  135.63400269    0.00000000    0.00000000
   16.96111107  138.05200195    0.76999998    2.78999996
   16.96444511  140.72900391    0.76999998    2.78999996
   16.96750069  129.08799744    0.76999998    2.78999996
   16.97389030  141.65299988    0.80000001    2.78999996
   16.97722244  145.35499573    0.81999999    2.78999996
   16.97777748  144.81599426    0.81999999    2.78999996
   16.98083305  145.14599609    0.81999999    2.78999996
   16.98555565  145.14599609    0.83999997    2.78999996
   16.98972321  143.72700500    0.83999997    2.78999996
   16.99305534  146.68400574    0.81999999    2.78999996
   16.99638939  144.51499939    0.81999999    2.78999996
   16.99972153  134.95899963    0.86000001    2.78999996
   17.00277710  132.41099548    0.86000001    2.78999996
   17.00611115  136.36300659    0.88000000    2.78999996
   17.00944519  146.00399780    0.89999998    2.78999996
   17.01111031  149.26499939    0.89999998    2.78999996
   17.01305580  146.35899353    0.89999998    2.78999996
   17.01638794  143.78300476    0.88000000    2.78999996
   17.01972198  138.20500183    0.86000001    2.80999994
   17.02277756  138.07699585    0.86000001    2.80999994
   17.02833366  138.07699585    0.86000001    2.78999996
   17.03249931  140.73399353    0.92000002    2.78999996
   17.03583336  140.38000488    0.94000000    2.76999998
   17.03888893  141.35000610    0.92000002    2.78999996
   17.04249954  136.65800476    0.94000000    2.78999996
   17.04444313  133.21400452    0.92000002    2.78999996
   17.04611015  136.80499268    0.89999998    2.76999998
   17.04944420  132.80700684    0.89999998    2.78999996
   17.05277634  125.66500092    0.89999998    2.78999996
   17.05583191  137.90800476    0.89999998    2.78999996
   17.05916595  131.27900696    0.88000000    2.78999996
   17.06305504  130.85299683    0.86000001    2.78999996
   17.06611061  132.90100098    0.86000001    2.78999996
   17.07111168  132.90100098    0.86000001    2.78999996
   17.07527924  137.10899353    0.86000001    2.78999996
   17.07777786  132.87699890    0.83999997    2.78999996
   17.07888985  136.03500366    0.83999997    2.78999996
   17.08222389  129.16700745    0.83999997    2.78999996
   17.08555603  140.27099609    0.81999999    2.78999996
   17.08861160  129.72599792    0.81999999    2.80999994
   17.09194565  131.41200256    0.81999999    2.78999996
   17.09500122  127.24600220    0.81999999    2.78999996
   17.09833336  129.89500427    0.81999999    2.78999996
   17.10166740  129.36500549    0.81999999    2.78999996
   17.10472298  122.89299774    0.80000001    2.78999996
   17.10805511  137.65800476    0.81999999    2.78999996
   17.11416626  137.65800476    0.81999999    2.78999996
   17.11805534  130.81900024    0.80000001    2.80999994
   17.12138939  126.92900085    0.79000002    2.78999996
   17.12472153  131.49099731    0.79000002    2.78999996
   17.12777710  129.50700378    0.79000002    2.78999996
   17.13111115  140.63299561    0.79000002    2.78999996
   17.13444519  136.24499512    0.79000002    2.80999994
   17.13750076  135.48300171    0.76999998    2.80999994
   17.14083290  136.31300354    0.76999998    2.80999994
   17.14388847  135.32899475    0.76999998    2.78999996
   17.14500046  139.23100281    0.76999998    2.78999996
   17.14777756  136.16600037    0.76999998    2.80999994
   17.15083313  138.57099915    0.76999998    2.78999996
   17.15749931  138.57099915    0.79000002    2.78999996
   17.16166687  132.59800720    0.79000002    2.78999996
   17.17333221  133.83799744    0.00000000    0.00000000
   17.19277763  132.77999878    0.86000001    2.78999996
   17.19305420  137.26300049    0.86000001    2.78999996
   17.19638824  131.55099487    0.86000001    2.78999996
   17.20111275  131.55099487    0.86000001    2.78999996
   17.20527840  128.02400208    0.86000001    2.78999996
   17.20861244  130.48599243    0.86000001    2.78999996
   17.21166801  126.21800232    0.86000001    2.78999996
   17.21500015  137.70799255    0.88000000    2.78999996
   17.21833420  133.61700439    0.86000001    2.78999996
   17.22138977  139.52499390    0.86000001    2.76999998
   17.22472191  134.61399841    0.86000001    2.76999998
   17.22611237  134.31900024    0.86000001    2.78999996
   17.23777771  137.80499268    0.00000000    0.00000000
   17.24111176  143.50900269    0.88000000    2.76999998
   17.24722290  143.50900269    0.88000000    2.78999996
   17.25138855  135.65600586    0.88000000    2.78999996
   17.25444412  133.69700623    0.86000001    2.78999996
   17.25777817  138.15400696    0.86000001    2.78999996
   17.25944519  146.27099609    0.86000001    2.78999996
   17.26138878  146.22200012    0.86000001    2.78999996
   17.26583290  145.94700623    0.86000001    2.78999996
   17.26888847  147.16099548    0.86000001    2.76999998
   17.27222252  142.88000488    0.86000001    2.78999996
   17.27555466  134.18200684    0.86000001    2.78999996
   17.27888870  135.64599609    0.86000001    2.78999996
   17.28222275  137.40600586    0.86000001    2.76999998
   17.28527641  135.64599609    0.88000000    2.78999996
   17.28999901  135.64599609    0.88000000    2.78999996
   17.29416656  133.66299438    0.89999998    2.76999998
   17.29749870  136.90600586    0.88000000    2.78999996
   17.30055428  133.33299255    0.88000000    2.78999996
   17.30388832  138.83500671    0.88000000    2.76999998
   17.30722237  143.78399658    0.88000000    2.76999998
   17.31027794  137.41000366    0.89999998    2.76999998
   17.31361008  134.62399292    0.88000000    2.78999996
   17.31694603  145.10400391    0.88000000    2.78999996
   17.32000160  135.85800171    0.86000001    2.78999996
   17.32333374  133.32899475    0.86000001    2.78999996
   17.32611275  135.89599609    0.81999999    2.78999996
   17.32694626  136.56100464    0.83999997    2.78999996
   17.33277893  136.56100464    0.81999999    2.78999996
   17.33694458  136.47300720    0.80000001    2.78999996
   17.34027863  134.31599426    0.80000001    2.78999996
   17.34333420  148.49099731    0.80000001    2.78999996
   17.34666824  134.38299561    0.80000001    2.78999996
   17.35000038  154.76400757    0.80000001    2.78999996
   17.35305595  163.59399414    0.81999999    2.80999994
   17.35639000  168.87800598    0.81999999    2.78999996
   17.35944557  162.29200745    0.81999999    2.78999996
   17.36000061  136.45199585    0.83999997    2.78999996
   17.36333466  142.39700317    0.83999997    2.78999996
   17.36666679  154.98199463    0.86000001    2.76999998
   17.36972237  145.63400269    0.88000000    2.78999996
   17.37583351  145.63400269    0.98000002    2.78999996
   17.38000107  134.06900024    0.89999998    2.78999996
   17.38305473  140.31199646    0.89999998    2.78999996
   17.38638878  145.48300171    0.89999998    2.78999996
   17.38944435  143.47799683    0.88000000    2.78999996
   17.39277840  135.06399536    0.86000001    2.78999996
   17.39305496  138.75100708    0.86000001    2.78999996
   17.39638901  144.64700317    0.86000001    2.78999996
   17.39972115  137.04600525    0.88000000    2.78999996
   17.40277672  155.23399353    0.88000000    2.78999996
   17.40611076  149.77400208    0.89999998    2.78999996
   17.40916634  143.39999390    0.92000002    2.78999996
   17.41250038  142.93499756    0.92000002    2.78999996
   17.41860962  142.93499756    0.94000000    2.78999996
   17.42277718  148.73399353    0.94000000    2.78999996
   17.42611122  134.27799988    0.94000000    2.78999996
   17.42638779  134.24800110    0.94000000    2.78999996
   17.42972183  145.84199524    1.00000000    2.78999996
   17.43305397  140.15499878    0.98000002    2.78999996
   17.43888855  135.35600281    0.95999998    2.78999996
   17.44222069  136.61300659    0.95999998    2.78999996
   17.44555473  136.21699524    0.94000000    2.78999996
   17.44888878  134.76100159    0.92000002    2.78999996
   17.45194435  167.68200684    0.92000002    2.78999996
   17.45527840  147.36000061    0.94000000    2.76999998
   17.46138954  147.36000061    0.92000002    2.78999996
   17.46555710  189.85099792    0.94000000    2.78999996
   17.46888924  193.73100281    0.94000000    2.78999996
   17.47194481  188.81399536    0.95999998    2.78999996
   17.47527885  186.14799500    0.95999998    2.76999998
   17.47861099  199.32099915    0.95999998    2.78999996
   17.48166656  188.11500549    0.95999998    2.78999996
   17.48500061  192.91799927    0.95999998    2.76999998
   17.48805618  156.90299988    0.95999998    2.76999998
   17.49166679  181.09199524    0.95999998    2.76999998
   17.49277878  172.13099670    0.95999998    2.76999998
   17.49555588  156.87699890    0.95999998    2.76999998
   17.49861145  176.46699524    0.95999998    2.78999996
   17.50416756  176.46699524    0.95999998    2.76999998
   17.50833321  208.69500732    0.95999998    2.78999996
   17.51166725  183.87899780    0.94000000    2.76999998
   17.51499939  196.95599365    0.94000000    2.78999996
   17.51805496  164.38900757    1.00000000    2.76999998
   17.52138901  220.37600708    0.98000002    2.78999996
   17.52555466  191.46499634    1.00000000    2.76999998
   17.52611160  194.22799683    1.00000000    2.76999998
   17.52916718  194.30099487    0.98000002    2.78999996
   17.53222275  220.75500488    0.98000002    2.76999998
   17.53555489  214.17500305    0.95999998    2.76999998
   17.53888893  208.06199646    0.95999998    2.76999998
   17.54194450  197.63699341    0.95999998    2.78999996
   17.55555534  197.63699341    0.95999998    2.76999998
   17.55972099  198.96099854    0.95999998    2.76999998
   17.56305504  192.30299377    0.94000000    2.78999996
   17.56638718  186.19000244    0.94000000    2.78999996
   17.56944466  162.89799500    0.94000000    2.78999996
   17.57277870  182.73599243    0.94000000    2.78999996
   17.57611275  179.57499695    0.94000000    2.78999996
   17.57916832  174.79600525    0.94000000    2.78999996
   17.58250046  155.73800659    0.94000000    2.78999996
   17.58555603  152.04400635    0.94000000    2.78999996
   17.59000015  152.04400635    0.94000000    2.78999996
   17.59416771  156.61700439    0.94000000    2.78999996
   17.59722328  164.22599792    0.94000000    2.78999996
   17.60055542  145.47599792    0.94000000    2.78999996
   17.60388947  168.99400330    0.94000000    2.78999996
   17.60694504  149.17300415    0.94000000    2.78999996
   17.61027908  144.30700684    0.94000000    2.78999996
   17.61333466  160.92799377    0.94000000    2.78999996
   17.61666679  142.40199280    0.94000000    2.78999996
   17.62000084  147.87199402    0.94000000    2.78999996
   17.62305641  144.31700134    0.94000000    2.78999996
   17.62611198  137.05799866    0.94000000    2.76999998
   17.62694550  143.84800720    0.89999998    2.78999996
   17.63305473  143.84800720    0.88000000    2.78999996
   17.63722229  137.67100525    0.89999998    2.76999998
   17.64027786  145.15100098    0.88000000    2.78999996
   17.64361191  139.96499634    0.89999998    2.76999998
   17.64694405  138.29699707    0.89999998    2.78999996
   17.64999962  143.48699951    0.89999998    2.78999996
   17.65333366  143.41200256    0.89999998    2.78999996
   17.65666580  140.46600342    0.89999998    2.78999996
   17.65944481  144.61700439    0.89999998    2.78999996
   17.66027832  140.17599487    0.89999998    2.78999996
   17.66361046  140.74099731    0.89999998    2.78999996
   17.66694450  142.94500732    0.89999998    2.78999996
   17.67027664  145.09500122    0.89999998    2.76999998
   17.67555428  145.09500122    0.88000000    2.78999996
   17.68000031  142.07000732    0.88000000    2.78999996
   17.68333244  134.17700195    0.88000000    2.78999996
   17.68666649  143.24000549    0.88000000    2.78999996
   17.68972206  142.20399475    0.89999998    2.78999996
   17.69277763  147.57899475    0.92000002    2.78999996
   17.69333267  137.66600037    0.92000002    2.78999996
   17.69666672  138.56300354    0.94000000    2.78999996
   17.69972038  135.62899780    0.95999998    2.76999998
   17.70305634  140.08399963    0.95999998    2.76999998
   17.70639038  136.27600098    0.95999998    2.78999996
   17.70944595  139.89300537    0.95999998    2.76999998
   17.71277809  147.54699707    0.95999998    2.78999996
   17.71861076  147.54699707    0.95999998    2.78999996
   17.72249985  147.94200134    0.95999998    2.78999996
   17.72583389  138.11900330    0.95999998    2.76999998
   17.72638893  140.40199280    0.95999998    2.76999998
   17.72972298  139.90899658    0.95999998    2.78999996
   17.73277855  137.66000366    0.98000002    2.76999998
   17.73638916  132.14799500    0.98000002    2.76999998
   17.73944473  148.81300354    0.98000002    2.76999998
   17.74277878  140.63400269    0.95999998    2.78999996
   17.74583435  148.00999451    0.95999998    2.76999998
   17.74916649  146.53999329    0.94000000    2.78999996
   17.75250053  134.52000427    0.94000000    2.78999996
   17.75555611  141.41600037    0.92000002    2.76999998
   17.76138878  141.41600037    0.92000002    2.78999996
   17.76555634  138.61999512    0.89999998    2.78999996
   17.76861000  138.45700073    0.89999998    2.78999996
   17.77194405  140.27200317    0.89999998    2.78999996
   17.77527809  139.88999939    0.89999998    2.78999996
   17.77833366  134.63400269    0.88000000    2.78999996
   17.78166580  135.15699768    0.88000000    2.78999996
   17.78499985  126.95600128    0.88000000    2.78999996
   17.78805542  136.92199707    0.88000000    2.78999996
   17.79138756  132.43800354    0.88000000    2.78999996
   17.79305458  140.65199280    0.88000000    2.78999996
   17.79500008  128.36700439    0.88000000    2.78999996
   17.79805565  129.29100037    0.88000000    2.78999996
   17.80416679  129.29100037    0.89999998    2.78999996
   17.80833244  125.75900269    0.92000002    2.78999996
   17.81166649  128.81799316    0.92000002    2.78999996
   17.81472206  134.46600342    0.92000002    2.78999996
   17.81805611  128.28700256    0.92000002    2.78999996
   17.82111168  131.82600403    0.94000000    2.76999998
   17.82444572  124.52600098    0.94000000    2.78999996
   17.82638931  123.78099823    0.95999998    2.78999996
   17.82805634  134.88800049    0.95999998    2.78999996
   17.83111191  134.48500061    0.95999998    2.76999998
   17.83444595  129.28399658    0.95999998    2.78999996
   17.83777809  124.91400146    0.94000000    2.78999996
   17.84083366  121.22799683    0.94000000    2.76999998
   17.84694481  121.22799683    0.94000000    2.78999996
   17.85111237  131.75300598    0.92000002    2.78999996
   17.85444450  136.75500488    0.92000002    2.76999998
   17.85750008  140.40899658    0.92000002    2.76999998
   17.85972214  133.15499878    0.92000002    2.78999996
   17.86138916  150.02799988    0.92000002    2.78999996
   17.86444473  135.19900513    0.89999998    2.78999996
   17.86777878  143.97300720    0.89999998    2.78999996
   17.87111092  145.40899658    0.89999998    2.78999996
   17.87416649  145.68600464    0.88000000    2.78999996
   17.87750053  130.47700500    0.88000000    2.78999996
   17.88083267  135.01499939    0.88000000    2.78999996
   17.88388824  123.96299744    0.89999998    2.78999996
   17.88999939  123.96299744    0.92000002    2.78999996
   17.89388847  139.76600647    0.94000000    2.76999998
   17.89722252  143.45599365    0.94000000    2.76999998
   17.90055466  138.19200134    0.95999998    2.76999998
   17.90388870  138.77000427    0.98000002    2.76999998
   17.90694427  128.58099365    0.98000002    2.76999998
   17.91027832  130.51300049    0.98000002    2.78999996
   17.91333389  120.40100098    0.95999998    2.78999996
   17.91666603  134.52000427    1.00000000    2.78999996
   17.92000008  127.17800140    1.00000000    2.78999996
   17.92305565  140.82899475    1.00000000    2.76999998
   17.92638779  131.33000183    1.01999998    2.78999996
   17.92694473  133.81199646    1.01999998    2.78999996
   17.93277740  133.81199646    1.01999998    2.78999996
   17.93694305  129.22000122    1.01999998    2.76999998
   17.93999863  137.27799988    1.01999998    2.76999998
   17.94333267  124.35900116    1.03999996    2.78999996
   17.94666672  133.66400146    1.03999996    2.78999996
   17.94972038  139.04100037    1.03999996    2.76999998
   17.95305634  133.68699646    1.01999998    2.76999998
   17.95611191  144.23399353    1.00000000    2.76999998
   17.95944595  140.21400452    1.00000000    2.76999998
   17.96000099  129.60400391    1.00000000    2.76999998
   17.96333504  131.67300415    0.98000002    2.76999998
   17.96638870  134.89900208    0.98000002    2.76999998
   17.96972275  134.38699341    0.98000002    2.76999998
   17.97555542  134.38699341    1.00000000    2.76999998
   17.97972298  125.32800293    1.00000000    2.76999998
   17.98305511  135.68499756    1.00000000    2.78999996
   17.98611069  133.67700195    0.98000002    2.78999996
   17.98999977  142.30999756    0.98000002    2.76999998
   17.99305534  140.25199890    0.95999998    2.76999998
   17.99361229  142.16499329    0.94000000    2.78999996
   17.99694443  138.16900635    0.94000000    2.76999998
   18.00000000  130.74800110    0.92000002    2.76999998
   18.00333405  137.75999451    0.92000002    2.78999996
   18.00666618  142.46499634    0.92000002    2.78999996
   18.00972176  133.89300537    0.92000002    2.78999996
   18.01305580  143.26400757    0.89999998    2.78999996
   18.01833344  143.26400757    0.89999998    2.78999996
   18.02249908  130.98599243    0.89999998    2.78999996
   18.02583313  148.55799866    0.88000000    2.78999996
   18.02694511  142.37500000    0.88000000    2.78999996
   18.02944374  145.96899414    0.88000000    2.78999996
   18.03249931  142.45700073    0.86000001    2.78999996
   18.03583336  131.36999512    0.86000001    2.78999996
   18.03916550  129.31300354    0.86000001    2.78999996
   18.04222107  127.20600128    0.83999997    2.78999996
   18.04555511  138.61300659    0.83999997    2.80999994
   18.04888916  130.05099487    0.83999997    2.78999996
   18.05194283  137.78900146    0.81999999    2.78999996
   18.05527687  144.93899536    0.81999999    2.78999996
   18.06138802  144.93899536    0.80000001    2.78999996
   18.06527710  144.07000732    0.81999999    2.78999996
   18.06861115  141.70300293    0.81999999    2.78999996
   18.07194519  138.67799377    0.81999999    2.78999996
   18.07500076  138.78799438    0.83999997    2.78999996
   18.07833481  143.97700500    0.86000001    2.78999996
   18.08166695  145.71699524    0.88000000    2.76999998
   18.08472252  144.97599792    0.89999998    2.78999996
   18.08805656  142.46200562    0.94000000    2.78999996
   18.09111214  145.00900269    0.95999998    2.78999996
   18.09361267  135.39799500    0.98000002    2.78999996
   18.09500122  147.75300598    0.98000002    2.78999996
   18.09833336  145.02400208    0.98000002    2.76999998
   18.10416794  145.02400208    0.94000000    2.76999998
   18.10833359  137.65899658    0.94000000    2.76999998
   18.11138916  146.54299927    0.98000002    2.76999998
   18.11472321  139.14300537    1.01999998    2.76999998
   18.11805534  143.30499268    1.03999996    2.76999998
   18.12111092  137.54499817    0.98000002    2.76999998
   18.12444496  136.92500305    1.00000000    2.78999996
   18.12694550  131.62800598    1.03999996    2.78999996
   18.12805557  135.42100525    1.03999996    2.78999996
   18.13138962  143.08000183    1.05999994    2.78999996
   18.13444519  134.40299988    1.05999994    2.78999996
   18.13777733  129.37399292    1.01999998    2.76999998
   18.14083290  127.81900024    0.94000000    2.76999998
   18.14694405  127.81900024    0.94000000    2.78999996
   18.15111160  140.47599792    0.92000002    2.78999996
   18.15444374  139.27600098    0.92000002    2.76999998
   18.15749931  138.48300171    0.92000002    2.76999998
   18.16027832  127.83499908    0.89999998    2.78999996
   18.16110992  139.55499268    0.89999998    2.78999996
   18.16444397  141.35699463    0.89999998    2.78999996
   18.16749954  136.50599670    0.88000000    2.76999998
   18.17083359  140.14500427    0.88000000    2.76999998
   18.17388916  131.67900085    0.88000000    2.76999998
   18.17722130  130.28199768    0.88000000    2.78999996
   18.18055534  138.16000366    0.86000001    2.78999996
   18.18361092  138.36599731    0.86000001    2.78999996
   18.18972206  138.36599731    0.83999997    2.78999996
   18.19388771  134.65100098    0.86000001    2.78999996
   18.19722176  141.86399841    0.88000000    2.78999996
   18.20027924  135.60600281    0.89999998    2.78999996
   18.20361137  131.34599304    0.92000002    2.78999996
   18.20694542  132.77299500    0.92000002    2.78999996
   18.21000099  131.83099365    0.92000002    2.78999996
   18.22722244  128.10499573    0.89999998    2.76999998
   18.23277855  128.10499573    0.89999998    2.76999998
   18.23694420  131.77299500    0.89999998    2.78999996
   18.24027824  135.74499512    0.92000002    2.78999996
   18.24333382  131.88000488    0.89999998    2.78999996
   18.24666786  141.33700562    0.89999998    2.78999996
   18.25000000  127.96600342    0.89999998    2.78999996
   18.25333405  130.90499878    0.89999998    2.78999996
   18.25638962  122.92099762    0.88000000    2.78999996
   18.25972176  126.69599915    0.88000000    2.76999998
   18.26055527  126.32299805    0.88000000    2.78999996
   18.26333427  125.62100220    0.88000000    2.78999996
   18.26638794  129.14100647    0.88000000    2.78999996
   18.26972198  132.99099731    0.88000000    2.78999996
   18.27583313  132.99099731    0.88000000    2.78999996
   18.28888893  122.33399963    0.00000000    0.00000000
   18.29222107  125.60900116    0.88000000    2.76999998
   18.29388809  123.36299896    0.88000000    2.78999996
   18.29583359  127.79000092    0.88000000    2.78999996
   18.29888916  124.00800323    0.88000000    2.76999998
   18.30222130  125.64099884    0.88000000    2.78999996
   18.30527687  128.02000427    0.88000000    2.78999996
   18.30861092  129.80299377    0.88000000    2.78999996
   18.31194305  131.26400757    0.88000000    2.78999996
   18.31861115  131.26400757    0.89999998    2.78999996
   18.32277870  129.31399536    0.89999998    2.76999998
   18.32583427  129.42100525    0.89999998    2.76999998
   18.32722282  132.72099304    0.89999998    2.76999998
   18.32972336  127.82599640    0.89999998    2.78999996
   18.33277893  127.21900177    0.89999998    2.78999996
   18.33611107  134.26699829    0.89999998    2.76999998
   18.33916664  126.01399994    0.89999998    2.76999998
   18.34250069  125.93599701    0.89999998    2.76999998
   18.34583473  127.15000153    0.89999998    2.78999996
   18.34889030  136.86799622    0.89999998    2.78999996
   18.35222244  141.54499817    0.89999998    2.78999996
   18.35555649  123.99299622    0.89999998    2.78999996
   18.36138916  123.99299622    0.89999998    2.76999998
   18.36555672  126.08399963    0.89999998    2.78999996
   18.36888885  130.16799927    0.89999998    2.78999996
   18.37194443  132.57099915    0.89999998    2.76999998
   18.37527847  131.23699951    0.89999998    2.78999996
   18.37833405  130.47900391    0.89999998    2.76999998
   18.38166618  134.37600708    0.89999998    2.76999998
   18.38500023  132.01600647    0.89999998    2.78999996
   18.38805580  123.56400299    0.89999998    2.78999996
   18.39138794  128.73100281    0.89999998    2.78999996
   18.39388847  133.33399963    0.89999998    2.76999998
   18.39527702  136.61700439    0.92000002    2.76999998
   18.39833260  135.94799805    0.89999998    2.76999998
   18.40416718  135.94799805    0.92000002    2.76999998
   18.40833282  129.91299438    0.92000002    2.78999996
   18.41166687  137.66099548    0.92000002    2.78999996
   18.41499901  141.94599915    0.92000002    2.78999996
   18.41805458  135.53599548    0.92000002    2.78999996
   18.42138863  124.60299683    0.92000002    2.78999996
   18.42472076  132.13299561    0.89999998    2.78999996
   18.42722130  131.07499695    0.92000002    2.76999998
   18.42833328  143.25700378    0.89999998    2.78999996
   18.43138885  153.16000366    0.89999998    2.78999996
   18.43472099  129.47700500    0.89999998    2.76999998
   18.43805504  140.33099365    0.89999998    2.78999996
   18.44111061  138.81700134    0.89999998    2.76999998
   18.44722176  138.81700134    0.89999998    2.78999996
   18.45111275  130.62300110    0.89999998    2.76999998
   18.45444489  127.95400238    0.89999998    2.78999996
   18.45777893  135.83900452    0.89999998    2.78999996
   18.46055603  137.04400635    0.89999998    2.78999996
   18.46138954  139.63000488    0.89999998    2.78999996
   18.46444511  133.69700623    0.89999998    2.78999996
   18.46777916  139.35099792    0.88000000    2.78999996
   18.47083473  137.95199585    0.88000000    2.78999996
   18.47416687  133.91200256    0.88000000    2.76999998
   18.47750092  127.67800140    0.88000000    2.78999996
   18.48055649  135.42700195    0.88000000    2.78999996
   18.48388863  133.31900024    0.88000000    2.76999998
   18.48999977  133.31900024    0.89999998    2.78999996
   18.49416733  132.67799377    0.89999998    2.78999996
   18.49722290  121.31300354    0.89999998    2.78999996
   18.50055504  130.29800415    0.89999998    2.78999996
   18.50388908  132.99200439    0.89999998    2.78999996
   18.50694466  122.75099945    0.89999998    2.78999996
   18.51027870  131.24800110    0.89999998    2.76999998
   18.51333427  129.79200745    0.89999998    2.78999996
   18.51666641  135.85699463    0.89999998    2.76999998
   18.52000046  138.09399414    0.89999998    2.78999996
   18.52305603  129.05400085    0.89999998    2.78999996
   18.52638817  137.68499756    0.89999998    2.78999996
   18.52722168  130.69799805    0.89999998    2.76999998
   18.53305435  130.69799805    0.89999998    2.78999996
   18.53722191  136.92700195    0.89999998    2.78999996
   18.54027748  145.10699463    0.92000002    2.78999996
   18.54361153  140.81700134    0.89999998    2.76999998
   18.54666710  132.35200500    0.89999998    2.76999998
   18.54999924  130.77999878    0.92000002    2.76999998
   18.55333328  136.81500244    0.92000002    2.76999998
   18.55638885  134.89599609    0.92000002    2.78999996
   18.55972099  139.04200745    0.92000002    2.76999998
   18.56055450  142.24600220    0.92000002    2.76999998
   18.56333351  127.06700134    0.94000000    2.76999998
   18.56638718  134.44599915    0.98000002    2.76999998
   18.56972313  126.62699890    1.01999998    2.76999998
   18.57555580  126.62699890    1.00000000    2.76999998
   18.57972336  131.52900696    0.94000000    2.76999998
   18.58305550  132.17199707    0.92000002    2.76999998
   18.58611107  126.71800232    0.92000002    2.76999998
   18.58944511  132.80299377    0.92000002    2.76999998
   18.59277916  127.98000336    0.92000002    2.76999998
   18.59388924  126.48400116    0.92000002    2.78999996
   18.59638977  137.77699280    0.92000002    2.76999998
   18.59944534  118.58399963    0.92000002    2.76999998
   18.60277748  133.50900269    0.92000002    2.76999998
   18.60611153  134.56100464    0.94000000    2.76999998
   18.60916710  137.83200073    0.94000000    2.78999996
   18.61250114  125.88600159    0.94000000    2.78999996
   18.61861038  125.88600159    0.94000000    2.75000000
   18.62249947  130.12399292    0.94000000    2.76999998
   18.62583351  134.48800659    0.94000000    2.76999998
   18.62722206  139.36700439    0.94000000    2.76999998
   18.62972260  137.11099243    0.94000000    2.76999998
   18.63277817  133.08000183    0.94000000    2.76999998
   18.63611031  143.35600281    0.94000000    2.76999998
   18.63944435  139.43600464    0.94000000    2.76999998
   18.64249992  141.02999878    0.94000000    2.76999998
   18.64583397  131.25900269    0.94000000    2.76999998
   18.64888954  146.92700195    0.94000000    2.76999998
   18.65250015  137.62699890    0.92000002    2.76999998
   18.65555573  132.24299622    0.92000002    2.76999998
   18.66138840  132.24299622    0.92000002    2.76999998
   18.66555595  132.40499878    0.92000002    2.76999998
   18.66860962  137.96200562    0.89999998    2.76999998
   18.67194366  133.70500183    0.89999998    2.76999998
   18.67499924  121.23999786    0.89999998    2.76999998
   18.67833328  132.57299805    0.92000002    2.76999998
   18.68166542  133.65899658    0.92000002    2.76999998
   18.68472099  129.60699463    0.92000002    2.76999998
   18.68805504  139.45599365    0.92000002    2.76999998
   18.69138718  136.73399353    0.92000002    2.76999998
   18.69388771  123.34600067    0.89999998    2.76999998
   18.69499969  131.02600098    0.89999998    2.76999998
   18.69805527  135.16499329    0.92000002    2.76999998
   18.70416832  135.16499329    0.89999998    2.76999998
   18.70833397  137.30000305    0.89999998    2.76999998
   18.71138954  135.95300293    0.89999998    2.78999996
   18.71472359  131.05799866    0.89999998    2.76999998
   18.71805573  134.76699829    0.92000002    2.78999996
   18.72111130  130.12199402    0.92000002    2.76999998
   18.72444534  135.69299316    0.92000002    2.76999998
   18.72722244  134.20300293    0.92000002    2.78999996
   18.72805595  136.40299988    0.92000002    2.76999998
   18.73111153  137.66999817    0.92000002    2.76999998
   18.73444557  140.83799744    0.92000002    2.76999998
   18.73777771  127.65499878    0.92000002    2.76999998
   18.74083328  129.86700439    0.92000002    2.76999998
   18.74694443  129.86700439    0.92000002    2.76999998
   18.75111198  119.74700165    0.94000000    2.76999998
   18.75444412  127.66100311    0.94000000    2.78999996
   18.75749969  129.80299377    0.94000000    2.78999996
   18.76055527  123.12899780    0.94000000    2.76999998
   18.76138878  124.56099701    0.94000000    2.78999996
   18.76444435  124.09799957    0.92000002    2.78999996
   18.76777840  128.32000732    0.92000002    2.76999998
   18.77111053  132.86999512    0.92000002    2.76999998
   18.77416611  128.68600464    0.92000002    2.76999998
   18.77750015  138.92100525    0.92000002    2.78999996
   18.78083229  133.67100525    0.92000002    2.76999998
   18.78388786  133.68800354    0.92000002    2.76999998
   18.78972244  133.68800354    0.94000000    2.76999998
   18.79388809  126.16899872    0.94000000    2.76999998
   18.79722214  126.09400177    0.94000000    2.78999996
   18.80055428  133.99000549    0.92000002    2.78999996
   18.80360985  124.82399750    0.92000002    2.78999996
   18.80694389  129.44700623    0.92000002    2.78999996
   18.80999947  126.67900085    0.92000002    2.76999998
   18.81333351  129.34700012    0.92000002    2.76999998
   18.81666756  137.08399963    0.92000002    2.76999998
   18.81972313  138.43299866    0.94000000    2.76999998
   18.82305717  137.37600708    0.94000000    2.76999998
   18.82638931  140.91299438    0.94000000    2.76999998
   18.82722282  139.51800537    0.95999998    2.76999998
   18.83277893  139.51800537    0.98000002    2.76999998
   18.83694458  142.46499634    1.05999994    2.75000000
   18.84000015  143.49000549    1.63000000    2.76999998
   18.84333420  137.98100281    2.53999996    2.76999998
   18.84638977  143.73800659    3.80999994    2.71000004
   18.84972191  153.23899841    4.90999985    2.61999989
   18.85305595  153.98199463    4.90999985    2.66000009
   18.85639000  162.82200623    4.90999985    2.73000002
   18.85944557  154.74800110    4.90999985    2.61999989
   18.86055565  176.27299500    4.90999985    2.61999989
   18.86333466  166.79600525    4.90999985    2.48000002
   18.86638832  172.85600281    4.90999985    2.50000000
   18.86972237  173.61500549    4.90999985    2.50000000
   18.87555504  173.61500549    4.90999985    2.64000010
   18.87972260  145.13000488    4.90999985    2.67000008
   18.88277817  169.56199646    4.90999985    2.53999996
   18.88611031  179.65699768    4.90999985    2.51999998
   18.88944435  170.36199951    4.90999985    2.46000004
   18.89249992  156.41799927    4.90999985    2.53999996
   18.89388847  148.38699341    4.90999985    2.53999996
   18.89638901  141.98100281    4.90999985    2.69000006
   18.89944458  159.08200073    4.90999985    2.64000010
   18.90277672  144.01699829    4.90999985    2.57999992
   18.90611076  157.00700378    4.90999985    2.69000006
   18.90916634  139.15100098    4.82999992    2.75000000
   18.91250038  151.91900635    2.32999992    2.75000000
   18.91833305  151.91900635    1.25000000    2.75000000
   18.92249870  131.96000671    1.36000001    2.75000000
   18.92583275  136.63200378    1.46000004    2.75000000
   18.92722130  133.49600220    1.60000002    2.75000000
   18.92944336  136.38400269    1.75000000    2.75000000
   18.93277740  139.50500488    1.71000004    2.75000000
   18.93583298  144.21699524    1.83000004    2.76999998
   18.93916512  145.61900330    1.89999998    2.75000000
   18.94249916  125.42400360    2.11999989    2.75000000
   18.94555473  129.43299866    2.13000011    2.75000000
   18.94888878  143.84700012    1.76999998    2.75000000
   18.95194435  147.63000488    2.69000006    2.75000000
   18.95527840  139.20599365    4.09999990    2.75000000
   18.96111107  139.20599365    4.69999981    2.61999989
   18.96527863  172.95899963    4.90999985    2.76999998
   18.96861076  178.71499634    4.23999977    2.76999998
   18.97194481  168.60600281    2.76999998    2.75000000
   18.97500038  150.16900635    4.76000023    2.76999998
   18.97833443  184.18099976    4.90999985    2.76999998
   18.98999977  166.05999756    0.00000000    0.00000000
   18.99333382  147.94599915    1.88000000    2.76999998
   18.99388885  154.94999695    1.88000000    2.76999998
   18.99694443  147.54499817    1.53999996    2.76999998
   19.00027847  146.18800354    1.39999998    2.75000000
   19.00444412  146.18800354    1.33000004    2.76999998
   19.00833321  139.60699463    1.14999998    2.75000000
   19.01166725  157.91299438    1.28999996    2.76999998
   19.01499939  153.95199585    3.36999989    2.78999996
   19.01805496  146.62899780    4.90999985    2.76999998
   19.02138901  216.47700500    4.90999985    2.80999994
   19.02472115  235.15800476    4.90999985    2.28999996
   19.02722168  157.00199890    4.90999985    2.23000002
   19.02833366  170.79200745    4.90999985    2.48000002
   19.03166580  164.27999878    4.90999985    2.34999990
   19.03472137  135.86700439    4.90999985    2.32999992
   19.03805542  167.91900635    4.90999985    2.57999992
   19.04111099  334.59600830    4.90999985    2.46000004
   19.04722214  334.59600830    4.90999985    2.51999998
   19.05138779   98.95539856    4.90999985    2.53999996
   19.05444336  132.14700317    4.90999985    1.78999996
   19.05777740  447.24700928    4.90999985    1.71000004
   19.05972099  493.48901367    4.90999985    1.91999996
   19.06110954  358.15798950    4.90999985    1.94000006
   19.06250000  229.69900513    4.90999985    1.94000006
   19.06250000  164.27999878    4.90999985    2.34999990
   19.06277657  135.86700439    4.90999985    2.32999992
   19.06277657  167.91900635    4.90999985    2.57999992
   19.06277657  334.59600830    4.90999985    2.46000004
   19.06305504   98.95539856    4.90999985    2.53999996
   19.06305504  132.14700317    4.90999985    1.78999996
   19.06333351  447.24700928    4.90999985    1.71000004
   19.06333351  235.15800476    4.90999985    2.28999996
   19.06333351  170.79200745    4.90999985    2.48000002
   19.06388855  467.02600098    4.90999985    1.96000004
   19.06611061  356.73300171    4.90999985    2.25000000
   19.06722260  274.01000977    4.90999985    2.25000000
   19.06750107  467.02600098    4.90999985    1.96000004
   19.06861115  320.85400391    4.90999985    2.01999998
   19.07194519  305.04998779    4.90999985    2.09999990
   19.07500076  348.61801147    4.90999985    2.19000006
   19.07833481  259.89401245    4.90999985    2.25000000
   19.08166695  184.29699707    4.90999985    2.19000006
   19.08805656  184.29699707    4.90999985    2.32999992
   19.09222221  183.70500183    4.90999985    2.57999992
   19.09583473  181.38000488    4.90999985    2.59999990
   19.09916687  177.03999329    4.90999985    2.67000008
   19.10111237  227.30900574    4.90999985    2.75000000
   19.10277748  191.07600403    4.90999985    2.71000004
   19.10611153  183.79299927    4.90999985    2.73000002
   19.10916710  178.09599304    4.17999983    2.61999989
   19.11250114  169.88200378    4.26999998    2.57999992
   19.11611176  180.28100586    4.09999990    2.75000000
   19.11916733  173.00700378    2.73000002    2.75000000
   19.12249947  189.46299744    1.14999998    2.75000000
   19.12583351  151.45199585    1.09000003    2.75000000
   19.13111115  151.45199585    1.09000003    2.75000000
   19.13527679  174.67700195    1.09000003    2.75000000
   19.13833237  149.28599548    1.09000003    2.75000000
   19.14166641  175.89300537    1.09000003    2.75000000
   19.14472198  190.92100525    1.13000000    2.75000000
   19.14805603  178.54699707    1.60000002    2.76999998
   19.15138817  149.25199890    1.91999996    2.75000000
   19.15444374  165.52200317    3.05999994    2.75000000
   19.15777779  167.83500671    4.78000021    2.75000000
   19.16110992  239.36900330    4.90999985    2.76999998
   19.16416550  164.82699585    4.90999985    2.15000010
   19.16749954  156.73399353    4.90999985    2.55999994
   19.16805458  182.60200500    4.90999985    2.76999998
   19.17388916  182.60200500    4.90999985    2.78999996
   19.17805481  144.66700745    4.90999985    2.76999998
   19.18111038  270.65600586    4.90999985    2.67000008
   19.18444443  187.68899536    4.90999985    2.19000006
   19.18777657  167.27400208    4.90999985    2.13000011
   19.19083214  214.50399780    4.90999985    2.73000002
   19.19416618  254.18400574    4.90999985    2.09999990
   19.19749832  185.61799622    4.90999985    2.05999994
   19.20055580  172.44000244    4.90999985    2.42000008
   19.20138931  181.20399475    4.90999985    2.42000008
   19.20444489  181.72099304    4.90999985    2.51999998
   19.20750046  159.77699280    4.90999985    2.32999992
   19.21083450  156.79100037    4.90999985    2.51999998
   19.21666718  156.79100037    4.90999985    2.75000000
   19.22083473  128.73899841    3.30999994    2.75000000
   19.22416687  148.35200500    4.01999998    2.71000004
   19.22722244  152.33200073    4.90999985    2.61999989
   19.23055649  133.84100342    4.90999985    2.66000009
   19.23388863  137.86099243    4.90999985    2.61999989
   19.23472214  142.15400696    4.90999985    2.61999989
   19.25388908  293.03298950    4.90999985    1.51999998
   19.25972176  293.03298950    4.90999985    2.21000004
   19.26388931   -1.00000000    4.90999985    1.83000004
   19.26722145  164.66099548    4.90999985    1.28999996
   19.26805496  136.31799316    4.90999985    1.28999996
   19.27138901  324.14700317    4.90999985    1.80999994
   19.27472115  306.85400391    4.90999985    1.88000000
   19.27777672  227.10099792    4.90999985    2.25000000
   19.28111076  197.83799744    4.90999985    2.28999996
   19.28416634  210.97399902    4.90999985    2.59999990
   19.28750038  153.31700134    4.90999985    2.44000006
   19.29083252  189.14799500    4.90999985    2.32999992
   19.29388809  323.99798584    4.90999985    2.53999996
   19.29722214  273.00900269    4.90999985    1.86000001
   19.30249977  273.00900269    4.90999985    2.13000011
   19.30666542   -1.00000000    4.90999985    2.09999990
   19.30999947  138.41900635    4.90999985    2.01999998
   19.31305504  144.08500671    4.90999985    1.64999998
   19.31638718  232.67399597    4.90999985    2.21000004
   19.31972313  222.37800598    4.90999985    2.01999998
   19.32305717  334.25900269    4.90999985    2.09999990
   19.32611275  128.94700623    4.90999985    2.00000000
   19.32944489  197.63600159    4.90999985    1.69000006
   19.33250046  173.43899536    4.90999985    1.85000002
   19.33472252  270.08999634    4.90999985    2.19000006
   19.33638954  147.54899597    4.90999985    2.17000008
   19.33944511  135.60400391    4.90999985    2.19000006
   19.34527779  135.60400391    4.90999985    1.71000004
   19.34944534  134.33000183    4.90999985    1.83000004
   19.35277748  158.83700562    4.90999985    1.66999996
   19.35611153  118.02400208    4.90999985    1.76999998
   19.35916710   -1.00000000    4.90999985    1.78999996
   19.36250114   94.34690094    4.90999985    1.09000003
   19.36555672  293.79998779    4.90999985    1.61000001
   19.36805534  171.87600708    4.90999985    1.85000002
   19.36944389  157.85000610    4.90999985    2.28999996
   19.37249947  219.49800110    4.90999985    2.44000006
   19.37583351  176.42900085    4.90999985    2.25000000
   19.37916756  157.28799438    4.90999985    2.57999992
   19.38222313  144.92300415    4.90999985    2.57999992
   19.38833237  144.92300415    4.90999985    2.73000002
   19.39249992  161.38400269    4.90999985    2.73000002
   19.39555550  154.99800110    4.90999985    2.67000008
   19.39888954  150.84399414    4.90999985    2.59999990
   19.40138817  148.51899719    4.90999985    2.61999989
   19.40250015  159.64199829    4.90999985    2.59999990
   19.40555573  198.76899719    4.90999985    2.57999992
   19.40888786   -1.00000000    4.90999985    2.34999990
   19.41222191  226.92500305    4.90999985    1.75000000
   19.41527748  166.13200378    4.90999985    2.11999989
   19.41860962  163.85000610    4.90999985    2.61999989
   19.42194366  154.29100037    4.90999985    2.55999994
   19.42499924  152.16200256    4.90999985    2.75000000
   19.43111038  152.16200256    4.90999985    2.69000006
   19.43527603  139.69099426    4.90999985    2.44000006
   19.43833160  164.73100281    4.90999985    2.48000002
   19.44166565  142.52999878    4.90999985    2.44000006
   19.44499969  156.44500732    4.90999985    2.71000004
   19.44805527  150.39100647    4.90999985    2.55999994
   19.45138931  135.71699524    4.90999985    2.71000004
   19.45472336  166.69999695    4.90999985    2.46000004
   19.45777893  145.19599915    4.90999985    2.53999996
   19.46111107  167.49499512    4.90999985    2.55999994
   19.46416664  150.84599304    4.90999985    2.34999990
   19.46750069  178.29100037    4.90999985    2.67000008
   19.46805573  171.54800415    4.90999985    2.67000008
   19.47583389  171.54800415    4.90999985    2.55999994
   19.48000145  149.90600586    4.90999985    2.75000000
   19.48388863  148.77999878    4.78000021    2.69000006
   19.48694420  155.72999573    4.86999989    2.69000006
   19.49027824  150.25799561    4.90999985    2.71000004
   19.49361229  147.19200134    4.59999990    2.73000002
   19.49666786  172.02000427    4.80999994    2.69000006
   19.50000000  143.19299316    4.90999985    2.67000008
   19.50138855  147.82899475    4.90999985    2.66000009
   19.50361061  148.92599487    4.90999985    2.69000006
   19.50666618  163.03100586    4.90999985    2.69000006
   19.51000023  145.74499512    4.90999985    2.73000002
   19.51666641  145.74499512    2.84999990    2.75000000
   19.52083397  146.38999939    3.20000005    2.73000002
   19.52416611  152.69099426    4.80000019    2.67000008
   19.52750015  142.04600525    4.90999985    2.71000004
   19.53055573  173.26800537    4.90999985    2.59999990
   19.53388786  155.36000061    4.90999985    2.42000008
   19.53472137  132.88000488    4.90999985    2.42000008
   19.53750038  146.16299438    4.90999985    2.66000009
   19.54055595  145.86300659    4.90999985    2.57999992
   19.54388809  154.42399597    4.90999985    2.69000006
   19.54722214  137.77400208    4.90999985    2.71000004
   19.55027771  135.37399292    4.90999985    2.73000002
   19.55360985  137.15400696    4.90999985    2.75000000
   19.56888962  137.15400696    1.44000006    2.73000002
   19.57305717  135.99099731    1.44000006    2.73000002
   19.57638931  139.85200500    1.26999998    2.71000004
   19.57972336  145.45700073    1.25000000    2.73000002
   19.58277893  152.85000610    1.25000000    2.73000002
   19.58611107  139.33099365    1.30999994    2.73000002
   19.58916664  143.17599487    1.23000002    2.73000002
   19.59388924  142.69900513    1.16999996    2.73000002
   19.59694481  135.69999695    1.14999998    2.73000002
   19.60361099  135.69999695    1.13000000    2.73000002
   19.60777855  139.82099915    1.13000000    2.73000002
   19.61083412  144.31100464    1.13000000    2.73000002
   19.61416626  152.90100098    1.14999998    2.73000002
   19.61750031  152.61000061    1.16999996    2.73000002
   19.62055588  140.69599915    1.16999996    2.75000000
   19.62388992  139.05000305    1.16999996    2.73000002
   19.63555527  139.76100159    0.00000000    0.00000000
   19.63861084  152.80200195    1.33000004    2.73000002
   19.63916588  139.77600098    1.38000000    2.73000002
   19.64611053  139.77600098    3.03999996    2.73000002
   19.65027809  138.31199646    4.69999981    2.73000002
   19.65333366  137.09100342    4.90999985    2.59999990
   19.65666580  134.85699463    4.90999985    2.75000000
   19.65999985  144.47399902    3.75000000    2.75000000
   19.66305542  148.21000671    2.55999994    2.73000002
   19.66638756  155.45500183    1.41999996    2.73000002
   19.66972160  159.99299622    1.16999996    2.73000002
   19.67222214  175.60899353    1.13000000    2.73000002
   19.68222237  165.03300476    0.00000000    0.00000000
   19.68555450  160.66999817    1.11000001    2.73000002
   19.69166565  160.66999817    1.13000000    2.75000000
   19.69583321  167.83999634    1.13000000    2.73000002
   19.69916534  144.31799316    1.13000000    2.73000002
   19.70250130  146.94500732    1.13000000    2.71000004
   19.70527840  143.68400574    1.13000000    2.73000002
   19.70611191  155.72500610    1.13000000    2.73000002
   19.71666718  166.90100098    0.00000000    0.00000000
   19.71972275  157.62100220    1.14999998    2.71000004
   19.72305679  164.39599609    1.14999998    2.73000002
   19.72638893  153.76300049    1.14999998    2.71000004
   19.72972298  150.91499329    1.16999996    2.73000002
   19.73444557  150.91499329    1.16999996    2.71000004
   19.73861122  157.47599792    1.19000006    2.71000004
   19.73916626  154.71400452    1.19000006    2.71000004
   19.74250031  173.10000610    1.19000006    2.71000004
   19.74583435  140.82699585    1.19000006    2.71000004
   19.74888992  143.74600220    1.21000004    2.71000004
   19.75222206  148.53300476    1.23000002    2.71000004
   19.75583267  154.56900024    1.25000000    2.71000004
   19.75916672  139.91700745    1.25000000    2.71000004
   19.76222229  148.34100342    1.23000002    2.71000004
   19.76694489  147.56900024    1.25000000    2.69000006
   19.77000046  126.94599915    1.36000001    2.69000006
   19.77194405  142.32499695    1.36000001    2.71000004
   19.77805519  142.32499695    1.23000002    2.71000004
   19.78222275  128.39500427    1.23000002    2.71000004
   19.78555489  130.33200073    1.23000002    2.71000004
   19.78916550  141.39799500    1.23000002    2.71000004
   19.79222107  142.90499878    1.23000002    2.71000004
   19.79555511  148.85600281    1.25000000    2.71000004
   19.80027771  141.95300293    1.25000000    2.71000004
   19.80333328  132.04299927    1.25000000    2.71000004
   19.80527687  150.87899780    1.26999998    2.71000004
   19.80722237  131.35099792    1.26999998    2.71000004
   19.81138802  130.49200439    1.26999998    2.71000004
   19.81444359  132.92100525    1.26999998    2.69000006
   19.82111168  132.92100525    1.26999998    2.71000004
   19.82527924  137.38200378    1.26999998    2.69000006
   19.82833481  136.27799988    1.26999998    2.69000006
   19.83166695  135.17999268    1.28999996    2.71000004
   19.83500099  132.87399292    1.30999994    2.71000004
   19.83805656  137.38600159    1.30999994    2.71000004
   19.83861160  127.55100250    1.30999994    2.71000004
   19.84166718  137.48300171    1.33000004    2.71000004
   19.85333443  128.38800049    0.00000000    0.00000000
   19.85666656  137.31700134    1.28999996    2.71000004
   19.85972214  130.54400635    1.33000004    2.69000006
   19.88111115  130.54400635    1.36000001    2.69000006
   19.88527679  136.83500671    1.39999998    2.71000004
   19.88861084  130.14599609    1.41999996    2.69000006
   19.89166641  128.23500061    1.34000003    2.69000006
   19.90333366  128.98500061    0.00000000    0.00000000
   19.90666580  133.06900024    1.30999994    2.71000004
   19.91277695  133.06900024    1.30999994    2.69000006
   19.91694450  134.92599487    1.30999994    2.71000004
   19.91888809  130.64399719    1.30999994    2.71000004
   19.92055511  132.18400574    1.33000004    2.71000004
   19.92388916  135.25000000    1.33000004    2.71000004
   19.92694473  135.02600098    1.33000004    2.69000006
   19.93027687  134.77299500    1.33000004    2.69000006
   19.93361092  130.81199646    1.33000004    2.69000006
   19.93666649  127.27799988    1.33000004    2.69000006
   19.93999863  127.27300262    1.33000004    2.69000006
   19.94305420  120.48600006    1.33000004    2.69000006
   19.94638824  127.19100189    1.34000003    2.69000006
   19.94972038  130.86300659    1.33000004    2.69000006
   19.95555687  130.86300659    1.36000001    2.69000006
   19.95972252  134.71600342    1.41999996    2.69000006
   19.96333504  132.98199463    1.38000000    2.69000006
   19.96666718  137.81500244    1.34000003    2.69000006
   19.96972275  130.90699768    1.36000001    2.69000006
   19.97305679  138.43800354    1.38000000    2.69000006
   19.97611237  130.47700500    1.36000001    2.71000004
   19.97944450  126.77899933    1.36000001    2.69000006
   19.98277855  131.58399963    1.38000000    2.69000006
   19.98694420  134.60299683    1.41999996    2.69000006
   19.98750114  128.25999451    1.41999996    2.69000006
   19.99055672  134.60200500    1.38000000    2.69000006
   19.99388885  129.29699707    1.36000001    2.69000006
   19.99833298  129.29699707    1.38000000    2.69000006
   20.00250053  129.85800171    1.39999998    2.69000006
   20.00583267  128.24899292    1.41999996    2.69000006
   20.00916672  134.55900574    1.38000000    2.69000006
   20.01222229  132.02600098    1.38000000    2.67000008
   20.01555634  134.85000610    1.39999998    2.69000006
   20.01888847  124.86199951    1.39999998    2.67000008
   20.02083397  130.89999390    1.39999998    2.69000006
   20.02249908  128.26600647    1.39999998    2.69000006
   20.02583313  126.86299896    1.39999998    2.69000006
   20.02888870  130.75999451    1.39999998    2.69000006
   20.03222275  124.68399811    1.44000006    2.67000008
   20.03527641  132.97300720    1.50000000    2.67000008
   20.04999924  132.97300720    1.66999996    2.67000008
   20.05416679  127.17900085    1.76999998    2.67000008
   20.05749893  128.61999512    1.73000002    2.67000008
   20.06083298  126.36499786    1.60000002    2.67000008
   20.06388855  127.71600342    1.60000002    2.67000008
   20.06722260  124.25900269    1.69000006    2.67000008
   20.07027817  117.23899841    1.75000000    2.67000008
   20.07472229  127.08599854    1.85000002    2.66000009
   20.07805634  124.40499878    2.13000011    2.66000009
   20.08472252  124.40499878    2.09999990    2.67000008
   20.08889008  208.07099915    1.64999998    2.66000009
   20.09194565  127.91300201    1.61000001    2.67000008
   20.09555626  121.65599823    1.73000002    2.66000009
   20.09889030  126.90100098    1.94000006    2.66000009
   20.10194397  130.00999451    2.05999994    2.66000009
   20.10527802  126.13999939    2.28999996    2.67000008
   20.11777878  120.38200378    0.00000000    0.00000000
   20.12083435  124.09700012    2.78999996    2.66000009
   20.12138939  119.81700134    2.78999996    2.66000009
   20.12722206  119.81700134    2.39000010    2.64000010
   20.13138962  119.37200165    2.48000002    2.66000009
   20.13444519  120.00099945    2.42000008    2.64000010
   20.13777733  125.99199677    2.32999992    2.64000010
   20.14111137  125.41400146    2.30999994    2.66000009
   20.14416695  124.54499817    2.07999992    2.67000008
   20.14749908  128.15800476    1.85000002    2.67000008
   20.15055466  127.35800171    1.75000000    2.67000008
   20.15388870  125.87200165    1.61000001    2.67000008
   20.15444374  127.56500244    1.55999994    2.66000009
   20.15777779  129.65100098    1.50000000    2.66000009
   20.16083336  128.03599548    1.46000004    2.66000009
   20.16416550  131.45300293    1.44000006    2.67000008
   20.17000008  131.45300293    1.44000006    2.67000008
   20.17416573  126.26399994    1.41999996    2.66000009
   20.17749977  129.71400452    1.41999996    2.66000009
   20.18055534  123.62000275    1.44000006    2.67000008
   20.18388748  120.31800079    1.44000006    2.67000008
   20.18694305  133.50300598    1.41999996    2.67000008
   20.18777657  131.04800415    1.44000006    2.66000009
   20.19083214  118.23699951    1.44000006    2.67000008
   20.19388771  122.78299713    1.44000006    2.66000009
   20.19722176  125.24099731    1.44000006    2.67000008
   20.20055580  121.99800110    1.44000006    2.66000009
   20.20361137  122.47000122    1.46000004    2.66000009
   20.20694542  122.79100037    1.46000004    2.66000009
   20.21277809  122.79100037    1.48000002    2.66000009
   20.21694565  129.17399597    1.50000000    2.66000009
   20.22027779  123.59700012    1.50000000    2.66000009
   20.22111130  123.56500244    1.51999998    2.66000009
   20.22389030  123.12400055    1.51999998    2.66000009
   20.22694588  119.78500366    1.51999998    2.66000009
   20.23027802  118.41600037    1.51999998    2.66000009
   20.23361206  122.55899811    1.51999998    2.66000009
   20.23694420  128.36599731    1.51999998    2.66000009
   20.24027824  120.65799713    1.51999998    2.66000009
   20.24333382  122.83399963    1.51999998    2.66000009
   20.24666786  122.27700043    1.51999998    2.66000009
   20.25000000  123.94499969    1.51999998    2.66000009
   20.25583267  123.94499969    2.05999994    2.66000009
   20.25972176  115.30500031    2.03999996    2.64000010
   20.26305580  116.88899994    2.25000000    2.61999989
   20.26722145  130.44900513    2.67000008    2.44000006
   20.27055550  118.44100189    3.48000002    2.57999992
   20.27361107  118.62699890    3.95000005    2.66000009
   20.27694511  112.03099823    3.48000002    2.66000009
   20.28027725  122.10399628    2.82999992    2.64000010
   20.28333282  121.48799896    2.96000004    2.64000010
   20.30277634  127.15599823    4.11999989    2.50000000
   20.30694389  127.15599823    4.01999998    2.64000010
   20.31110954  115.83200073    3.59999990    2.64000010
   20.31416512  115.36900330    2.67000008    2.64000010
   20.31750107  127.52899933    2.01999998    2.55999994
   20.32055664  119.23999786    2.23000002    2.59999990
   20.32389069  122.24099731    2.57999992    2.61999989
   20.32722282  124.46499634    2.71000004    2.64000010
   20.33027840  120.33499908    2.39000010    2.66000009
   20.34222221  119.80999756    0.00000000    0.00000000
   20.34277916  121.03800201    2.46000004    2.64000010
   20.34583473  122.04599762    2.57999992    2.64000010
   20.35166740  122.04599762    2.76999998    2.57999992
   20.35583305  120.92199707    3.14000010    2.55999994
   20.35888863  115.48000336    3.59999990    2.64000010
   20.36222267  117.21600342    3.68000007    2.61999989
   20.36555672  121.19100189    3.45000005    2.61999989
   20.36888885  119.71399689    3.18000007    2.64000010
   20.37194443  113.83300018    2.71000004    2.64000010
   20.37527847  125.12500000    2.36999989    2.59999990
   20.37611198  119.45800018    2.32999992    2.57999992
   20.37888908  117.55300140    2.46000004    2.61999989
   20.38194466  114.23799896    2.82999992    2.61999989
   20.38527679  120.70500183    2.82999992    2.64000010
   20.38888931  122.91899872    2.40000010    2.64000010
   20.39444351  122.91899872    2.07999992    2.64000010
   20.39861107  116.02899933    2.07999992    2.64000010
   20.40194321  123.31500244    2.15000010    2.61999989
   20.40499878  119.87699890    2.30999994    2.64000010
   20.40833282  118.01899719    2.59999990    2.61999989
   20.40944481  117.47499847    2.66000009    2.61999989
   20.41194344  116.12999725    2.86999989    2.61999989
   20.41499901  114.24299622    3.07999992    2.64000010
   20.41833305  111.02600098    2.89000010    2.61999989
   20.42166519  119.50599670    2.82999992    2.61999989
   20.42472076  125.06999969    3.01999998    2.64000010
   20.42805481  122.14600372    2.94000006    2.61999989
   20.43111038  119.71099854    2.75000000    2.61999989
   20.43833160  119.71099854    2.84999990    2.61999989
   20.44249916  119.16899872    2.93000007    2.61999989
   20.45250130  119.26699829    2.78999996    2.64000010
   20.45583344  114.10600281    2.59999990    2.64000010
   20.45916748  118.49600220    2.34999990    2.61999989
   20.46250153  116.79900360    2.26999998    2.61999989
   20.46638870  116.54299927    2.28999996    2.61999989
   20.46972275  113.60900116    2.36999989    2.61999989
   20.47305679  115.94499969    2.42000008    2.57999992
   20.47638893  185.56399536    2.71000004    2.59999990
   20.47694588  117.24199677    2.89000010    2.61999989
   20.48111153  117.24199677    3.20000005    2.55999994
   20.48527718  112.29299927    3.03999996    2.64000010
   20.48833275  122.23699951    2.55999994    2.61999989
   20.49166679  109.62899780    2.13000011    2.59999990
   20.49472237  115.60299683    1.83000004    2.61999989
   20.50555611  117.23500061    0.00000000    0.00000000
   20.50861168  117.82299805    1.73000002    2.61999989
   20.51027870  113.81300354    1.75000000    2.59999990
   20.51222229  116.54299927    1.78999996    2.61999989
   20.51555634  114.84300232    1.80999994    2.64000010
   20.51888847  114.54900360    1.80999994    2.61999989
   20.52388954  114.54900360    1.80999994    2.61999989
   20.52805519  122.33399963    1.80999994    2.61999989
   20.53999901  112.45300293    0.00000000    0.00000000
   20.54361153  112.24900055    1.86000001    2.61999989
   20.54416656  117.95400238    1.86000001    2.61999989
   20.54749870  118.56300354    1.80999994    2.61999989
   20.55055428  117.68900299    1.80999994    2.61999989
   20.55388832  116.27100372    1.85000002    2.61999989
   20.55722237  114.61399841    1.86000001    2.61999989
   20.56027794  113.16400146    1.88000000    2.61999989
   20.56361008  118.86900330    1.88000000    2.61999989
   20.56777954  118.86900330    1.86000001    2.61999989
   20.57194519  119.39499664    1.85000002    2.61999989
   20.57500076  116.18099976    1.83000004    2.61999989
   20.57694626  114.29399872    1.83000004    2.61999989
   20.57861137  119.31999969    1.76999998    2.61999989
   20.58194542  121.63099670    1.76999998    2.61999989
   20.58527756  116.33100128    1.71000004    2.61999989
   20.58833313  114.76000214    1.71000004    2.61999989
   20.59166718  115.37400055    1.71000004    2.61999989
   20.59500122  108.82900238    1.66999996    2.61999989
   20.59805679  116.10500336    1.64999998    2.61999989
   20.60138893  107.49299622    1.64999998    2.61999989
   20.60472298  113.09799957    1.64999998    2.61999989
   20.61055565  113.09799957    1.64999998    2.59999990
   20.61472321  109.28399658    1.64999998    2.61999989
   20.61805534  109.65499878    1.64999998    2.61999989
   20.62111092  105.05100250    1.64999998    2.59999990
   20.62444496  106.00700378    1.66999996    2.61999989
   20.62777710  110.47499847    1.69000006    2.61999989
   20.63111115  107.11199951    1.69000006    2.61999989
   20.63416672  104.26000214    1.66999996    2.59999990
   20.63750076  110.20600128    1.66999996    2.59999990
   20.64055634  100.36199951    1.69000006    2.59999990
   20.64361191  105.48100281    1.78999996    2.61999989
   20.64416695  107.38899994    1.91999996    2.59999990
   20.64749908   99.84279633    2.05999994    2.59999990
   20.65333366   99.84279633    2.09999990    2.59999990
   20.65749931  101.89900208    2.11999989    2.59999990
   20.67000008  101.94400024    0.00000000    0.00000000
   20.67333221  110.99600220    2.19000006    2.59999990
   20.67638779  104.60800171    2.28999996    2.59999990
   20.67972183  100.05000305    2.42000008    2.55999994
   20.68277740  103.32499695    2.64000010    2.59999990
   20.68555450  105.36799622    2.69000006    2.59999990
   20.68666649  100.23799896    2.66000009    2.59999990
   20.68999863  109.81900024    2.50000000    2.59999990
   20.69361115  100.67500305    2.42000008    2.59999990
   20.70666695  100.67500305    3.20000005    2.59999990
   20.71083450  105.29199982    2.98000002    2.59999990
   20.71416664  102.82900238    2.82999992    2.59999990
   20.71750069  104.58699799    2.76999998    2.55999994
   20.72055626  100.07900238    2.80999994    2.55999994
   20.72249985  104.39199829    2.94000006    2.53999996
   20.72416687  103.50399780    3.07999992    2.55999994
   20.72750092  103.68199921    3.25000000    2.55999994
   20.73166656  105.88999939    3.28999996    2.53999996
   20.73500061   97.38279724    3.21000004    2.55999994
   20.74166679   97.38279724    2.96000004    2.57999992
   20.74583435  103.32499695    2.76999998    2.59999990
   20.74888992  105.90200043    2.61999989    2.59999990
   20.75222206  105.15200043    2.50000000    2.59999990
   20.75555611  102.80000305    2.44000006    2.59999990
   20.75611115  106.62899780    2.42000008    2.57999992
   20.75916672  106.01699829    2.32999992    2.59999990
   20.76250076  110.19300079    2.28999996    2.57999992
   20.76583290  102.86499786    2.25000000    2.55999994
   20.76888847  108.20600128    2.30999994    2.55999994
   20.77222252  109.24500275    2.34999990    2.55999994
   20.77527809  106.37699890    2.36999989    2.57999992
   20.77861023  105.50199890    2.28999996    2.57999992
   20.78416634  105.50199890    2.03999996    2.57999992
   20.78805542   99.88259888    1.91999996    2.57999992
   20.78944397  104.79000092    1.89999998    2.57999992
   20.79166603  110.05200195    1.86000001    2.57999992
   20.79500008  115.29399872    1.86000001    2.57999992
   20.79833221  114.21299744    1.86000001    2.57999992
   20.80138779  104.42500305    1.86000001    2.57999992
   20.80472183  110.05200195    1.86000001    2.57999992
   20.80833244  110.91699982    1.88000000    2.55999994
   20.81166649  112.17600250    1.89999998    2.55999994
   20.81499863  102.19200134    1.91999996    2.55999994
   20.81805611  110.22399902    1.91999996    2.57999992
   20.82139015  101.56900024    1.91999996    2.57999992
   20.82277870  102.77500153    1.96000004    2.55999994
   20.82694626  102.77500153    2.01999998    2.57999992
   20.83111191  103.43000031    2.01999998    2.57999992
   20.83416748  106.56500244    2.03999996    2.53999996
   20.83750153  103.17800140    2.11999989    2.55999994
   20.84083366   98.37789917    2.26999998    2.57999992
   20.84388924   99.75019836    2.32999992    2.55999994
   20.84722328  105.69799805    2.34999990    2.55999994
   20.85055542   95.82109833    2.39000010    2.55999994
   20.85361099   98.58699799    2.39000010    2.57999992
   20.85611153  104.97000122    2.28999996    2.57999992
   20.85722351  101.20500183    2.26999998    2.57999992
   20.86055565  103.88099670    2.11999989    2.55999994
   20.86444473   98.36859894    2.00000000    2.55999994
   20.86972237   98.36859894    1.89999998    2.55999994
   20.87388992   99.41020203    1.88000000    2.53999996
   20.87722206   99.64399719    1.89999998    2.53999996
   20.88027763   98.43399811    1.94000006    2.53999996
   20.88361168  100.18499756    1.98000002    2.55999994
   20.88750076  105.53900146    2.00000000    2.55999994
   20.88944435  101.60500336    2.03999996    2.55999994
   20.89111137   98.45220184    2.03999996    2.55999994
   20.89500046  102.41699982    2.03999996    2.55999994
   20.89833260   97.39179993    2.28999996    2.53999996
   20.90138817   95.94480133    2.82999992    2.55999994
   20.90472221   97.28440094    3.23000002    2.55999994
   20.90805435   97.65950012    3.68000007    2.53999996
   20.91250038   97.65950012    4.44999981    2.53999996
   20.91666603   93.65660095    4.90999985    2.53999996
   20.92000008   95.28520203    4.90999985    2.53999996
   20.92277718   93.99469757    4.90999985    2.53999996
   20.92361069   96.80370331    4.90999985    2.53999996
   20.92694473   88.19609833    4.90999985    2.42000008
   20.93083191   92.05329895    4.90999985    2.34999990
   20.93416595  107.06900024    4.90999985    2.23000002
   20.93722153   99.19819641    4.90999985    2.23000002
   20.94055557  108.92299652    4.90999985    2.26999998
   20.94388771   97.32740021    4.90999985    2.32999992
   20.94694328   97.03569794    4.90999985    2.46000004
   20.95027924   96.41840363    4.90999985    2.50000000
   20.95527840   96.41840363    4.90999985    2.50000000
   20.95944595   95.99819946    4.26999998    2.53999996
   20.96277809   93.14880371    3.75000000    2.53999996
   20.96611214   91.27970123    3.45000005    2.51999998
   20.96916771   90.15760040    3.39000010    2.51999998
   20.97249985   98.30840302    3.46000004    2.50000000
   20.97722244   91.91079712    3.86999989    2.51999998
   20.98055649   96.43399811    4.13999987    2.51999998
   20.98388863   94.51360321    4.36999989    2.51999998
   20.98694420   91.78220367    4.46999979    2.48000002
   20.99027824   94.84919739    4.55999994    2.46000004
   20.99083328   97.42949677    4.55999994    2.46000004
   20.99416733   89.69750214    4.84999990    2.44000006
   20.99833298   89.69750214    1.96000004    2.53999996
   21.00250053  105.82299805    1.14999998    0.50000000
   21.00555611   94.39250183    0.20999999    0.15000001
   21.00916672   93.65640259    0.11000000    0.05000000
   21.01222229   93.48619843    0.11000000    0.05000000
   21.01555634   96.77069855    0.11000000    0.05000000
   21.01861000  102.69000244    0.11000000    0.05000000
   21.02194405   95.74449921    0.11000000    0.05000000
   21.02416611   97.50620270    0.11000000    0.05000000
   21.02583313   87.98699951    0.11000000    0.05000000
   21.02888870   95.32700348    0.11000000    0.05000000
   21.03222275  103.47299957    0.11000000    0.05000000
   21.03527641  111.47200012    0.11000000    0.05000000
   21.04111099  111.47200012    0.11000000    0.05000000
   21.04583359  140.96200562    0.11000000    0.05000000
   21.04916573  167.83299255    0.11000000    0.05000000
   21.05222130  163.35200500    0.11000000    0.05000000
   21.05555534  157.64599609    0.11000000    0.05000000
   21.05916595   -1.00000000    0.11000000    0.05000000
   21.06250000   -1.00000000    0.11000000    0.05000000
   21.06555557   -1.00000000    0.11000000    0.05000000
   21.06888962   -1.00000000    0.11000000    0.05000000
   21.07194519   -1.00000000    0.11000000    0.05000000
   21.07527924   -1.00000000    0.11000000    0.05000000
   21.07916832   -1.00000000    0.11000000    0.05000000
   21.08805656   -1.00000000    0.11000000    0.05000000
   21.09277916   -1.00000000    0.11000000    0.05000000
   21.09611130   -1.00000000    0.11000000    0.05000000
   21.09916687   -1.00000000    0.11000000    0.05000000
   21.11111069   -1.00000000    0.00000000    0.00000000
   21.11416626   -1.00000000    0.11000000    0.05000000
   21.11750031   -1.00000000    0.11000000    0.05000000
   21.12083435   -1.00000000    0.11000000    0.05000000
   21.13083267   -1.00000000    0.11000000    0.05000000
