    HOUR (UT)   FLARE FACTOR    SKY TESTER    SUN TESTER
   11.82055569   -1.00000000   -1.00000000   -1.00000000
   12.20638847   93.17070007    4.90999985    1.76999998
   12.20972157   90.01979828    4.90999985    1.76999998
   12.21305561   90.43240356    4.90999985    1.76999998
   12.21611118   90.84970093    4.90999985    1.78999996
   12.21944427   87.16480255    0.76999998    1.71000004
   12.22249985   89.15170288    4.90999985    1.80999994
   12.22666645   89.15170288    4.90999985    1.80999994
   12.23083305   89.61380005    4.90999985    1.80999994
   12.23416710   86.15419769    0.76999998    1.73000002
   12.23750019   92.99189758    0.76999998    1.73000002
   12.23972225   86.39530182    0.76999998    1.73000002
   12.24111176   90.72329712    0.76999998    1.73000002
   12.24416733   89.65820313    0.76999998    1.73000002
   12.24750042   87.21949768    0.76999998    1.75000000
   12.25083351   91.90380096    0.76999998    1.75000000
   12.25388908   88.42980194    0.76999998    1.76999998
   12.25722218   87.61689758    0.76999998    1.75000000
   12.26027775   92.15950012    0.76999998    1.75000000
   12.26361084   89.94090271    0.76999998    1.76999998
   12.26972198   89.94090271    0.76999998    1.76999998
   12.27388859   85.43810272    0.76999998    1.76999998
   12.27694416   87.67749786    0.75000000    1.76999998
   12.28027725   93.94960022    0.76999998    1.78999996
   12.28333378   89.02610016    0.76999998    1.78999996
   12.28666687   87.14859772    0.76999998    1.78999996
   12.29000092   90.86669922    0.76999998    1.78999996
   12.29305553   85.23349762    0.76999998    1.80999994
   12.29638958   88.09120178    0.76999998    1.80999994
   12.29972267   87.89759827    0.76999998    1.80999994
   12.30277824   88.15499878    0.76999998    1.80999994
   12.30611134   92.21130371    0.75000000    1.80999994
   12.30666733   88.41790009    0.75000000    1.80999994
   12.31250000   88.41790009    0.75000000    1.80999994
   12.31666660   91.52729797    0.75000000    1.83000004
   12.31972218   87.68789673    0.75000000    1.83000004
   12.32305527   89.24410248    0.76999998    1.83000004
   12.32638836   87.69969940    0.75000000    1.83000004
   12.32944393   86.97720337    0.76999998    1.85000002
   12.33277798   89.71209717    0.76999998    1.83000004
   12.33611107   87.90830231    0.76999998    1.85000002
   12.33916664   91.73819733    0.76999998    1.85000002
   12.34000015   90.26699829    0.76999998    1.85000002
   12.34277725   91.53340149    0.75000000    1.85000002
   12.34611034   90.40959930    0.75000000    1.86000001
   12.34972191   92.78340149    0.75000000    1.85000002
   12.35527802   92.78340149    0.75000000    1.85000002
   12.35944462   89.23439789    0.75000000    1.86000001
   12.36277771   95.16470337    0.75000000    1.86000001
   12.36583328   90.54679871    0.75000000    1.86000001
   12.36916637   91.24389648    0.75000000    1.86000001
   12.37222195   93.48190308    0.75000000    1.86000001
   12.37333393   95.99130249    0.75000000    1.86000001
   12.37583351   89.32309723    0.75000000    1.86000001
   12.37916660   86.59040070    0.75000000    1.88000000
   12.38249969   92.79769897    0.75000000    1.88000000
   12.38555527   91.60449982    0.75000000    1.88000000
   12.38888836   88.43789673    0.75000000    1.88000000
   12.39222240   92.52790070    0.75000000    1.89999998
   12.39888859   92.52790070    0.75000000    1.89999998
   12.40305519   90.38150024    0.73000002    1.89999998
   12.40611076   89.45300293    0.73000002    1.89999998
   12.40666676   86.90029907    0.73000002    1.89999998
   12.40972137   87.38819885    0.73000002    1.89999998
   12.41277695   89.30090332    0.73000002    1.89999998
   12.41611099   94.33609772    0.73000002    1.89999998
   12.41944504   94.16660309    0.73000002    1.89999998
   12.42250061   92.17890167    0.70999998    1.91999996
   12.42583370   89.86280060    0.70999998    1.91999996
   12.42916679   90.01139832    0.73000002    1.91999996
   12.43222237   88.22519684    0.73000002    1.91999996
   12.43555546   87.20890045    0.70999998    1.91999996
   12.44111156   87.20890045    0.70999998    1.91999996
   12.44527817   90.11759949    0.70999998    1.91999996
   12.44833374   87.92179871    0.70999998    1.91999996
   12.45166683   91.16609955    0.70999998    1.91999996
   12.45472240   88.41049957    0.70999998    1.94000006
   12.45805550   89.07140350    0.70999998    1.94000006
   12.46138859   88.42440033    0.70999998    1.94000006
   12.46444416   91.34449768    0.69000000    1.94000006
   12.46777725   90.28209686    0.70999998    1.96000004
   12.47111034   88.82790375    0.69000000    1.96000004
   12.47333336   87.42859650    0.70999998    1.96000004
   12.47472191   88.42810059    0.70999998    1.96000004
   12.47777748   88.62619781    0.69000000    1.96000004
   12.48388958   88.62619781    0.69000000    1.96000004
   12.48805618   92.88710022    0.69000000    1.96000004
   12.49111176   90.12110138    0.69000000    1.96000004
   12.49444485   89.45310211    0.69000000    1.96000004
   12.49777794   87.40850067    0.67000002    1.96000004
   12.50083351   93.37560272    0.69000000    1.98000002
   12.50416660   93.54290009    0.67000002    1.98000002
   12.50666714   89.63310242    0.67000002    1.98000002
   12.50777817   92.50350189    0.67000002    1.98000002
   12.51083374   92.23799896    0.67000002    1.98000002
   12.51416683   91.25939941    0.67000002    1.98000002
   12.51749992   88.59169769    0.67000002    1.98000002
   12.52055550   92.96779633    0.67000002    2.00000000
   12.52666664   92.96779633    0.67000002    2.00000000
   12.53083324   90.64479828    0.67000002    2.00000000
   12.53416729   87.48950195    0.67000002    2.00000000
   12.53722286   89.20950317    0.67000002    2.00000000
   12.54000092   89.54789734    0.67000002    2.01999998
   12.54083347   89.18270111    0.67000002    2.01999998
   12.54388905   92.30750275    0.67000002    2.01999998
   12.54722309   88.28209686    0.64999998    2.00000000
   12.55055618   88.36399841    0.64999998    2.01999998
   12.55361176   88.76419830    0.64999998    2.01999998
   12.55694485   90.89330292    0.64999998    2.01999998
   12.56027794   88.11209869    0.64999998    2.01999998
   12.56333351   82.62830353    0.64999998    2.01999998
   12.56944466   82.62830353    0.64999998    2.01999998
   12.57361126   87.55349731    0.64999998    2.03999996
   12.57694435   93.68820190    0.64999998    2.03999996
   12.58027744   95.32450104    0.64999998    2.03999996
   12.58333302   86.76309967    0.64999998    2.03999996
   12.58666611   91.75499725    0.64999998    2.03999996
   12.58972168   92.03450012    0.63000000    2.03999996
   12.59305477   87.47979736    0.64999998    2.03999996
   12.59638882   95.77110291    0.64999998    2.03999996
   12.59944439   87.46340179    0.63000000    2.03999996
   12.60277843  100.94200134    0.63000000    2.03999996
   12.60611153   88.37110138    0.64999998    2.05999994
   12.60666752   89.52249908    0.64999998    2.05999994
   12.61250019   89.52249908    0.63000000    2.03999996
   12.61638927   89.42030334    0.64999998    2.05999994
   12.61972237   98.50479889    0.63000000    2.05999994
   12.62305546   92.53890228    0.63000000    2.05999994
   12.62611103   92.21489716    0.63000000    2.05999994
   12.62944412   92.04530334    0.63000000    2.05999994
   12.63277817   91.35870361    0.63000000    2.05999994
   12.63583279   88.19730377    0.63000000    2.05999994
   12.63916683   91.24749756    0.63000000    2.07999992
   12.64000034   87.92970276    0.63000000    2.07999992
   12.64277744   90.70140076    0.63000000    2.07999992
   12.64611053   90.96820068    0.63000000    2.07999992
   12.64916611   89.52950287    0.63000000    2.07999992
   12.65527725   89.52950287    0.63000000    2.07999992
   12.65944386   92.16840363    0.63000000    2.07999992
   12.66249943   89.48979950    0.63000000    2.07999992
   12.66583252   90.78369904    0.63000000    2.07999992
   12.66916656   96.19059753    0.63000000    2.07999992
   12.67222214   89.08450317    0.63000000    2.09999990
   12.67333412   87.22769928    0.63000000    2.09999990
   12.67583370   87.90390015    0.63000000    2.09999990
   12.67916679   97.09169769    0.63000000    2.09999990
   12.68222237   86.22910309    0.63000000    2.09999990
   12.68555546   86.84929657    0.63000000    2.09999990
   12.68861103   85.74459839    0.63000000    2.09999990
   12.69194412   90.45939636    0.61000001    2.09999990
   12.69805527   90.45939636    0.61000001    2.09999990
   12.70222187   89.56860352    0.61000001    2.09999990
   12.70555496   90.02480316    0.63000000    2.11999989
   12.70666695   95.65339661    0.63000000    2.11999989
   12.70916653   87.28980255    0.61000001    2.11999989
   12.71249962   84.21559906    0.61000001    2.11999989
   12.71555519   90.94589996    0.61000001    2.11999989
   12.71888828   89.70680237    0.61000001    2.11999989
   12.72222137   89.73179626    0.61000001    2.11999989
   12.72527695   98.70179749    0.61000001    2.11999989
   12.72861099   97.78549957    0.63000000    2.11999989
   12.73194408   91.14669800    0.64999998    2.11999989
   12.73500061   84.32910156    0.64999998    2.11999989
   12.74083328   84.32910156    0.67000002    2.11999989
   12.74499989   94.89179993    0.70999998    2.13000011
   12.74833393   90.33399963    0.70999998    2.13000011
   12.75138855  112.29000092    0.73000002    2.13000011
   12.75472260   88.63159943    0.73000002    2.13000011
   12.75805569   92.82640076    0.73000002    2.13000011
   12.76111126   96.62169647    0.70999998    2.13000011
   12.76444435   99.81690216    0.70999998    2.13000011
   12.76777744  101.04299927    0.69000000    2.13000011
   12.77083302   94.55280304    0.69000000    2.13000011
   12.77333355  103.31199646    0.69000000    2.13000011
   12.77444458  102.66999817    0.69000000    2.13000011
   12.77777767  107.19000244    0.69000000    2.13000011
   12.78388977  107.19000244    0.70999998    2.13000011
   12.78777790   95.82810211    0.70999998    2.15000010
   12.79111195   85.74880219    0.70999998    2.13000011
   12.79444504   93.04090118    0.73000002    2.15000010
   12.79750061   94.64720154    0.73000002    2.15000010
   12.80083370   91.49610138    0.75000000    2.15000010
   12.80416679  101.09899902    0.73000002    2.15000010
   12.80666733   90.93060303    0.75000000    2.15000010
   12.80777836   92.30979919    0.76999998    2.15000010
   12.81111145   91.17659760    0.76999998    2.15000010
   12.81416702   93.52159882    0.79000002    2.15000010
   12.81750011   92.00569916    0.81999999    2.17000008
   12.82083321   88.14209747    0.81999999    2.17000008
   12.82666683   88.14209747    0.86000001    2.17000008
   12.83083344   88.82810211    0.86000001    2.17000008
   12.83388901  108.80799866    0.89999998    2.17000008
   12.83722210   95.88159943    0.89999998    2.17000008
   12.84000015  100.72299957    0.89999998    2.17000008
   12.84083271  100.24900055    0.89999998    2.17000008
   12.84416676   86.40820313    0.88000000    2.17000008
   12.84722233   87.72840118    0.88000000    2.17000008
   12.85055637   91.51450348    0.88000000    2.17000008
   12.85388947   93.42289734    0.88000000    2.17000008
   12.85694504   90.00939941    0.95999998    2.17000008
   12.86027813   93.51249695    1.05999994    2.19000006
   12.86361122   89.35630035    1.11000001    2.19000006
   12.86944485   89.35630035    1.21000004    2.19000006
   12.87361145   90.60790253    1.26999998    2.19000006
   12.87694454   92.91919708    1.28999996    2.19000006
   12.88000011   86.04319763    1.30999994    2.19000006
   12.88333321   89.02330017    1.33000004    2.19000006
   12.88638878   90.72760010    1.39999998    2.19000006
   12.88972187   89.44730377    1.41999996    2.19000006
   12.89305496   87.35510254    1.44000006    2.19000006
   12.89611053   87.86669922    1.48000002    2.19000006
   12.89944458   86.11769867    1.48000002    2.19000006
   12.90277767   83.78199768    1.46000004    2.19000006
   12.90583324   93.37519836    1.48000002    2.19000006
   12.90694427   89.11350250    1.48000002    2.19000006
   12.91222191   89.11350250    1.46000004    2.19000006
   12.91638851   91.77829742    1.50000000    2.19000006
   12.91972256   93.29219818    1.50000000    2.21000004
   12.92305565   92.99960327    1.51999998    2.21000004
   12.92638874   89.74859619    1.63000000    2.21000004
   12.92944431   93.21559906    1.63000000    2.21000004
   12.93277836   89.57849884    1.69000006    2.21000004
   12.93583298   92.23339844    1.69000006    2.21000004
   12.93916702   88.21739960    1.76999998    2.21000004
   12.94027805   85.82559967    1.76999998    2.21000004
   12.94277763   94.92430115    1.80999994    2.21000004
   12.94611073   90.77700043    1.80999994    2.21000004
   12.94916630   85.03839874    1.76999998    2.21000004
   12.95527744   85.03839874    1.75000000    2.21000004
   12.95916653   93.32890320    1.73000002    2.19000006
   12.96249962   91.61479950    1.73000002    2.21000004
   12.96583271  111.21099854    1.75000000    2.21000004
   12.96888828  120.19699860    1.80999994    2.21000004
   12.97222137  111.27300262    1.86000001    2.21000004
   12.97361088   93.88909912    1.86000001    2.21000004
   12.97583294   88.67120361    1.94000006    2.21000004
   12.97916603   89.49729919    2.01999998    2.23000002
   12.98222160   90.02310181    2.09999990    2.23000002
   12.98555565   90.36859894    2.15000010    2.21000004
   12.98888874   93.77290344    2.19000006    2.23000002
   12.99194431   90.91870117    2.25000000    2.21000004
   12.99805546   90.91870117    2.30999994    2.21000004
   13.00222206   89.03780365    2.30999994    2.21000004
   13.00527763   90.05039978    2.32999992    2.21000004
   13.00694466   95.01730347    2.30999994    2.21000004
   13.00888920   90.55200195    2.28999996    2.21000004
   13.01222229   91.73139954    2.26999998    2.21000004
   13.01527786   95.64420319    2.21000004    2.21000004
   13.01861095   93.76049805    2.17000008    2.21000004
   13.02194405   96.48320007    2.11999989    2.21000004
   13.02499962   88.27369690    2.07999992    2.23000002
   13.02833271   92.53759766    2.05999994    2.23000002
   13.03166676   89.97940063    2.00000000    2.23000002
   13.03472233   92.59629822    1.96000004    2.23000002
   13.04083347   92.59629822    1.91999996    2.23000002
   13.04500008   92.33679962    1.88000000    2.23000002
   13.04833412   93.80300140    1.88000000    2.23000002
   13.05138874   96.36489868    1.86000001    2.23000002
   13.05472279   92.19149780    1.86000001    2.23000002
   13.05777836   88.32689667    1.85000002    2.23000002
   13.06111145   91.81099701    1.85000002    2.25000000
   13.06444454   89.45099640    1.89999998    2.23000002
   13.06750011   89.92330170    1.94000006    2.23000002
   13.07083321   92.07330322    1.94000006    2.23000002
   13.07361126   94.57450104    1.96000004    2.23000002
   13.07444477   93.68009949    1.96000004    2.23000002
   13.07777786   93.13770294    1.89999998    2.23000002
   13.08361053   93.13770294    1.83000004    2.23000002
   13.08777714   96.04280090    1.83000004    2.23000002
   13.09111118   94.93170166    1.83000004    2.23000002
   13.09416676   94.21540070    1.83000004    2.23000002
   13.09749985   86.64649963    1.83000004    2.23000002
   13.10083389   93.49050140    1.83000004    2.23000002
   13.10388947   90.89040375    1.83000004    2.23000002
   13.10694504   90.61250305    1.83000004    2.23000002
   13.10750008   91.27680206    1.83000004    2.23000002
   13.11083412   85.87909698    1.83000004    2.23000002
   13.11388969   92.48670197    1.83000004    2.23000002
   13.11722279   88.92749786    1.83000004    2.23000002
   13.12055588   92.67880249    1.83000004    2.23000002
   13.12666702   92.67880249    1.83000004    2.23000002
   13.13055611   89.35910034    1.83000004    2.23000002
   13.13388920   86.60749817    1.83000004    2.23000002
   13.13722229   90.28119659    1.83000004    2.23000002
   13.14027786   91.56300354    1.83000004    2.23000002
   13.14083290   97.30909729    1.83000004    2.23000002
   13.14416695  100.03399658    1.83000004    2.23000002
   13.14722252   96.23110199    1.83000004    2.23000002
   13.15055561   94.71170044    1.83000004    2.23000002
   13.15388870   87.12960052    1.83000004    2.23000002
   13.15694427   91.21910095    1.83000004    2.23000002
   13.16027737   87.75039673    1.83000004    2.23000002
   13.16361046   88.94840240    1.83000004    2.23000002
   13.16944504   88.94840240    1.83000004    2.23000002
   13.17361164   88.57599640    1.83000004    2.23000002
   13.17666721   87.63269806    1.83000004    2.23000002
   13.18000031   89.12200165    1.83000004    2.23000002
   13.18333340   87.62729645    1.83000004    2.23000002
   13.18638897   89.36370087    1.83000004    2.23000002
   13.18972206   95.42549896    1.83000004    2.23000002
   13.19277763  101.15799713    1.83000004    2.23000002
   13.19611073   97.14160156    1.83000004    2.23000002
   13.19944477  102.74500275    1.83000004    2.23000002
   13.20249939   92.79779816    1.83000004    2.23000002
   13.20583344  104.41899872    1.83000004    2.23000002
   13.20694447   94.91310120    1.83000004    2.23000002
   13.22749996   94.91310120    1.83000004    2.23000002
   13.23166656   91.21199799    1.83000004    2.23000002
   13.23472214   93.80599976    1.83000004    2.23000002
   13.23805618   97.53530121    1.83000004    2.23000002
   13.24027824   91.33830261    1.83000004    2.23000002
   13.24194431   89.83219910    1.83000004    2.23000002
   13.24499989   97.72019958    1.83000004    2.23000002
   13.24833393   88.58209991    1.83000004    2.23000002
   13.25138855   95.58650208    1.83000004    2.23000002
   13.25472260   94.55300140    1.83000004    2.23000002
   13.25805569  100.49299622    1.83000004    2.23000002
   13.26111126   96.79840088    1.83000004    2.23000002
   13.26444435  100.85800171    1.83000004    2.23000002
   13.27027798  100.85800171    1.83000004    2.23000002
   13.27444458   95.93910217    1.83000004    2.23000002
   13.27750015  101.69699860    1.83000004    2.23000002
   13.28083324  101.29399872    1.83000004    2.23000002
   13.28416729   94.27189636    1.83000004    2.23000002
   13.28722286   98.83059692    1.83000004    2.23000002
   13.29055595   91.71559906    1.83000004    2.23000002
   13.29361153   98.05059814    1.83000004    2.23000002
   13.29694462   93.47090149    1.83000004    2.23000002
   13.30027771   92.16680145    1.83000004    2.23000002
   13.30333328   95.23809814    1.83000004    2.23000002
   13.30666733   92.88009644    1.83000004    2.23000002
   13.30722237   92.61730194    1.83000004    2.23000002
   13.31305599   92.61730194    1.83000004    2.23000002
   13.31722260   97.08159637    1.83000004    2.23000002
   13.32055569   95.40599823    1.83000004    2.23000002
   13.32361126   94.21510315    1.83000004    2.23000002
   13.32694435   99.42489624    1.83000004    2.23000002
   13.32999992   93.60230255    1.83000004    2.23000002
   13.33333302   99.08609772    1.83000004    2.23000002
   13.33666611  105.07499695    1.83000004    2.23000002
   13.33972168   94.24169922    1.83000004    2.23000002
   13.34055519   98.33229828    1.83000004    2.23000002
   13.34361076  101.18800354    1.83000004    2.23000002
   13.34666634   95.75199890    1.83000004    2.23000002
   13.35000038   94.01570129    1.83000004    2.23000002
   13.35583401   94.01570129    1.83000004    2.23000002
   13.36000061  104.07800293    1.83000004    2.23000002
   13.36333370   96.34680176    1.83000004    2.23000002
   13.36638927   98.47720337    1.83000004    2.23000002
   13.36972237  103.52700043    1.83000004    2.23000002
   13.37305546  118.66200256    1.83000004    2.23000002
   13.37388897  103.02600098    1.83000004    2.23000002
   13.37666702  100.38099670    1.83000004    2.23000002
   13.37972260  102.61000061    1.83000004    2.23000002
   13.38305569  101.98100281    1.83000004    2.23000002
   13.38611126  105.85199738    1.83000004    2.23000002
   13.38944435   98.36090088    1.83000004    2.23000002
   13.39277744  113.19899750    1.83000004    2.23000002
   13.39888859  113.19899750    1.83000004    2.23000002
   13.40277767  102.73500061    1.83000004    2.23000002
   13.40611076  107.36799622    1.83000004    2.23000002
   13.40722179  106.38800049    1.83000004    2.23000002
   13.40999985  103.49299622    1.83000004    2.23000002
   13.41305542   97.72589874    1.83000004    2.23000002
   13.41638851  109.56300354    1.83000004    2.23000002
   13.41944504  108.53399658    1.83000004    2.23000002
   13.42277813   98.18830109    1.83000004    2.23000002
   13.42611122  122.33399963    1.83000004    2.23000002
   13.42916679  126.11599731    1.83000004    2.23000002
   13.43249989  133.75300598    1.83000004    2.23000002
   13.43583298  117.59700012    1.83000004    2.23000002
   13.44166660  117.59700012    1.83000004    2.23000002
   13.44583321  140.20899963    1.83000004    2.23000002
   13.44888878  135.01899719    1.83000004    2.23000002
   13.45222187  142.20799255    1.83000004    2.23000002
   13.45555496  127.60399628    1.83000004    2.23000002
   13.45861053  145.90499878    1.83000004    2.23000002
   13.46194458  137.74899292    1.83000004    2.23000002
   13.46500015  148.75199890    1.83000004    2.23000002
   13.46833324  134.76800537    1.83000004    2.23000002
   13.47166634  144.65499878    1.83000004    2.23000002
   13.47388840  151.17999268    1.83000004    2.23000002
   13.47527695  149.36500549    1.83000004    2.23000002
   13.47833252  158.59599304    1.83000004    2.23000002
   13.48444462  158.59599304    1.83000004    2.23000002
   13.48861122  158.05999756    1.83000004    2.23000002
   13.49194431  161.73599243    1.83000004    2.23000002
   13.49499989  152.87100220    1.83000004    2.23000002
   13.49833393  155.20899963    1.83000004    2.23000002
   13.50166702  163.16200256    1.83000004    2.23000002
   13.50472260  165.50700378    1.83000004    2.23000002
   13.50722218  157.92199707    1.83000004    2.23000002
   13.50861073  155.71000671    1.83000004    2.23000002
   13.51166630  154.79400635    1.83000004    2.23000002
   13.51500034  161.09800720    1.83000004    2.23000002
   13.51805496  170.82299805    1.83000004    2.23000002
   13.52138901  165.44500732    1.83000004    2.23000002
   13.52722168  165.44500732    1.83000004    2.23000002
   13.53138828  176.28300476    1.83000004    2.23000002
   13.53472233  175.90699768    1.83000004    2.23000002
   13.53777790  178.45199585    1.83000004    2.23000002
   13.54055595  187.00799561    1.83000004    2.23000002
   13.54166698  170.44599915    1.83000004    2.23000002
   13.54472256  173.15299988    1.83000004    2.23000002
   13.54805565  178.15699768    1.83000004    2.23000002
   13.55111122  173.62300110    1.83000004    2.23000002
   13.55444431  172.56900024    1.83000004    2.23000002
   13.55777836  172.87500000    1.83000004    2.23000002
   13.56083393  183.23300171    1.83000004    2.23000002
   13.56416702  171.21499634    1.83000004    2.23000002
   13.57027817  171.21499634    1.83000004    2.23000002
   13.57416630  174.11000061    1.83000004    2.23000002
   13.57750034  177.33399963    1.83000004    2.23000002
   13.58083344  187.39999390    1.83000004    2.23000002
   13.58388901  170.67199707    1.83000004    2.23000002
   13.58722210  173.17399597    1.83000004    2.23000002
   13.59055519  173.62100220    1.83000004    2.23000002
   13.59361076  175.89999390    1.83000004    2.23000002
   13.59694386  172.42599487    1.83000004    2.23000002
   13.60000038  173.44299316    1.83000004    2.23000002
   13.60333347  169.86999512    1.83000004    2.23000002
   13.60666752  171.80000305    1.83000004    2.23000002
   13.60722256  171.94000244    1.83000004    2.23000002
   13.61305618  171.94000244    1.83000004    2.23000002
   13.61722279  171.72399902    1.83000004    2.23000002
   13.62027836  175.94000244    1.83000004    2.23000002
   13.62361145  172.25799561    1.83000004    2.23000002
   13.62694454  179.03999329    1.83000004    2.23000002
   13.63000011  167.60200500    1.83000004    2.23000002
   13.63333321  184.85099792    1.83000004    2.23000002
   13.63638878  174.02099609    1.83000004    2.23000002
   13.63972187  166.57099915    1.83000004    2.23000002
   13.64055538  174.47700500    1.83000004    2.23000002
   13.64333344  171.79600525    1.83000004    2.23000002
   13.64638901  179.61599731    1.83000004    2.23000002
   13.64972210  176.51899719    1.83000004    2.23000002
   13.65583324  176.51899719    1.83000004    2.23000002
   13.65999985  172.28799438    1.83000004    2.23000002
   13.66333294  189.55900574    1.83000004    2.23000002
   13.66638851  177.28500366    1.83000004    2.23000002
   13.66972256  171.15899658    1.83000004    2.23000002
   13.67277813  186.78300476    1.83000004    2.23000002
   13.67388916  170.72399902    1.83000004    2.23000002
   13.67666721  180.57600403    1.83000004    2.23000002
   13.67972279  164.66400146    1.83000004    2.23000002
   13.68305588  174.95399475    1.83000004    2.23000002
   13.68638897  172.73599243    1.83000004    2.23000002
   13.68944454  174.14199829    1.83000004    2.23000002
   13.69277763  178.78399658    1.83000004    2.23000002
   13.69861126  178.78399658    1.83000004    2.23000002
   13.70277786  172.68400574    1.83000004    2.23000002
   13.70611095  180.82400513    1.83000004    2.23000002
   13.70722198  168.40600586    1.83000004    2.23000002
   13.70972157  169.59800720    1.83000004    2.23000002
   13.71277714  171.43099976    1.83000004    2.23000002
   13.71611118  174.51899719    1.83000004    2.23000002
   13.71944427  170.58599854    1.83000004    2.23000002
   13.72249985  173.43899536    1.83000004    2.23000002
   13.72583294  176.89100647    1.83000004    2.23000002
   13.72888851  180.59899902    1.83000004    2.23000002
   13.73222160  182.24600220    1.83000004    2.23000002
   13.73555565  191.52299500    1.83000004    2.23000002
   13.74166679  191.52299500    1.83000004    2.23000002
   13.74555588  185.86799622    1.83000004    2.23000002
   13.74888897  190.96200562    1.83000004    2.23000002
   13.75222206  167.54800415    1.64999998    2.23000002
   13.75527763  191.22099304    0.38000000    2.44000006
   13.75861073  171.05400085    0.38000000    2.44000006
   13.76166630  166.62300110    0.38000000    2.44000006
   13.76500034  178.13800049    0.38000000    2.46000004
   13.76833344  193.97900391    0.36000001    2.44000006
   13.77138901  181.49099731    0.36000001    2.44000006
   13.77388859  180.69400024    0.36000001    2.46000004
   13.77527714  175.06900024    0.36000001    2.46000004
   13.77833271  178.50300598    0.36000001    2.46000004
   13.78444481  178.50300598    0.38000000    2.44000006
   13.78861141  176.21099854    0.38000000    2.44000006
   13.79166698  182.57899475    0.38000000    2.44000006
   13.79500008  171.22900391    0.36000001    2.44000006
   13.79805565  176.55799866    0.36000001    2.46000004
   13.80138874  186.01499939    0.36000001    2.46000004
   13.80472279  173.73800659    0.36000001    2.46000004
   13.80722237  180.85699463    0.36000001    2.46000004
   13.80833340  179.19400024    0.36000001    2.46000004
   13.81138897  188.51400757    0.38000000    2.46000004
   13.81472206  192.86000061    0.38000000    2.46000004
   13.81805515  178.17199707    0.36000001    2.46000004
   13.82111073  193.35499573    0.38000000    2.46000004
   13.82722187  193.35499573    0.36000001    2.46000004
   13.83138847  183.56799316    0.36000001    2.46000004
   13.83444405  172.71899414    0.36000001    2.46000004
   13.83777714  179.36000061    0.36000001    2.48000002
   13.84055519  187.74699402    0.36000001    2.46000004
   13.84138870  180.33999634    0.36000001    2.46000004
   13.84472179  175.10200500    0.36000001    2.46000004
   13.84777737  183.49099731    0.38000000    2.46000004
   13.85111141  186.38099670    0.38000000    2.46000004
   13.85444450  185.15699768    0.36000001    2.46000004
   13.85750008  178.00500488    0.40000001    2.46000004
   13.86083412  179.57600403    0.40000001    2.46000004
   13.86388969  176.57099915    0.41999999    2.46000004
   13.86999989  176.57099915    0.44000000    2.46000004
   13.87416649  180.19500732    0.51999998    2.48000002
   13.87750053  178.62399292    0.51999998    2.48000002
   13.88055611  178.83099365    0.70999998    2.46000004
   13.88388920  163.25100708    0.81999999    2.46000004
   13.88722229  180.91400146    0.92000002    2.46000004
   13.89055538  179.90100098    1.00000000    2.46000004
   13.89361095  156.08700562    1.05999994    2.46000004
   13.89694405  187.61000061    1.05999994    2.46000004
   13.90027714  178.01600647    1.11000001    2.46000004
   13.90333271  177.28599548    1.11000001    2.46000004
   13.90666676  180.86399841    1.16999996    2.46000004
   13.90722179  176.63099670    1.16999996    2.46000004
   13.91277695  176.63099670    1.23000002    2.46000004
   13.91694450  180.80200195    1.25000000    2.46000004
   13.92027855  178.59300232    1.21000004    2.48000002
   13.92361164  175.20100403    1.09000003    2.46000004
   13.92666721  173.05099487    1.09000003    2.46000004
   13.93000031  182.23800659    1.03999996    2.46000004
   13.93333340  169.99600220    1.01999998    2.46000004
   13.93638897  171.38600159    1.01999998    2.46000004
   13.93972206  171.79800415    1.01999998    2.46000004
   13.94055557  173.81599426    1.01999998    2.46000004
   13.94333363  164.76899719    1.05999994    2.46000004
   13.94638920  173.61199951    1.07000005    2.46000004
   13.94972229  181.49400330    1.07000005    2.48000002
   13.95583344  181.49400330    1.05999994    2.48000002
   13.95972157  177.62800598    1.07000005    2.46000004
   13.96305561  187.56399536    1.09000003    2.46000004
   13.96638870  175.29499817    1.13000000    2.48000002
   13.96944427  172.21499634    1.09000003    2.46000004
   13.97277737  167.31300354    1.01999998    2.46000004
   13.97388840  168.79699707    1.01999998    2.46000004
   13.97638798  163.41700745    0.94000000    2.48000002
   13.97944355  181.66299438    0.94000000    2.48000002
   13.98277760  173.23399353    0.86000001    2.48000002
   13.98611164  174.12399292    0.81999999    2.48000002
   13.98944473  171.17799377    0.73000002    2.48000002
   13.99250031  171.92700195    0.70999998    2.48000002
   13.99861145  171.92700195    0.69000000    2.48000002
   14.00277805  166.40600586    0.67000002    2.46000004
   14.00583363  162.90699768    0.69000000    2.48000002
   14.00722218  182.30000305    0.69000000    2.48000002
   14.00972176  173.12899780    0.63000000    2.48000002
   14.01277733  163.84599304    0.64999998    2.48000002
   14.01611137  174.30200195    0.69000000    2.48000002
   14.01944447  178.14799500    0.73000002    2.48000002
   14.02250004  176.06100464    0.73000002    2.48000002
   14.02583313  170.87300110    0.70999998    2.48000002
   14.02916622  167.86700439    0.73000002    2.48000002
   14.03222179  179.97099304    0.73000002    2.48000002
   14.03555584  177.77699280    0.73000002    2.48000002
   14.04138947  177.77699280    0.92000002    2.48000002
   14.04555607  172.52099609    0.95999998    2.48000002
   14.04888916  176.20100403    0.95999998    2.48000002
   14.05222225  173.70199585    1.01999998    2.48000002
   14.05527782  175.88499451    1.01999998    2.48000002
   14.05861092  173.62399292    1.05999994    2.48000002
   14.06166649  166.04800415    1.05999994    2.48000002
   14.06500053  170.69400024    1.05999994    2.48000002
   14.06833363  171.86099243    1.09000003    2.48000002
   14.07138920  163.66499329    1.13000000    2.50000000
   14.07388878  157.06399536    1.23000002    2.48000002
   14.07527733  174.10699463    1.23000002    2.48000002
   14.07861137  171.20700073    1.30999994    2.48000002
   14.08416653  171.20700073    1.34000003    2.48000002
   14.08833313  161.33599854    1.34000003    2.48000002
   14.09166622  176.44700623    1.36000001    2.48000002
   14.09499931  167.71899414    1.36000001    2.48000002
   14.09805489  163.20899963    1.36000001    2.48000002
   14.10138893  163.30900574    1.36000001    2.48000002
   14.10444450  158.35600281    1.36000001    2.48000002
   14.10722256  165.93099976    1.36000001    2.50000000
   14.10833359  178.10400391    1.36000001    2.50000000
   14.11166668  163.58700562    1.34000003    2.50000000
   14.11472225  177.20500183    1.28999996    2.50000000
   14.11805534  175.16099548    1.28999996    2.50000000
   14.12111092  166.21800232    1.19000006    2.48000002
   14.12722206  166.21800232    1.00000000    2.50000000
   14.13138866  165.88400269    0.92000002    2.48000002
   14.13444424  157.34700012    0.88000000    2.50000000
   14.13777733  169.94000244    0.88000000    2.50000000
   14.14055538  162.21600342    0.88000000    2.50000000
   14.14138889  171.36700439    0.88000000    2.50000000
   14.14472198  166.33700562    0.92000002    2.50000000
   14.14777756  169.53799438    0.92000002    2.50000000
   14.15111065  174.14999390    0.94000000    2.50000000
   14.15416622  175.13900757    1.11000001    2.50000000
   14.15749931  163.12199402    1.36000001    2.50000000
   14.16083336  157.54699707    1.48000002    2.50000000
   14.16388893  162.73599243    1.48000002    2.50000000
   14.17000008  162.73599243    1.60000002    2.51999998
   14.17416668  173.11199951    1.85000002    2.50000000
   14.17722225  179.33000183    2.05999994    2.50000000
   14.18055630  127.62899780    2.15000010    2.48000002
   14.18388939  166.65499878    2.25000000    2.48000002
   14.18694496  171.01899719    2.28999996    2.50000000
   14.19027805  161.27499390    2.34999990    2.46000004
   14.19361115  169.99400330    2.39000010    2.46000004
   14.19666672  172.44999695    2.42000008    2.48000002
   14.19999981  148.92599487    2.46000004    2.51999998
   14.20305538  156.87899780    2.61999989    2.46000004
   14.20638847  161.92700195    2.71000004    2.46000004
   14.20722198  162.79800415    2.71000004    2.46000004
   14.21277714  162.79800415    2.61999989    2.46000004
   14.21694374  176.61199951    2.71000004    2.46000004
   14.22027779  167.56799316    2.89000010    2.42000008
   14.22333336  173.13800049    3.09999990    2.44000006
   14.24111176  166.61099243    3.91000009    2.50000000
   14.24333382  165.70599365    4.26000023    2.48000002
   14.24666691  154.43200684    4.65999985    2.46000004
   14.24972248  160.42399597    4.90999985    2.48000002
   14.25583363  160.42399597    4.90999985    2.46000004
   14.26000023  152.94299316    4.90999985    2.44000006
   14.26333332  177.01800537    4.90999985    2.48000002
   14.26638889  164.18899536    4.90999985    2.42000008
   14.26972198  170.78799438    4.90999985    2.42000008
   14.27277756  163.01800537    4.90999985    2.39000010
   14.27416611  155.64999390    4.90999985    2.39000010
   14.27666664  172.18499756    4.90999985    2.40000010
   14.27999973  165.67500305    4.90999985    2.39000010
   14.28305531  147.78799438    4.90999985    2.34999990
   14.28638935  177.35899353    4.90999985    2.32999992
   14.28972244  170.69799805    4.90999985    2.39000010
   14.29277802  162.35200500    4.90999985    2.36999989
   14.29861164  162.35200500    4.90999985    2.40000010
   14.30277824  165.64199829    4.90999985    2.40000010
   14.30611134  172.41900635    4.90999985    2.39000010
   14.30749989  172.86700439    4.90999985    2.39000010
   14.30972195  158.94799805    4.90999985    2.40000010
   14.31277752  164.34500122    4.90999985    2.40000010
   14.31611156  180.83200073    4.90999985    2.40000010
   14.31944466  181.43099976    4.90999985    2.42000008
   14.32250023  177.38699341    4.90999985    2.42000008
   14.41916656   -1.00000000   -1.00000000   -1.00000000
   14.75138855   -1.00000000   -1.00000000   -1.00000000
   15.07055569   -1.00000000   -1.00000000   -1.00000000
   15.10388947   78.96859741    4.90999985    2.28999996
   15.10694504  162.95399475    4.90999985    2.30999994
   15.11027813  201.47700500    4.90999985    2.23000002
   15.11361122  164.28300476    4.90999985    2.21000004
   15.11666679  194.30900574    4.90999985    2.11999989
   15.11999989  190.06599426    4.90999985    2.25000000
   15.12416649  190.06599426    4.90999985    2.40000010
   15.12861156  156.53700256    4.90999985    2.46000004
   15.13166714  144.22900391    4.90999985    2.39000010
   15.13500023  159.45599365    4.90999985    2.36999989
   15.13722229  154.67100525    4.90999985    2.32999992
   15.13861084  133.95799255    4.90999985    2.28999996
   15.14194393  152.50900269    4.90999985    2.26999998
   15.14499950  147.04600525    4.90999985    2.17000008
   15.14833355  155.94999695    4.90999985    2.17000008
   15.15166664  142.31199646    4.90999985    2.32999992
   15.15472221  157.35499573    4.90999985    2.25000000
   15.15805531  147.38000488    4.90999985    2.32999992
   15.16138840  157.33700562    4.90999985    2.36999989
   15.16694450  157.33700562    4.90999985    2.11999989
   15.17111111  146.74400330    4.90999985    2.21000004
   15.17444515  140.66999817    4.90999985    2.51999998
   15.17750072  145.80299377    4.90999985    2.57999992
   15.18083382  142.14199829    4.90999985    2.50000000
   15.18388939  146.87100220    4.90999985    2.36999989
   15.18722248  156.21800232    4.90999985    2.30999994
   15.19055557  136.41099548    4.90999985    2.39000010
   15.19361115  138.33000183    4.42999983    2.55999994
   15.19694424  145.24299622    3.86999989    2.57999992
   15.20027733  146.28900146    3.16000009    2.59999990
   15.20333290  153.99899292    2.11999989    2.59999990
   15.20388889  134.81100464    1.94000006    2.59999990
   15.20972157  134.81100464    1.00000000    2.59999990
   15.21388912  149.26400757    0.61000001    2.59999990
   15.21722221  137.40199280    0.51999998    2.59999990
   15.22027779  147.56399536    0.50000000    2.59999990
   15.22361088  134.10200500    0.44000000    2.59999990
   15.22694397  140.84500122    0.44000000    2.57999992
   15.22999954  145.94099426    0.44000000    2.57999992
   15.23333359  154.99899292    0.46000001    2.57999992
   15.23638916  148.41799927    0.46000001    2.57999992
   15.23722267  142.19200134    0.46000001    2.59999990
   15.24027824  138.33999634    0.46000001    2.59999990
   15.24361134  141.34100342    0.47999999    2.57999992
   15.24666691  133.51100159    0.47999999    2.59999990
   15.25249958  133.51100159    0.47999999    2.57999992
   15.25666714  126.56099701    0.47999999    2.57999992
   15.26000023  134.63099670    0.51999998    2.59999990
   15.26333332  143.26600647    0.50000000    2.59999990
   15.26638889  146.50399780    0.50000000    2.59999990
   15.26972198  127.21600342    0.50000000    2.59999990
   15.27055550  138.95500183    0.50000000    2.59999990
   15.27333355  140.68800354    0.51999998    2.57999992
   15.27666664  140.22700500    0.51999998    2.57999992
   15.27972221  128.78799438    0.50000000    2.59999990
   15.28305531  138.53900146    0.51999998    2.59999990
   15.28638935  130.85400391    0.51999998    2.59999990
   15.28944492  142.39900208    0.51999998    2.59999990
   15.29555607  142.39900208    0.51999998    2.59999990
   15.29972267  119.40299988    0.51999998    2.59999990
   15.30277824  134.78300476    0.51999998    2.59999990
   15.30388927  164.36500549    0.51999998    2.59999990
   15.30638885  139.61999512    0.51999998    2.59999990
   15.30972195  129.96200562    0.50000000    2.59999990
   15.31277752  126.87000275    0.50000000    2.59999990
   15.31611156  151.96499634    0.50000000    2.59999990
   15.31916618  138.56500244    0.51999998    2.59999990
   15.32250023  138.10600281    0.51999998    2.59999990
   15.32583332  138.96499634    0.52999997    2.57999992
   15.32888889  138.43800354    0.55000001    2.59999990
   15.33222198  129.23100281    0.55000001    2.57999992
   15.33833313  129.23100281    0.55000001    2.59999990
   15.34249973  135.21299744    0.55000001    2.59999990
   15.34555531  128.00700378    0.55000001    2.59999990
   15.34888840  141.64900208    0.52999997    2.57999992
   15.35222244  140.60200500    0.55000001    2.57999992
   15.35527802  138.59899902    0.56999999    2.59999990
   15.35861111  137.63600159    0.55000001    2.59999990
   15.36194515  132.24099731    0.52999997    2.59999990
   15.36500072  146.65699768    0.52999997    2.59999990
   15.36833382  145.50000000    0.51999998    2.57999992
   15.37055588  134.59300232    0.52999997    2.59999990
   15.37194443  146.83999634    0.52999997    2.59999990
   15.37527752  120.57700348    0.51999998    2.57999992
   15.38111115  120.57700348    0.51999998    2.59999990
   15.38527775  153.71899414    0.51999998    2.59999990
   15.38861084  137.46600342    0.52999997    2.59999990
   15.39166641  140.92100525    0.51999998    2.59999990
   15.39499950  147.91700745    0.52999997    2.59999990
   15.39833355  143.14300537    0.52999997    2.59999990
   15.40138817  152.01600647    0.52999997    2.59999990
   15.40388870  153.82000732    0.51999998    2.59999990
   15.40499973  139.72300720    0.51999998    2.59999990
   15.40833282  134.73599243    0.51999998    2.59999990
   15.41138840  131.59700012    0.51999998    2.59999990
   15.41472149  148.51800537    0.51999998    2.59999990
   15.41777802  122.63099670    0.51999998    2.59999990
   15.42388916  122.63099670    0.51999998    2.59999990
   15.42805576  143.83299255    0.52999997    2.59999990
   15.43138885  130.85299683    0.52999997    2.59999990
   15.43472195  152.74899292    0.52999997    2.61999989
   15.43722248  137.73899841    0.52999997    2.61999989
   15.43833351  149.98100281    0.52999997    2.59999990
   15.44166660  134.19200134    0.52999997    2.59999990
   15.44472218  155.60099792    0.52999997    2.59999990
   15.44805527  148.07099915    0.52999997    2.59999990
   15.45111084  143.89999390    0.55000001    2.59999990
   15.45444393  123.52700043    0.55000001    2.59999990
   15.45777798  135.66700745    0.55000001    2.59999990
   15.46083355  127.56099701    0.56999999    2.59999990
   15.46694374  127.56099701    0.52999997    2.59999990
   15.47111034  145.38900757    0.55000001    2.59999990
   15.47416592  139.29100037    0.55000001    2.59999990
   15.47749996  131.63400269    0.56999999    2.59999990
   15.48055553  149.77200317    0.63000000    2.59999990
   15.48388958  145.86000061    0.67000002    2.59999990
   15.48722267  143.36900330    0.67000002    2.59999990
   15.49027824  121.95899963    0.67000002    2.59999990
   15.49361134  139.51899719    0.67000002    2.59999990
   15.49694443  152.89399719    0.70999998    2.57999992
   15.50000000  150.72200012    0.70999998    2.57999992
   15.50333309  136.41900635    0.70999998    2.59999990
   15.50388908  131.27400208    0.70999998    2.59999990
   15.50972176  131.27400208    0.73000002    2.59999990
   15.51388931  145.32400513    0.73000002    2.59999990
   15.51694393  143.52000427    0.73000002    2.59999990
   15.52027798  133.15400696    0.73000002    2.59999990
   15.52361107  139.13900757    0.73000002    2.59999990
   15.52666664  133.79699707    0.73000002    2.59999990
   15.52999973  133.02699280    0.70999998    2.59999990
   15.53333378  153.44799805    0.73000002    2.59999990
   15.53638935  136.15800476    0.70999998    2.59999990
   15.53722286  125.12000275    0.70999998    2.59999990
   15.54000092  144.33399963    0.69000000    2.57999992
   15.54333401  134.28199768    0.69000000    2.59999990
   15.54638958  126.60600281    0.69000000    2.59999990
   15.55249977  126.60600281    0.73000002    2.59999990
   15.55666733  138.05000305    0.70999998    2.59999990
   15.56000042  134.30099487    0.70999998    2.59999990
   15.56305599  125.19200134    0.73000002    2.59999990
   15.56638908  135.16099548    0.73000002    2.59999990
   15.56972218  149.86700439    0.75000000    2.59999990
   15.57055569  147.19999695    0.75000000    2.59999990
   15.57333374  138.20199585    0.76999998    2.59999990
   15.57666683  117.05899811    0.76999998    2.59999990
   15.57972240  135.13400269    0.79000002    2.59999990
   15.58305550  145.88999939    0.79000002    2.59999990
   15.58638859  142.95399475    0.81999999    2.59999990
   15.58944416  139.68499756    0.81999999    2.61999989
   15.59527779  139.68499756    0.80000001    2.59999990
   15.59944439  130.83200073    0.79000002    2.59999990
   15.60277843  130.29100037    0.76999998    2.61999989
   15.60388947  134.86399841    0.76999998    2.61999989
   15.60638905  135.30700684    0.76999998    2.59999990
   15.60972214  128.54299927    0.75000000    2.59999990
   15.61277771  137.49899292    0.70999998    2.61999989
   15.61611176  146.60800171    0.70999998    2.59999990
   15.61944485  136.71899414    0.70999998    2.59999990
   15.62250042  131.91200256    0.69000000    2.59999990
   15.62583351  149.60699463    0.69000000    2.59999990
   15.62888908  143.83999634    0.69000000    2.59999990
   15.63222218  149.36900330    0.70999998    2.59999990
   15.63833332  149.36900330    0.70999998    2.59999990
   15.64249992  139.17300415    0.70999998    2.61999989
   15.64555550  132.24800110    0.70999998    2.61999989
   15.64888859  143.71899414    0.70999998    2.59999990
   15.65194416  136.69400024    0.70999998    2.61999989
   15.65527725  113.46900177    0.70999998    2.59999990
   15.65861034  148.35800171    0.69000000    2.59999990
   15.66166592  148.09300232    0.69000000    2.59999990
   15.66499996  128.19299316    0.69000000    2.59999990
   15.66833401  117.04100037    0.69000000    2.61999989
   15.67055607  137.07600403    0.67000002    2.57999992
   15.67194462  139.38400269    0.67000002    2.57999992
   15.67527771  158.54499817    0.67000002    2.59999990
   15.68111134  158.54499817    0.64999998    2.59999990
   15.68527794  133.86000061    0.63000000    2.61999989
   15.68833351  145.61399841    0.63000000    2.61999989
   15.69166660  134.90299988    0.63000000    2.61999989
   15.69499969  132.05400085    0.64999998    2.61999989
   15.69805527  137.09399414    0.64999998    2.61999989
   15.70138836  147.39500427    0.64999998    2.61999989
   15.70388889  128.14399719    0.64999998    2.59999990
   15.70499992  126.75800323    0.64999998    2.59999990
   15.70833302  128.90699768    0.67000002    2.61999989
   15.71138859  141.49699402    0.67000002    2.59999990
   15.71472168  142.77699280    0.67000002    2.59999990
   15.71805477  143.97200012    0.69000000    2.61999989
   15.72388840  143.97200012    0.70999998    2.59999990
   15.72805500  153.01199341    0.70999998    2.59999990
   15.73138809  145.41200256    0.73000002    2.59999990
   15.73444462  139.92900085    0.75000000    2.59999990
   15.73722267  145.29800415    0.75000000    2.59999990
   15.73833370  147.27699280    0.75000000    2.59999990
   15.74138927  142.69099426    0.75000000    2.61999989
   15.74472237  144.43099976    0.75000000    2.61999989
   15.74805546  129.07600403    0.76999998    2.61999989
   15.75111103  150.35899353    0.76999998    2.59999990
   15.75444412  139.68699646    0.75000000    2.61999989
   15.75749969  142.36500549    0.73000002    2.61999989
   15.76083374  125.56800079    0.73000002    2.61999989
   15.76666641  125.56800079    0.76999998    2.61999989
   15.77083302  122.93099976    0.76999998    2.61999989
   15.77416611  128.45899963    0.75000000    2.59999990
   15.77750015  142.28700256    0.73000002    2.61999989
   15.78055573  140.72999573    0.73000002    2.61999989
   15.78388977  123.41400146    0.73000002    2.59999990
   15.78722286  123.36100006    0.70999998    2.61999989
   15.79027843  126.18399811    0.70999998    2.59999990
   15.79361153  134.94999695    0.67000002    2.59999990
   15.79694462  133.69500732    0.67000002    2.61999989
   15.80000019  125.66400146    0.67000002    2.61999989
   15.80333328  128.93800354    0.67000002    2.61999989
   15.80416679  101.84899902    0.64999998    2.61999989
   15.80972195  101.84899902    0.63000000    2.61999989
   15.81361103  135.20199585    0.63000000    2.61999989
   15.81694412  116.76499939    0.61000001    2.61999989
   15.82027817  124.44899750    0.61000001    2.61999989
   15.82333374  140.23199463    0.61000001    2.59999990
   15.82666683  121.49800110    0.61000001    2.61999989
   15.82999992  118.21499634    0.61000001    2.61999989
   15.83305550  133.69999695    0.56999999    2.61999989
   15.83638859  121.90499878    0.55000001    2.64000010
   15.83749962  121.94599915    0.55000001    2.61999989
   15.84000015  126.75900269    0.55000001    2.61999989
   15.84333324  101.55799866    0.55000001    2.61999989
   15.84638882  117.68699646    0.55000001    2.61999989
   15.85249996  117.68699646    0.52999997    2.61999989
   15.85666752   98.82559967    0.55000001    2.61999989
   15.85972214  129.38800049    0.52999997    2.61999989
   15.86305618  137.63499451    0.52999997    2.64000010
   15.86638927  114.81199646    0.51999998    2.61999989
   15.86944485  113.57800293    0.52999997    2.61999989
   15.87083340  133.38299561    0.52999997    2.61999989
   15.87305546  110.00399780    0.52999997    2.61999989
   15.87638855  113.91699982    0.52999997    2.64000010
   15.87944412  119.38600159    0.52999997    2.59999990
   15.88277817  118.60500336    0.51999998    2.61999989
   15.88611126  118.03800201    0.52999997    2.61999989
   15.88944435  119.50800323    0.51999998    2.59999990
   15.89527798  119.50800323    0.51999998    2.61999989
   15.89944458  121.15799713    0.51999998    2.61999989
   15.90277767   91.80220032    0.50000000    2.61999989
   15.90416622  105.62100220    0.50000000    2.61999989
   15.90611076  118.49600220    0.47999999    2.59999990
   15.90944386  110.75499725    0.47999999    2.64000010
   15.91249943  107.05000305    0.47999999    2.64000010
   15.91583252  117.72699738    0.47999999    2.61999989
   15.91916656  116.66799927    0.47999999    2.61999989
   15.92222214  117.42099762    0.50000000    2.61999989
   15.92555618  129.75100708    0.50000000    2.61999989
   15.92888927   95.24109650    0.47999999    2.61999989
   15.93194485  114.11299896    0.47999999    2.61999989
   15.93805599  114.11299896    0.50000000    2.61999989
   15.94222260  113.42299652    0.47999999    2.61999989
   15.94555569  115.44499969    0.50000000    2.64000010
   15.94888878  122.49800110    0.50000000    2.61999989
   15.95194435  117.31400299    0.50000000    2.61999989
   15.95527744  116.41799927    0.50000000    2.61999989
   15.95861053  124.34899902    0.50000000    2.61999989
   15.96166611  111.37999725    0.50000000    2.61999989
   15.96500015  116.62599945    0.51999998    2.61999989
   15.96888828  118.78299713    0.52999997    2.61999989
   15.97083282  130.42700195    0.52999997    2.61999989
   15.97249985  125.85399628    0.52999997    2.61999989
   15.97583294  137.21699524    0.52999997    2.61999989
   15.98111057  137.21699524    0.55000001    2.61999989
   15.98500061  128.71000671    0.55000001    2.61999989
   15.98833370  125.31999969    0.55000001    2.61999989
   15.99166679  128.49200439    0.55000001    2.61999989
   15.99472237  132.00000000    0.56999999    2.61999989
   15.99805546  135.59500122    0.56999999    2.61999989
   16.00138855  121.84400177    0.56999999    2.59999990
   16.00416756  116.25499725    0.58999997    2.64000010
   16.00472260  117.10500336    0.58999997    2.64000010
   16.00805473  120.17600250    0.63000000    2.61999989
   16.01111031  125.45300293    0.67000002    2.61999989
   16.01444435  123.27500153    0.70999998    2.61999989
   16.01777840  113.67900085    0.70999998    2.61999989
   16.02388954  113.67900085    0.75000000    2.61999989
   16.02805519  105.44799805    0.83999997    2.61999989
   16.03111076  123.49099731    0.86000001    2.61999989
   16.03444481  111.61699677    0.88000000    2.61999989
   16.03750038  135.83299255    0.88000000    2.61999989
   16.03805542  125.94799805    0.88000000    2.61999989
   16.04138756  117.99400330    0.88000000    2.61999989
   16.04472160   91.84940338    0.92000002    2.61999989
   16.04805565   89.30789948    0.92000002    2.61999989
   16.05111122  111.57599640    0.94000000    2.61999989
   16.05444336   95.29280090    0.95999998    2.61999989
   16.05777740  106.46700287    0.98000002    2.61999989
   16.06083298  109.15100098    1.00000000    2.61999989
   16.06694603  109.15100098    1.03999996    2.64000010
   16.07111168  117.10700226    1.11000001    2.61999989
   16.07444572  117.63500214    1.26999998    2.61999989
   16.07750130  127.27799988    1.38000000    2.61999989
   16.08083344  121.42700195    1.38000000    2.61999989
   16.08416748  118.18299866    1.53999996    2.61999989
   16.08722305  105.43000031    1.64999998    2.64000010
   16.09055710  127.33399963    1.88000000    2.59999990
   16.09388924  111.20999908    1.89999998    2.61999989
   16.09694481  117.53900146    1.89999998    2.61999989
   16.10027885   99.05169678    1.88000000    2.61999989
   16.10333443  108.65299988    1.89999998    2.61999989
   16.10416794  104.43299866    1.89999998    2.61999989
   16.12472153  104.43299866    2.01999998    2.61999989
   16.12888908   96.29889679    1.98000002    2.61999989
   16.13222313   77.97940063    1.96000004    2.59999990
   16.13527679  125.99400330    1.96000004    2.64000010
   16.13750076  125.85099792    1.98000002    2.61999989
   16.13888931  121.92400360    2.00000000    2.61999989
   16.14222145  115.71900177    2.01999998    2.61999989
   16.14555550  113.28500366    2.15000010    2.61999989
   16.14861107  111.94400024    2.17000008    2.59999990
   16.15194321  118.92099762    2.25000000    2.61999989
   16.15499878  106.77400208    2.36999989    2.59999990
   16.15833282   94.18409729    2.46000004    2.61999989
   16.16166687  100.10900116    2.59999990    2.61999989
   16.16749954  100.10900116    2.73000002    2.61999989
   16.17166519  119.26100159    2.82999992    2.59999990
   16.17499924  101.15100098    2.91000009    2.59999990
   16.17805481  133.78500366    2.96000004    2.59999990
   16.18138885  131.12300110    3.03999996    2.59999990
   16.18444443  113.49800110    3.09999990    2.61999989
   16.18777657  107.46199799    3.25000000    2.61999989
   16.19138718  122.30200195    3.45000005    2.59999990
   16.19444275  109.29000092    3.61999989    2.59999990
   16.19777679  101.40799713    3.64000010    2.57999992
   16.20111275  115.15899658    3.51999998    2.59999990
   16.20416832  121.04000092    3.41000009    2.59999990
   16.20444489  125.26899719    3.41000009    2.59999990
   16.21027946  125.26899719    3.23000002    2.59999990
   16.21444511  119.81700134    3.07999992    2.61999989
   16.21777916  118.79900360    3.03999996    2.59999990
   16.22083473  111.10099792    2.98000002    2.61999989
   16.22416687   97.32499695    2.94000006    2.61999989
   16.22750092   72.84069824    2.98000002    2.61999989
   16.23055649  101.85099792    3.01999998    2.61999989
   16.23388863  125.78900146    3.00000000    2.61999989
   16.23722267  114.14299774    3.01999998    2.61999989
   16.23750114  104.62000275    3.03999996    2.61999989
   16.24083328  104.97699738    3.14000010    2.61999989
   16.24416733  107.95200348    3.28999996    2.59999990
   16.24722290  110.02700043    3.36999989    2.64000010
   16.25333405  110.02700043    3.46000004    2.61999989
   16.25722313   94.71330261    3.57999992    2.61999989
   16.26055527  105.84600067    3.61999989    2.61999989
   16.26388931   93.45349884    3.70000005    2.59999990
   16.26694489  121.77200317    3.80999994    2.61999989
   16.27027702   89.96450043    3.89000010    2.59999990
   16.27083397  117.29399872    3.93000007    2.61999989
   16.27388954   88.86340332    4.01999998    2.61999989
   16.27722168  111.56400299    4.23999977    2.59999990
   16.28027725  119.82800293    4.51000023    2.61999989
   16.28361130  123.06700134    4.73999977    2.59999990
   16.28694344   97.02899933    4.78000021    2.61999989
   16.29027748   93.22660065    4.65999985    2.59999990
   16.29611015   93.22660065    4.34999990    2.57999992
   16.30027771   95.54799652    4.34999990    2.59999990
   16.30333328  107.73799896    4.34999990    2.59999990
   16.30416679  117.80000305    4.34999990    2.59999990
   16.30694389  104.79000092    4.21999979    2.57999992
   16.31027794  110.83100128    4.05999994    2.57999992
   16.31333351  130.16900635    4.05999994    2.57999992
   16.31666756  111.03299713    4.05999994    2.59999990
   16.32000160   99.56510162    3.73000002    2.57999992
   16.32305717  105.16500092    3.45000005    2.59999990
   16.32638931   99.50119781    3.30999994    2.61999989
   16.32972336  104.81800079    3.48000002    2.61999989
   16.33277893  104.59600067    3.73000002    2.61999989
   16.33889008  104.59600067    3.57999992    2.61999989
   16.34305573  107.22799683    3.28999996    2.59999990
   16.34638977  117.93000031    3.16000009    2.59999990
   16.34944534   87.05590057    3.14000010    2.64000010
   16.35277748   97.57900238    3.23000002    2.64000010
   16.35583305   84.59249878    3.34999990    2.59999990
   16.35916710   95.96659851    3.48000002    2.64000010
   16.36250114   87.28910065    3.59999990    2.61999989
   16.36555672  100.91100311    3.75000000    2.59999990
   16.36888885   97.90509796    3.91000009    2.61999989
   16.37111092  111.38600159    3.97000003    2.61999989
   16.37249947  122.05799866    3.99000001    2.61999989
   16.37583351   99.36049652    3.97000003    2.59999990
   16.38166618   99.36049652    3.86999989    2.59999990
   16.38583374  102.58899689    3.91000009    2.59999990
   16.38916588  107.78600311    4.15999985    2.59999990
   16.39222145   88.01229858    4.34999990    2.59999990
   16.39555550  110.72699738    4.44999981    2.57999992
   16.39888954  101.22200012    4.53999996    2.57999992
   16.40194321   97.46720123    4.57999992    2.57999992
   16.40444374  110.78500366    4.53000021    2.57999992
   16.40555573  107.83499908    4.51000023    2.57999992
   16.40888786  107.91000366    4.48999977    2.59999990
   16.41194344  107.19000244    4.59999990    2.57999992
   16.41527748  100.69899750    4.67999983    2.57999992
   16.41860962   86.26419830    4.73999977    2.59999990
   16.42472076   86.26419830    4.53000021    2.59999990
   16.42860985  110.81700134    4.51000023    2.59999990
   16.43194389  131.43699646    4.55999994    2.61999989
   16.43527603   99.84470367    4.34999990    2.59999990
   16.43777657   92.84239960    3.99000001    2.57999992
   16.43888855   84.72799683    3.70000005    2.55999994
   16.44222069   95.28949738    3.39000010    2.61999989
   16.44527626   90.72560120    3.26999998    2.59999990
   16.44861031  105.05899811    3.21000004    2.61999989
   16.45194435   93.55609894    3.07999992    2.61999989
   16.45499992   98.15599823    2.86999989    2.61999989
   16.45833397  108.78500366    2.76999998    2.61999989
   16.46166801  109.98400116    2.91000009    2.61999989
   16.46750069  109.98400116    3.45000005    2.64000010
   16.47166634  107.66899872    3.51999998    2.59999990
   16.47472191  115.62500000    3.41000009    2.59999990
   16.47805595   96.54679871    3.26999998    2.59999990
   16.48139000   96.48339844    3.14000010    2.59999990
   16.48444557  108.67600250    3.09999990    2.61999989
   16.48777771  108.74099731    3.18000007    2.61999989
   16.49083328  106.11199951    3.18000007    2.61999989
   16.49416733  100.25000000    3.00000000    2.59999990
   16.49749947  109.25299835    3.01999998    2.59999990
   16.50055504  116.26799774    3.16000009    2.61999989
   16.50388908  114.62300110    3.25000000    2.59999990
   16.50444412  108.12100220    3.26999998    2.59999990
   16.51027870  108.12100220    3.41000009    2.61999989
   16.51444435   99.54519653    3.72000003    2.64000010
   16.51777840  103.18199921    4.46999979    2.61999989
   16.52083397  121.94599915    4.90999985    2.61999989
   16.52416611   97.27610016    4.90999985    2.59999990
   16.52722168  108.82800293    4.90999985    2.59999990
   16.53055573   95.95770264    4.90999985    2.57999992
   16.53388786   93.85410309    4.90999985    2.50000000
   16.53694344  106.66000366    4.80000019    2.46000004
   16.53777695   93.33080292    4.80000019    2.46000004
   16.54083252  115.52500153    4.26000023    2.53999996
   16.54388809   94.74310303    3.93000007    2.57999992
   16.54722214  112.60700226    3.72000003    2.61999989
   16.55305481  112.60700226    3.99000001    2.61999989
   16.55722237  110.74400330    4.07999992    2.61999989
   16.56055450  117.68800354    3.97000003    2.61999989
   16.56361008   95.76670074    3.84999990    2.61999989
   16.56694603  111.23000336    3.66000009    2.59999990
   16.57027817  101.80100250    3.57999992    2.61999989
   16.57111168   87.11199951    3.59999990    2.61999989
   16.57389069  111.26499939    3.73000002    2.61999989
   16.57694626  102.19200134    3.82999992    2.61999989
   16.58027840  110.67199707    3.95000005    2.59999990
   16.58333397  100.82599640    4.07999992    2.59999990
   16.58666801  122.15399933    4.28999996    2.59999990
   16.59000015  106.24199677    4.65999985    2.59999990
   16.59583473  106.24199677    4.90999985    2.57999992
   16.60000038  118.25900269    4.90999985    2.59999990
   16.60333443  128.61700439    4.90999985    2.55999994
   16.60444450  128.28500366    4.90999985    2.53999996
   16.60722351  102.85800171    4.90999985    2.55999994
   16.61027908  109.08799744    4.90999985    2.53999996
   16.61361122  119.92400360    4.90999985    2.57999992
   16.61666679   96.20839691    4.90999985    2.57999992
   16.62000084  107.02899933    4.90999985    2.55999994
   16.62333298   98.32460022    4.90999985    2.51999998
   16.62638855  118.94100189    4.90999985    2.55999994
   16.62972260  136.56199646    4.90999985    2.57999992
   16.63305473   88.90270233    4.90999985    2.53999996
   16.63888931   88.90270233    4.90999985    2.53999996
   16.64305496  112.10199738    4.90999985    2.57999992
   16.64611053  117.63400269    4.90999985    2.55999994
   16.64944458  105.89499664    4.90999985    2.57999992
   16.65277672  102.19599915    4.90999985    2.57999992
   16.65583229  126.11399841    4.90999985    2.57999992
   16.65916634   98.02420044    4.90999985    2.57999992
   16.66222191  111.19300079    4.90999985    2.57999992
   16.66555595  105.22899628    4.90999985    2.59999990
   16.66888809  110.59100342    4.90999985    2.59999990
   16.67111015  116.11499786    4.90999985    2.57999992
   16.67249870  107.82499695    4.90999985    2.53999996
   16.67555428  108.23699951    4.90999985    2.50000000
   16.68166542  108.23699951    4.90999985    2.57999992
   16.68583298  116.71199799    4.90999985    2.61999989
   16.68916512  116.14700317    4.90999985    2.61999989
   16.69222069  119.09999847    4.90999985    2.59999990
   16.69555473  107.34200287    4.90999985    2.57999992
   16.69861031   95.44039917    4.90999985    2.55999994
   16.70194435  110.47699738    4.90999985    2.46000004
   16.70444489  106.40200043    4.90999985    2.39000010
   16.70583344  144.95300293    4.90999985    2.32999992
   16.70888901  120.33000183    4.90999985    2.39000010
   16.71222305   99.73040009    4.90999985    2.46000004
   16.71527863  111.59400177    4.90999985    2.59999990
   16.71861076  115.23500061    4.90999985    2.55999994
   16.72444534  115.23500061    4.90999985    2.57999992
   16.72861099  138.13099670    4.90999985    2.61999989
   16.73194504  119.74900055    4.90999985    2.57999992
   16.73500061  114.00199890    4.90999985    2.59999990
   16.73777771  113.78399658    4.90999985    2.61999989
   16.73888969  113.70800018    4.90999985    2.61999989
   16.74194527  157.17599487    4.90999985    2.64000010
   16.74527740   83.78179932    4.90999985    2.64000010
   16.74833298  135.52799988    4.90999985    2.64000010
   16.75166702   94.27259827    4.90999985    2.64000010
   16.75499916  131.48300171    4.78000021    2.64000010
   16.75805473  135.37500000    3.89000010    2.64000010
   16.76138878  158.20700073    2.55999994    2.66000009
   16.76722145  158.20700073    1.55999994    2.61999989
   16.77138901  157.31700134    1.41999996    2.61999989
   16.77472115  117.83300018    1.33000004    2.61999989
   16.77805519  148.79800415    1.36000001    2.61999989
   16.78111076  154.23500061    1.36000001    2.64000010
   16.78444481  123.72699738    1.33000004    2.61999989
   16.78777695  117.60299683    1.30999994    2.64000010
   16.79083252  165.63999939    1.33000004    2.61999989
   16.79416656  149.17999268    1.33000004    2.61999989
   16.79722214  165.33799744    1.58000004    2.64000010
   16.80055428  137.79499817    1.60000002    2.64000010
   16.80388832  132.72900391    1.61000001    2.64000010
   16.80444336  148.77900696    1.61000001    2.64000010
   16.81027794  148.77900696    1.71000004    2.64000010
   16.81444359  159.88000488    1.80999994    2.64000010
   16.81750107  130.10400391    2.32999992    2.61999989
   16.82083511  132.36099243    2.42000008    2.61999989
   16.82389069  135.19999695    2.57999992    2.61999989
   16.82722282  161.65600586    2.75000000    2.59999990
   16.83055687  158.99499512    3.01999998    2.61999989
   16.83361244  108.66200256    3.34999990    2.61999989
   16.83694458  164.33999634    3.59999990    2.61999989
   16.83777809  153.03999329    3.66000009    2.61999989
   16.84055710  138.04299927    3.80999994    2.61999989
   16.84361267  134.73699951    4.03999996    2.59999990
   16.84694481  152.96099854    4.32999992    2.57999992
   16.85305595  152.96099854    4.48999977    2.59999990
   16.85722351  153.40199280    4.65999985    2.59999990
   16.86027908  138.93299866    4.90999985    2.59999990
   16.86361122  143.77900696    4.90999985    2.57999992
   16.86694527  167.92700195    4.90999985    2.55999994
   16.87000084  152.07499695    4.90999985    2.55999994
   16.87111092  165.98300171    4.90999985    2.50000000
   16.87388992  134.47999573    4.90999985    2.53999996
   16.87694550  144.27400208    4.90999985    2.50000000
   16.88027763  148.92799377    4.90999985    2.50000000
   16.88361168  179.61799622    4.90999985    2.51999998
   16.88666725  167.73300171    4.90999985    2.51999998
   16.88999939  155.20300293    4.90999985    2.53999996
   16.89583397  155.20300293    4.90999985    2.42000008
   16.89999962  186.93800354    4.90999985    2.48000002
   16.90333366  146.68699646    4.90999985    2.48000002
   16.90444374  174.64500427    4.90999985    2.55999994
   16.90694427  170.23300171    4.90999985    2.55999994
   16.90999985  164.75599670    4.53000021    2.55999994
   16.91333389  177.76199341    3.84999990    2.59999990
   16.91666603  155.22500610    3.39000010    2.55999994
   16.91972160  179.87399292    3.20000005    2.59999990
   16.92305565  165.98899841    3.01999998    2.57999992
   16.92611122  152.66000366    2.96000004    2.57999992
   16.92944336  161.66900635    2.93000007    2.59999990
   16.93277740  167.21200562    2.91000009    2.59999990
   16.93861008  167.21200562    2.86999989    2.59999990
   16.94277763  145.41299438    2.80999994    2.59999990
   16.94610977  164.16499329    2.76999998    2.57999992
   16.94916534  167.13200378    2.75000000    2.59999990
   16.95250130  141.48899841    2.75000000    2.61999989
   16.95583344  148.25399780    2.76999998    2.64000010
   16.95888901  152.88499451    2.76999998    2.61999989
   16.96222305  167.66000366    2.80999994    2.59999990
   16.96555710  146.88000488    2.91000009    2.59999990
   16.96861076  160.60699463    3.03999996    2.61999989
   16.97111130  152.67500305    3.18000007    2.59999990
   16.97249985  163.17999268    3.23000002    2.61999989
   16.97555542  148.42999268    3.32999992    2.59999990
   16.98166656  148.42999268    3.00000000    2.59999990
   16.98555565  171.62300110    2.80999994    2.61999989
   16.98888969  170.25799561    2.75000000    2.61999989
   16.99222183  159.38699341    2.71000004    2.61999989
   16.99527740  159.06399536    2.71000004    2.61999989
   16.99861145  159.94099426    2.73000002    2.61999989
   17.00194359  139.86999512    2.69000006    2.64000010
   17.00444412  156.97500610    2.71000004    2.61999989
   17.00555611  139.06199646    2.75000000    2.61999989
   17.00861168  161.75700378    2.86999989    2.61999989
   17.01194382  157.13600159    3.01999998    2.61999989
   17.01499939  154.42799377    3.21000004    2.59999990
   17.01833344  145.17999268    3.32999992    2.59999990
   17.02444458  145.17999268    3.53999996    2.59999990
   17.02861023  173.86999512    3.59999990    2.61999989
   17.03166580  161.53599548    3.66000009    2.59999990
   17.03499985  160.81799316    3.72000003    2.61999989
   17.03777695  161.39199829    3.68000007    2.61999989
   17.03861046  166.48100281    3.64000010    2.64000010
   17.04166603  149.32000732    3.45000005    2.59999990
   17.04500008  152.04400635    3.26999998    2.61999989
   17.04833221  164.07699585    3.11999989    2.64000010
   17.05138779  153.00500488    2.91000009    2.61999989
   17.05472183  154.39399719    2.80999994    2.59999990
   17.05777740  160.84500122    2.73000002    2.59999990
   17.06110954  175.36799622    2.66000009    2.59999990
   17.06722260  175.36799622    2.48000002    2.59999990
   17.07139015  151.43899536    2.48000002    2.59999990
   17.07472229  155.58399963    2.55999994    2.61999989
   17.07777786  161.75599670    2.61999989    2.61999989
   17.08111191  168.34899902    2.59999990    2.61999989
   17.08416748  151.92900085    2.51999998    2.61999989
   17.08750153  138.53399658    2.48000002    2.61999989
   17.09083366  149.41900635    2.48000002    2.59999990
   17.09388924  157.49299622    2.59999990    2.59999990
   17.09722328  153.53999329    2.67000008    2.59999990
   17.10055542  176.67900085    2.82999992    2.59999990
   17.10361099  167.55799866    3.01999998    2.59999990
   17.10444450  152.79499817    3.09999990    2.59999990
   17.11000061  152.79499817    3.45000005    2.59999990
   17.11416626  144.37800598    3.61999989    2.57999992
   17.11750031  162.34300232    3.97000003    2.59999990
   17.12055588  158.75300598    4.40999985    2.59999990
   17.13833237  104.47699738    4.90999985    2.50000000
   17.14055634  146.05400085    4.90999985    2.51999998
   17.14388847  184.99499512    4.90999985    2.40000010
   17.14722252  218.13900757    4.90999985    2.34999990
   17.15305519  218.13900757    4.90999985    2.28999996
   17.15722275  217.70700073    4.90999985    2.25000000
   17.16055489  104.29299927    4.90999985    2.23000002
   17.16361046   -1.00000000    4.90999985    2.13000011
   17.16694450   -1.00000000    4.90999985    2.17000008
   17.17027664   -1.00000000    4.90999985    2.25000000
   17.17361069   -1.00000000    4.90999985    2.21000004
   17.17666626   -1.00000000    4.90999985    2.11999989
   17.18000031   -1.00000000    4.90999985    2.09999990
   17.18333244   -1.00000000    4.90999985    2.15000010
   17.18638802   -1.00000000    4.90999985    2.11999989
   17.18972206   -1.00000000    4.90999985    2.26999998
   17.20000076   -1.00000000    4.90999985    2.48000002
   17.20333481   -1.00000000    4.90999985    2.51999998
   17.20694542   -1.00000000    4.90999985    2.50000000
   17.21000099   -1.00000000    3.45000005    2.55999994
   17.21333504   -1.00000000    2.61999989    2.55999994
   17.21666718   -1.00000000    2.03999996    2.57999992
   17.21972275   -1.00000000    1.46000004    2.61999989
   17.22305679   -1.00000000    1.25000000    2.64000010
   17.22638893   -1.00000000    1.03999996    2.61999989
   17.22944450   -1.00000000    0.92000002    2.61999989
   17.23277855   -1.00000000    0.88000000    2.61999989
   17.24277878   -1.00000000    0.81999999    2.64000010
   17.24611092   -1.00000000    0.86000001    2.64000010
   17.24944496   -1.00000000    0.92000002    2.61999989
   17.25250053   -1.00000000    0.92000002    2.61999989
   17.25583267   -1.00000000    0.92000002    2.64000010
   17.25888824   -1.00000000    0.92000002    2.61999989
   17.26222229   -1.00000000    0.89999998    2.64000010
   17.26555634   -1.00000000    0.86000001    2.61999989
   17.26888847   -1.00000000    0.80000001    2.64000010
   17.27249908   -1.00000000    0.83999997    2.64000010
   17.27583313   -1.00000000    0.81999999    2.59999990
   17.28583336   -1.00000000    0.81999999    2.64000010
   17.28888893   -1.00000000    0.80000001    2.64000010
   17.29222107   -1.00000000    0.83999997    2.64000010
   17.29527664   -1.00000000    1.01999998    2.61999989
   17.29861069   -1.00000000    1.11000001    2.61999989
   17.30194283   -1.00000000    1.13000000    2.64000010
   17.30555534   -1.00000000    1.13000000    2.64000010
   17.30888748   -1.00000000    1.16999996    2.61999989
   17.31194305   -1.00000000    1.23000002    2.59999990
   17.31527710   -1.00000000    1.23000002    2.59999990
   17.31833458   -1.00000000    1.21000004    2.61999989
   17.32444572   -1.00000000    0.94000000    2.61999989
   17.32861137  109.28600311    0.92000002    2.64000010
   17.33194542  110.76699829    0.88000000    2.61999989
   17.33527756  108.54299927    0.80000001    2.61999989
   17.33833313  109.11199951    0.80000001    2.61999989
   17.33861160  114.13999939    0.81999999    2.61999989
   17.34194565  113.37699890    0.81999999    2.61999989
   17.34500122   86.84580231    0.92000002    2.61999989
   17.34833336  135.97200012    1.09000003    2.61999989
   17.35166740  143.85600281    1.26999998    2.61999989
   17.35472298  150.31799316    1.60000002    2.59999990
   17.35805511  145.65100098    1.61000001    2.61999989
   17.36138916  128.13600159    1.61000001    2.61999989
   17.36722183  128.13600159    1.07000005    2.61999989
   17.37166595  125.46499634    1.05999994    2.61999989
   17.37194443  149.34199524    1.05999994    2.61999989
   17.37527847  129.30000305    0.95999998    2.61999989
   17.37861061  132.76199341    0.95999998    2.64000010
   17.38166618  131.66499329    0.98000002    2.64000010
   17.38500023  143.07899475    0.98000002    2.64000010
   17.38833237  145.95700073    0.98000002    2.64000010
   17.39138794  146.11199951    0.79000002    2.61999989
   17.39472198  151.91900635    0.75000000    2.61999989
   17.39805603  127.03399658    0.75000000    2.61999989
   17.40111160  132.26400757    0.75000000    2.61999989
   17.40444374  126.66100311    0.75000000    2.64000010
   17.40499878  138.27299500    0.75000000    2.64000010
   17.41027832  138.27299500    0.79000002    2.61999989
   17.41444397  127.05000305    0.79000002    2.61999989
   17.41749954  117.02700043    0.79000002    2.64000010
   17.42083359  126.68199921    0.79000002    2.64000010
   17.42388916  122.40599823    0.79000002    2.66000009
   17.42722130  133.95300293    0.98000002    2.64000010
   17.43055534  104.54599762    1.00000000    2.61999989
   17.43361092  129.91000366    0.98000002    2.61999989
   17.43694305  108.19300079    0.98000002    2.61999989
   17.43833160  126.63600159    0.98000002    2.61999989
   17.44055557  125.98500061    1.03999996    2.61999989
   17.44388771  116.00299835    0.95999998    2.61999989
   17.44722176  103.52799988    0.95999998    2.61999989
   17.45305634  103.52799988    0.86000001    2.61999989
   17.45722389  124.69699860    0.88000000    2.61999989
   17.46027946  115.71199799    0.88000000    2.61999989
   17.46361160  130.36399841    0.89999998    2.61999989
   17.46694565  128.44599915    0.89999998    2.61999989
   17.47000122  120.33799744    0.88000000    2.61999989
   17.47166634  106.26699829    0.88000000    2.61999989
   17.47389030  118.69200134    0.94000000    2.61999989
   17.47694588  119.75700378    1.07000005    2.61999989
   17.48027802  121.73999786    1.07000005    2.61999989
   17.48333359  121.84700012    1.21000004    2.61999989
   17.48666763  122.15100098    0.94000000    2.61999989
   17.48999977  126.22899628    0.94000000    2.61999989
   17.49583435  126.22899628    0.89999998    2.61999989
   17.50000000  135.79100037    0.83999997    2.64000010
   17.50333405  127.45099640    0.83999997    2.64000010
   17.50499916  128.80900574    0.81999999    2.61999989
   17.50666618  118.75000000    0.76999998    2.61999989
   17.51000023  130.20599365    0.79000002    2.61999989
   17.51333427  125.52200317    0.75000000    2.61999989
   17.51638794  116.20300293    0.75000000    2.61999989
   17.51972198  133.43200684    0.67000002    2.64000010
   17.52305603  121.55999756    0.67000002    2.64000010
   17.52527809  119.98799896    0.67000002    2.61999989
   17.52833366  133.75500488    0.67000002    2.61999989
   17.53166580  113.07599640    0.67000002    2.61999989
   17.53777695  113.07599640    0.67000002    2.61999989
   17.54194450  121.89700317    0.67000002    2.61999989
   17.54500008  128.63600159    0.67000002    2.61999989
   17.54833221  133.91900635    0.75000000    2.61999989
   17.55166626  120.27899933    0.75000000    2.61999989
   17.55472183  128.45199585    0.76999998    2.61999989
   17.55805397  124.00700378    0.79000002    2.61999989
   17.56138802  128.50199890    0.80000001    2.59999990
   17.56444359  131.53100586    0.80000001    2.59999990
   17.56777954  118.26399994    0.81999999    2.61999989
   17.57055664  106.03700256    0.86000001    2.64000010
   17.57139015  117.96600342    0.86000001    2.64000010
   17.57444572   85.80259705    0.89999998    2.61999989
   17.58055687   85.80259705    1.55999994    2.61999989
   17.58472252  126.54900360    1.55999994    2.61999989
   17.58805656  101.57499695    1.61000001    2.61999989
   17.59111214  131.29299927    2.89000010    2.59999990
   17.59444427  127.31199646    3.64000010    2.53999996
   17.59749985  118.95300293    3.45000005    2.55999994
   17.60083389  129.52000427    2.98000002    2.59999990
   17.60388947  120.44999695    2.00000000    2.61999989
   17.60444450  103.67900085    2.00000000    2.61999989
   17.60750008  114.80699921    1.48000002    2.61999989
   17.61194420  108.45700073    1.09000003    2.61999989
   17.61499977  111.14299774    1.05999994    2.61999989
   17.61833382  112.11499786    1.00000000    2.61999989
   17.62444496  112.11499786    1.11000001    2.61999989
   17.62861061  113.02400208    1.13000000    2.61999989
   17.63166618  124.32599640    1.13000000    2.61999989
   17.63500023  117.63099670    1.19000006    2.61999989
   17.63833237  104.66400146    1.38000000    2.61999989
   17.63888931  110.52899933    1.38000000    2.61999989
   17.64194489   95.04850006    2.39000010    2.61999989
   17.64527702  117.64600372    3.53999996    2.59999990
   17.64833260  111.75399780    4.53000021    2.55999994
   17.65166664   99.74810028    4.26999998    2.53999996
   17.65499878  128.54699707    3.64000010    2.50000000
   17.65805435  111.03299713    2.93000007    2.55999994
   17.66138840  105.45899963    2.21000004    2.59999990
   17.66722107  105.45899963    1.51999998    2.61999989
   17.67138863   98.92720032    1.33000004    2.59999990
   17.67194366  110.82800293    1.33000004    2.59999990
   17.67527771  115.03199768    1.13000000    2.59999990
   17.67833328  101.77100372    1.07000005    2.59999990
   17.68166542  108.27200317    1.00000000    2.61999989
   17.68499947   85.61080170    0.98000002    2.61999989
   17.68805504   91.03019714    0.92000002    2.61999989
   17.69138718  110.91699982    0.92000002    2.64000010
   17.69444275  125.32499695    0.92000002    2.61999989
   17.69777679  114.95500183    0.86000001    2.61999989
   17.70111275  100.51200104    0.86000001    2.61999989
   17.70416832   97.87779999    0.86000001    2.61999989
   17.70527840  106.88300323    0.86000001    2.61999989
   17.71000099  106.88300323    0.83999997    2.61999989
   17.71416664  123.00199890    0.83999997    2.61999989
   17.71750069  106.57900238    0.83999997    2.61999989
   17.72111130  108.40200043    0.88000000    2.61999989
   17.72444534  111.12400055    0.89999998    2.61999989
   17.72750092  116.85900116    0.92000002    2.61999989
   17.73083305  124.05799866    1.01999998    2.61999989
   17.73388863  100.69599915    1.07000005    2.61999989
   17.73722267  101.12799835    1.07000005    2.61999989
   17.73861122  105.76200104    1.07000005    2.59999990
   17.74083328  109.53500366    1.07000005    2.59999990
   17.74416733  101.53299713    1.09000003    2.61999989
   17.74722290  113.33599854    1.13000000    2.61999989
   17.75305557  113.33599854    1.13000000    2.61999989
   17.75722313  105.19300079    1.80999994    2.59999990
   17.76027870  101.66400146    2.34999990    2.57999992
   17.76361084  111.66600037    2.05999994    2.59999990
   17.76666641  104.55300140    1.85000002    2.61999989
   17.77000046   95.54139709    1.55999994    2.59999990
   17.77194405  110.51300049    1.44000006    2.59999990
   17.77388954  102.53099823    1.39999998    2.59999990
   17.77694511   95.70860291    1.36000001    2.59999990
   17.78027725  108.68499756    1.11000001    2.61999989
   17.78361130   95.37359619    1.07000005    2.61999989
   17.78666687   85.91619873    1.05999994    2.61999989
   17.78999901   86.73850250    1.05999994    2.61999989
   17.79583359   86.73850250    1.01999998    2.61999989
   17.79999924   97.23239899    1.05999994    2.61999989
   17.80305481   94.53009796    1.11000001    2.61999989
   17.80527687   82.81549835    1.11000001    2.61999989
   17.80694389   95.91739655    1.16999996    2.61999989
   17.80999947   89.98380280    1.19000006    2.59999990
   17.81333351  100.03900146    1.19000006    2.59999990
   17.81666756   90.65969849    1.21000004    2.59999990
   17.81972313   95.90609741    1.19000006    2.59999990
   17.82305717   89.63610077    1.13000000    2.61999989
   17.82611275  102.23400116    1.03999996    2.59999990
   17.82944489   90.17690277    0.95999998    2.61999989
   17.83277893   90.83599854    0.92000002    2.64000010
   17.83861160   90.83599854    0.92000002    2.61999989
   17.84277916  106.17500305    0.89999998    2.61999989
   17.84611130   99.84480286    0.89999998    2.61999989
   17.84916687   95.01519775    0.86000001    2.61999989
   17.85250092   95.94730377    0.83999997    2.61999989
   17.85555649   88.09880066    0.81999999    2.59999990
   17.85888863   79.88749695    0.83999997    2.61999989
   17.86222267   84.35279846    0.86000001    2.61999989
   17.86527824   83.24469757    0.86000001    2.59999990
   17.86861038   83.90869904    0.86000001    2.59999990
   17.87194443   96.21150208    0.88000000    2.59999990
   17.87249947   97.57270050    0.88000000    2.59999990
   17.87555504   81.05889893    0.89999998    2.61999989
   17.88138962   81.05889893    0.88000000    2.61999989
   17.88555527   97.26909637    0.88000000    2.59999990
   17.88888931   95.44010162    0.86000001    2.61999989
   17.89222145   84.69490051    0.86000001    2.61999989
   17.89527702   84.04540253    0.86000001    2.61999989
   17.89861107   81.42800140    0.86000001    2.59999990
   17.90166664   76.20970154    0.86000001    2.61999989
   17.90499878   84.18119812    0.83999997    2.61999989
   17.90583229   78.25370026    0.83999997    2.61999989
   17.90861130  109.14199829    0.83999997    2.61999989
   17.91194344   90.30419922    0.83999997    2.59999990
   17.91527748  100.79399872    0.86000001    2.61999989
   17.91833305   92.08840179    0.86000001    2.61999989
   17.92444420   92.08840179    0.86000001    2.59999990
   17.92833328   86.34429932    0.83999997    2.59999990
   17.93166542   81.45619965    0.81999999    2.61999989
   17.93499947   88.67939758    0.81999999    2.61999989
   17.93833160   77.22100067    0.81999999    2.61999989
   17.93916512   80.23000336    0.81999999    2.61999989
   17.94194412   84.25630188    0.81999999    2.61999989
   17.94527626   87.03510284    0.79000002    2.61999989
   17.94833183   87.72229767    0.76999998    2.59999990
   17.95166779   85.33599854    0.75000000    2.61999989
   17.95499992   86.91400146    0.73000002    2.61999989
   17.95805550   73.85260010    0.75000000    2.61999989
   17.96138954   85.51609802    0.75000000    2.61999989
   17.96722221   85.51609802    0.73000002    2.61999989
   17.97138977   88.21579742    0.73000002    2.61999989
   17.97249985   88.09760284    0.73000002    2.61999989
   17.97500038   87.18049622    0.70999998    2.59999990
   17.97833443   88.22370148    0.69000000    2.61999989
   17.98139000   88.45749664    0.69000000    2.59999990
   17.98472214   84.87660217    0.69000000    2.59999990
   17.98805618   93.27989960    0.69000000    2.61999989
   17.99111176   95.81199646    0.69000000    2.61999989
   17.99444389   78.86979675    0.69000000    2.61999989
   17.99777794   83.18000031    0.69000000    2.61999989
   18.00083351   93.67299652    0.69000000    2.59999990
   18.00416756   87.77629852    0.69000000    2.61999989
   18.00583267   86.42530060    0.69000000    2.61999989
   18.01000023   86.42530060    0.70999998    2.61999989
   18.01416588  102.22100067    0.70999998    2.61999989
   18.01749992   95.72470093    0.70999998    2.61999989
   18.02055550   94.13359833    0.70999998    2.61999989
   18.02388954   86.90789795    0.70999998    2.61999989
   18.02694511   87.16960144    0.70999998    2.61999989
   18.03027725   95.33899689    0.70999998    2.61999989
   18.03361130   81.20850372    0.70999998    2.61999989
   18.03666687   92.34950256    0.69000000    2.59999990
   18.03916550   75.44899750    0.69000000    2.59999990
   18.04027748   77.88670349    0.67000002    2.61999989
   18.04361153   80.81739807    0.67000002    2.61999989
   18.04666710   80.11740112    0.67000002    2.59999990
   18.05277634   80.11740112    0.64999998    2.61999989
   18.05694389   87.74859619    0.64999998    2.59999990
   18.06027794   92.22070313    0.67000002    2.61999989
   18.06361008  102.52799988    0.64999998    2.59999990
   18.06666756   92.22850037    0.64999998    2.61999989
   18.07000160   79.00959778    0.64999998    2.61999989
   18.07250023   93.82309723    0.67000002    2.61999989
   18.07361221   94.27149963    0.67000002    2.61999989
   18.07694626   81.64189911    0.67000002    2.61999989
   18.08000183   93.90019989    0.67000002    2.61999989
   18.08333397   87.65460205    0.67000002    2.61999989
   18.08666801   99.78500366    0.67000002    2.61999989
   18.08972359   91.93399811    0.67000002    2.61999989
   18.09583473   91.93399811    0.67000002    2.59999990
   18.09972191   99.76149750    0.64999998    2.61999989
   18.10305595   99.11209869    0.64999998    2.59999990
   18.10583305   90.13009644    0.64999998    2.64000010
   18.10666656   92.91539764    0.64999998    2.64000010
   18.11000061   96.81849670    0.64999998    2.59999990
   18.11333466   87.70570374    0.63000000    2.61999989
   18.11638832   97.88079834    0.63000000    2.61999989
   18.11972237   87.36350250    0.63000000    2.61999989
   18.12305641   96.69999695    0.63000000    2.61999989
   18.12611198   84.26689911    0.63000000    2.59999990
   18.12944412   97.63909912    0.63000000    2.59999990
   18.13277817   93.66919708    0.61000001    2.59999990
   18.13861084   93.66919708    0.63000000    2.59999990
   18.15694427   86.19770050    0.64999998    2.59999990
   18.16027832   93.52940369    0.64999998    2.59999990
   18.16333389   95.57460022    0.64999998    2.59999990
   18.16666603   92.01129913    0.64999998    2.59999990
   18.17000008   85.43659973    0.64999998    2.59999990
   18.17305565   84.38050079    0.64999998    2.61999989
   18.17638779   85.55789948    0.63000000    2.61999989
   18.18166542   85.55789948    0.58999997    2.61999989
   18.18583298   76.50039673    0.58999997    2.61999989
   18.18916512   81.86579895    0.58999997    2.61999989
   18.18999863   88.27429962    0.58999997    2.59999990
   18.19277763   78.14420319    0.58999997    2.59999990
   18.19583321   77.29940033    0.58999997    2.59999990
   18.19916534   75.28769684    0.56999999    2.59999990
   18.20250130   81.27010345    0.56999999    2.61999989
   18.20555687   86.06439972    0.56999999    2.59999990
   18.20888901   75.01229858    0.56999999    2.59999990
   18.21222305   76.04830170    0.58999997    2.59999990
   18.21527863   84.98459625    0.58999997    2.59999990
   18.21861076   78.61479950    0.58999997    2.59999990
   18.22444534   78.61479950    0.58999997    2.59999990
   18.22861099   87.57849884    0.61000001    2.59999990
   18.23194504   91.29779816    0.61000001    2.61999989
   18.23500061   85.91059875    0.61000001    2.59999990
   18.23833275   90.94609833    0.61000001    2.59999990
   18.24166679   83.63240051    0.63000000    2.59999990
   18.24472237   75.90380096    0.64999998    2.59999990
   18.24805641   87.81330109    0.64999998    2.59999990
   18.25111198   94.35050201    0.64999998    2.59999990
   18.25444412   83.59940338    0.64999998    2.61999989
   18.25666618   77.28939819    0.64999998    2.59999990
   18.25833321   79.03639984    0.64999998    2.59999990
   18.26138878   80.30290222    0.64999998    2.59999990
   18.26722145   80.30290222    0.67000002    2.59999990
   18.27138901   78.64179993    0.69000000    2.59999990
   18.27472115   88.44000244    0.67000002    2.59999990
   18.27805519   82.74729919    0.67000002    2.59999990
   18.28111076   91.68520355    0.67000002    2.59999990
   18.28444481   91.67459869    0.67000002    2.59999990
   18.28750038   90.83899689    0.67000002    2.59999990
   18.28999901   82.23989868    0.67000002    2.59999990
   18.29138756   93.95490265    0.69000000    2.59999990
   18.29444313   86.65229797    0.69000000    2.59999990
   18.29777718   73.91560364    0.70999998    2.59999990
   18.30111122   81.90129852    0.67000002    2.59999990
   18.30416679   82.64530182    0.67000002    2.59999990
   18.31027794   82.64530182    0.64999998    2.59999990
   18.31444359   87.52249908    0.63000000    2.59999990
   18.31750107   78.35610199    0.61000001    2.59999990
   18.32083511   85.59049988    0.58999997    2.59999990
   18.32333374   84.26339722    0.56999999    2.59999990
   18.32444572   84.33709717    0.56999999    2.59999990
   18.32750130   89.26509857    0.56999999    2.59999990
   18.33083344   88.75689697    0.56999999    2.59999990
   18.33416748   84.70099640    0.56999999    2.59999990
   18.33722305   79.97429657    0.56999999    2.59999990
   18.34055710   95.14440155    0.56999999    2.59999990
   18.34388924   90.40519714    0.56999999    2.59999990
   18.34694481   88.89949799    0.55000001    2.59999990
   18.35305595   88.89949799    0.52999997    2.59999990
   18.35722351   96.49980164    0.55000001    2.59999990
   18.36027908   95.55030060    0.52999997    2.57999992
   18.36361122   90.91570282    0.52999997    2.57999992
   18.36694527   91.45890045    0.52999997    2.59999990
   18.37000084   81.61340332    0.52999997    2.59999990
   18.37333298   86.40129852    0.52999997    2.59999990
   18.37666702   90.58409882    0.52999997    2.59999990
   18.37972260   86.15039825    0.51999998    2.59999990
   18.38305473   83.00650024    0.51999998    2.59999990
   18.38638878   92.33229828    0.51999998    2.59999990
   18.38944435   84.05789948    0.51999998    2.59999990
   18.38999939   83.72319794    0.51999998    2.59999990
   18.39583397   83.72319794    0.52999997    2.59999990
   18.39999962   88.96070099    0.51999998    2.59999990
   18.40333366   79.67030334    0.51999998    2.59999990
   18.40638924   91.47989655    0.51999998    2.59999990
   18.40972137   84.51039886    0.51999998    2.59999990
   18.41305542   83.38300323    0.51999998    2.59999990
   18.41611099   76.91649628    0.51999998    2.59999990
   18.41944313   83.26280212    0.51999998    2.59999990
   18.42277718   81.89029694    0.50000000    2.59999990
   18.42333221   80.01770020    0.50000000    2.59999990
   18.42638779   81.68949890    0.50000000    2.57999992
   18.42944336   83.93920135    0.51999998    2.59999990
   18.43277740   91.34140015    0.51999998    2.59999990
   18.43861008   91.34140015    0.50000000    2.57999992
   18.44277763   82.31659698    0.51999998    2.59999990
   18.44610977   83.72760010    0.51999998    2.59999990
   18.44944382   74.26339722    0.51999998    2.59999990
   18.45250130   86.44490051    0.50000000    2.59999990
   18.45583344   85.77290344    0.51999998    2.59999990
   18.45666695   82.73400116    0.51999998    2.59999990
   18.45944595   80.73120117    0.51999998    2.57999992
   18.46250153   99.36930084    0.51999998    2.57999992
   18.46583366   86.60949707    0.51999998    2.59999990
   18.46916771   81.03009796    0.51999998    2.59999990
   18.47222328   84.74490356    0.52999997    2.59999990
   18.47555542   88.64450073    0.51999998    2.57999992
   18.48166656   88.64450073    0.52999997    2.59999990
   18.48583412   90.70909882    0.51999998    2.59999990
   18.48888969   83.60289764    0.52999997    2.57999992
   18.48999977   86.51149750    0.52999997    2.57999992
   18.49250031   83.57939911    0.52999997    2.57999992
   18.49555588   81.33650208    0.51999998    2.59999990
   18.49888992   76.93849945    0.52999997    2.57999992
   18.50222206   82.60459900    0.52999997    2.57999992
   18.50527763   88.95079803    0.55000001    2.57999992
   18.50861168   83.48509979    0.52999997    2.59999990
   18.51194382   82.84619904    0.52999997    2.57999992
   18.51499939   82.05599976    0.52999997    2.57999992
   18.51833344   81.70600128    0.55000001    2.57999992
   18.52444458   81.70600128    0.55000001    2.59999990
   18.52861023   84.12960052    0.52999997    2.55999994
   18.53166580   83.41459656    0.52999997    2.55999994
   18.53499985   89.21289825    0.52999997    2.57999992
   18.53833199   85.97840118    0.55000001    2.57999992
   18.54138756   98.97190094    0.55000001    2.57999992
   18.54472160   91.58170319    0.52999997    2.57999992
   18.54805565   89.10250092    0.51999998    2.59999990
   18.55111122   85.31449890    0.51999998    2.59999990
   18.55444336   86.01049805    0.51999998    2.59999990
   18.55666542   95.88970184    0.52999997    2.59999990
   18.55805397   94.88839722    0.52999997    2.59999990
   18.56138802   91.36090088    0.52999997    2.59999990
   18.56722260   91.36090088    0.51999998    2.57999992
   18.57139015   83.36730194    0.51999998    2.57999992
   18.57472229   96.48349762    0.52999997    2.57999992
   18.57777786   86.68679810    0.51999998    2.57999992
   18.58111191   96.22989655    0.51999998    2.57999992
   18.58444595   86.12409973    0.51999998    2.57999992
   18.58750153   92.95909882    0.52999997    2.57999992
   18.59000015   82.82379913    0.55000001    2.57999992
   18.59138870   84.20310211    0.55000001    2.57999992
   18.59472275   88.13870239    0.52999997    2.59999990
   18.59777832   80.63439941    0.52999997    2.59999990
   18.60111237   95.32440186    0.52999997    2.59999990
   18.60416794   93.31819916    0.52999997    2.59999990
   18.61000061   93.31819916    0.52999997    2.57999992
   18.61416626   88.01979828    0.52999997    2.57999992
   18.61750031   87.46980286    0.52999997    2.55999994
   18.62083435   83.80229950    0.51999998    2.57999992
   18.62333298   76.70639801    0.51999998    2.57999992
   18.62444496   82.48680115    0.52999997    2.57999992
   18.62777710   83.43470001    0.51999998    2.59999990
   18.63083267   85.35289764    0.51999998    2.59999990
   18.63416672   86.27449799    0.51999998    2.57999992
   18.63722229   86.21739960    0.51999998    2.57999992
   18.64083290   83.66410065    0.50000000    2.57999992
   18.64388847   86.19090271    0.50000000    2.55999994
   18.64722252   85.33769989    0.51999998    2.57999992
   18.65305519   85.33769989    0.50000000    2.57999992
   18.65694427   87.14600372    0.50000000    2.55999994
   18.66027832   87.00859833    0.50000000    2.57999992
   18.66361046   85.40750122    0.50000000    2.57999992
   18.66694450   95.23400116    0.50000000    2.57999992
   18.67000008   87.82129669    0.50000000    2.57999992
   18.67333221   89.52580261    0.50000000    2.57999992
   18.67666626   86.62470245    0.51999998    2.57999992
   18.67972183   84.54669952    0.51999998    2.57999992
   18.68305397   90.21109772    0.51999998    2.57999992
   18.68610954   86.23529816    0.51999998    2.57999992
   18.68944359   95.88210297    0.52999997    2.57999992
   18.68999863   94.55619812    0.52999997    2.57999992
   18.69583321   94.55619812    0.55000001    2.57999992
   18.70000076   86.34449768    0.55000001    2.57999992
   18.70305634   88.47769928    0.55000001    2.57999992
   18.70639038   93.98090363    0.56999999    2.55999994
   18.70972252   92.78890228    0.56999999    2.57999992
   18.71277809   87.05319977    0.56999999    2.57999992
   18.71611214   88.72129822    0.56999999    2.57999992
   18.71944427   85.81459808    0.61000001    2.55999994
   18.72249985   83.25630188    0.61000001    2.55999994
   18.72333336   82.88829803    0.61000001    2.55999994
   18.72611237   85.16030121    0.58999997    2.57999992
   18.72944450   79.25879669    0.56999999    2.57999992
   18.73250008   82.87030029    0.56999999    2.57999992
   18.73861122   82.87030029    0.61000001    2.55999994
   18.74277878   85.78479767    0.61000001    2.55999994
   18.74611092   79.99790192    0.61000001    2.55999994
   18.74916649   90.12030029    0.56999999    2.55999994
   18.75250053   87.28620148    0.52999997    2.55999994
   18.75555611   83.50810242    0.51999998    2.55999994
   18.75666618   88.77249908    0.51999998    2.55999994
   18.75944519   75.76229858    0.51999998    2.55999994
   18.76277733   86.76509857    0.50000000    2.55999994
   18.76583290   79.58529663    0.50000000    2.57999992
   18.76916695   88.53589630    0.50000000    2.55999994
   18.77222252   85.78240204    0.51999998    2.55999994
   18.77555466   76.24430084    0.50000000    2.55999994
   18.78138924   76.24430084    0.51999998    2.55999994
   18.78555489   81.21320343    0.50000000    2.55999994
   18.78888893   97.63500214    0.50000000    2.55999994
   18.78999901   95.43710327    0.50000000    2.55999994
   18.79249954   81.72779846    0.50000000    2.57999992
   18.79583359   80.70320129    0.50000000    2.55999994
   18.79888916   84.69149780    0.50000000    2.55999994
   18.80222130   89.40170288    0.51999998    2.57999992
   18.80527687   81.23490143    0.51999998    2.57999992
   18.80861092   80.79930115    0.50000000    2.55999994
   18.81194305   85.27839661    0.50000000    2.57999992
   18.81499863   89.02200317    0.50000000    2.55999994
   18.81833458   98.20929718    0.50000000    2.55999994
   18.82444572   98.20929718    0.50000000    2.55999994
   18.82833481   89.03600311    0.50000000    2.55999994
   18.83166695   90.28170013    0.50000000    2.55999994
   18.83500099   76.78189850    0.50000000    2.57999992
   18.83805656   87.37200165    0.47999999    2.57999992
   18.84138870   82.57399750    0.47999999    2.57999992
   18.84472275   80.50910187    0.47999999    2.55999994
   18.84777832   87.41049957    0.47999999    2.55999994
   18.85111237   94.38369751    0.47999999    2.57999992
   18.85416794   99.99639893    0.47999999    2.55999994
   18.85666656   79.37740326    0.47999999    2.55999994
   18.85805511   86.76940155    0.47999999    2.55999994
   18.86138916   93.67289734    0.47999999    2.55999994
   18.86722183   93.67289734    0.47999999    2.55999994
   18.87138939   92.29360199    0.50000000    2.55999994
   18.87444496   88.80030060    0.50000000    2.55999994
   18.87777710   86.91860199    0.50000000    2.55999994
   18.88111115   82.62129974    0.47999999    2.55999994
   18.88416672   89.95469666    0.47999999    2.55999994
   18.88750076   82.05660248    0.47999999    2.55999994
   18.88999939   87.62010193    0.47999999    2.55999994
   18.89111137   82.70240021    0.50000000    2.55999994
   18.89444351   81.32279968    0.50000000    2.55999994
   18.89749908   83.84410095    0.50000000    2.55999994
   18.90083313   93.33660126    0.51999998    2.55999994
   18.90416718   95.77330017    0.51999998    2.55999994
   18.90999985   95.77330017    0.51999998    2.57999992
   18.91416550   93.87940216    0.50000000    2.55999994
   18.91749954   89.15509796    0.50000000    2.53999996
   18.92055511   83.74690247    0.50000000    2.53999996
   18.92333221   93.53150177    0.51999998    2.55999994
   18.92416573   84.27429962    0.51999998    2.55999994
   18.92749977   86.14839935    0.51999998    2.55999994
   18.93055534   93.31189728    0.50000000    2.55999994
   18.93416595   87.02349854    0.51999998    2.55999994
   18.93750000   93.49330139    0.51999998    2.55999994
   18.94055557  102.37999725    0.51999998    2.55999994
   18.94388771   85.34130096    0.51999998    2.55999994
   18.94722176   84.93319702    0.50000000    2.53999996
   18.95277786   84.93319702    0.50000000    2.55999994
   18.95694542   81.36990356    0.50000000    2.55999994
   18.96027946   84.43750000    0.50000000    2.53999996
   18.96333504   86.15039825    0.50000000    2.55999994
   18.96666718   80.06259918    0.50000000    2.53999996
   18.97000122   88.93810272    0.50000000    2.53999996
   18.97305679   83.41470337    0.50000000    2.57999992
   18.97638893   80.80930328    0.50000000    2.55999994
   18.97972298   84.20739746    0.50000000    2.55999994
   18.98277855   88.82779694    0.50000000    2.55999994
   18.98611069   79.24250031    0.47999999    2.53999996
   18.98916626   84.31369781    0.47999999    2.53999996
   18.98999977   99.28919983    0.47999999    2.53999996
   18.99583435   99.28919983    0.47999999    2.55999994
   18.99972153   80.89649963    0.47999999    2.55999994
   19.00305557   84.18599701    0.47999999    2.53999996
   19.00638962   80.70780182    0.47999999    2.53999996
   19.00944519   80.98500061    0.47999999    2.55999994
   19.01277733   88.81890106    0.47999999    2.55999994
   19.01611137   90.22660065    0.47999999    2.53999996
   19.01944351   89.75279999    0.50000000    2.55999994
   19.02249908   84.99250031    0.50000000    2.55999994
   19.02333260   82.69480133    0.50000000    2.55999994
   19.02611160   95.24649811    0.50000000    2.55999994
   19.02944374   87.77469635    0.50000000    2.53999996
   19.03249931   94.72589874    0.50000000    2.53999996
   19.03861046   94.72589874    0.50000000    2.53999996
   19.04277802   86.65280151    0.50000000    2.55999994
   19.04583359   86.84210205    0.50000000    2.55999994
   19.04916573   83.97540283    0.50000000    2.53999996
   19.05249977   81.05130005    0.47999999    2.53999996
   19.05555534   83.63430023    0.47999999    2.53999996
   19.05666542   87.35659790    0.47999999    2.53999996
   19.05916595   94.37169647    0.47999999    2.53999996
   19.06250000   87.75469971    0.47999999    2.53999996
   19.06555557   85.36389923    0.50000000    2.53999996
   19.06888962   94.34519958    0.51999998    2.53999996
   19.07222366   91.16429901    0.52999997    2.53999996
   19.07527924   86.77320099    0.63000000    2.53999996
   19.08139038   86.77320099    0.67000002    2.53999996
   19.08555603   88.44779968    0.69000000    2.53999996
   19.08889008   89.44159698    0.73000002    2.53999996
   19.09000015   90.28299713    0.75000000    2.51999998
   19.09250069   83.64929962    0.75000000    2.51999998
   19.09583473   90.15989685    0.70999998    2.53999996
   19.09889030   87.85250092    0.70999998    2.53999996
   19.10222244   92.62180328    0.69000000    2.55999994
   19.10555649   78.68550110    0.69000000    2.55999994
   19.10861206   92.01779938    0.69000000    2.51999998
   19.11194420   87.30860138    0.69000000    2.53999996
   19.11527824   81.26909637    0.64999998    2.53999996
   19.11833382   88.20510101    0.63000000    2.53999996
   19.12416649   88.20510101    0.61000001    2.53999996
   19.12833405   88.65229797    0.56999999    2.53999996
   19.13166618   86.09159851    0.52999997    2.53999996
   19.13472176   87.47129822    0.51999998    2.53999996
   19.13805580   82.02380371    0.50000000    2.53999996
   19.14138794   87.80319977    0.47999999    2.53999996
   19.14444351   93.40390015    0.46000001    2.55999994
   19.14777756   93.77850342    0.46000001    2.53999996
   19.15111160   83.78649902    0.46000001    2.53999996
   19.15416718   86.82959747    0.47999999    2.53999996
   19.15666580   85.14320374    0.47999999    2.53999996
   19.17749977   85.14320374    0.51999998    2.53999996
   19.18166542   90.41500092    0.52999997    2.53999996
   19.18499947   83.44049835    0.52999997    2.53999996
   19.18833160   90.62419891    0.52999997    2.53999996
   19.19027710  101.39700317    0.55000001    2.51999998
   19.19166565   85.78810120    0.55000001    2.51999998
   19.19499969   85.77050018    0.58999997    2.51999998
   19.19833183   92.55059814    0.63000000    2.53999996
   19.20138931   98.03939819    0.76999998    2.51999998
   19.20472336   91.11000061    0.89999998    2.51999998
   19.20805550   92.45269775    1.01999998    2.51999998
   19.21111107   87.75180054    1.01999998    2.51999998
   19.21444511   86.75969696    1.07000005    2.51999998
   19.22027779   86.75969696    1.07000005    2.51999998
   19.22444534   87.66069794    1.07000005    2.51999998
   19.22750092   90.26629639    1.07000005    2.51999998
   19.23083305   84.75189972    1.09000003    2.51999998
   19.23416710   91.21219635    1.09000003    2.51999998
   19.23722267   82.33860016    1.16999996    2.51999998
   19.24055672   88.80699921    1.21000004    2.50000000
   19.24361229   92.13590240    1.21000004    2.50000000
   19.24694443   84.19210052    1.23000002    2.50000000
   19.25027847   85.82730103    1.16999996    2.51999998
   19.25333405   89.40910339    1.09000003    2.51999998
   19.25666618   89.03209686    1.03999996    2.51999998
   19.25722313   88.60130310    1.03999996    2.51999998
   19.26305580   88.60130310    1.01999998    2.51999998
   19.26722145   95.80690002    1.01999998    2.51999998
   19.27027702   82.54290009    1.01999998    2.51999998
   19.27361107   87.84839630    1.03999996    2.50000000
   19.27694511   91.60639954    1.03999996    2.51999998
   19.28000069   94.85559845    1.03999996    2.51999998
   19.28333282   84.26869965    1.03999996    2.51999998
   19.28666687   89.78820038    1.03999996    2.51999998
   19.28972244   82.23819733    1.14999998    2.50000000
   19.29055595   91.13929749    1.14999998    2.50000000
   19.29361153   93.58000183    1.13000000    2.50000000
   19.29694366   89.79049683    1.14999998    2.50000000
   19.29999924   88.02269745    1.19000006    2.51999998
   19.30583191   88.02269745    1.26999998    2.50000000
   19.30999947   87.20629883    1.26999998    2.50000000
   19.31333351   92.43139648    1.28999996    2.50000000
   19.31638718   88.32830048    1.28999996    2.50000000
   19.31972313   89.24120331    1.39999998    2.50000000
   19.32305717   87.00360107    1.50000000    2.50000000
   19.32389069   82.63870239    1.50000000    2.51999998
   19.32666779   88.87609863    1.50000000    2.51999998
   19.32972336   83.93070221    1.51999998    2.50000000
   19.33305550   87.77120209    1.60000002    2.51999998
   19.33638954   84.43479919    1.75000000    2.48000002
   19.33944511   89.01319885    1.80999994    2.50000000
   19.34277916   96.06030273    1.76999998    2.50000000
   19.34861183   96.06030273    1.80999994    2.50000000
   19.35277748   93.54509735    1.80999994    2.50000000
   19.35611153   94.94889832    1.80999994    2.50000000
   19.35722351   92.62169647    1.80999994    2.50000000
   19.35972214   80.89969635    1.75000000    2.50000000
   19.36277771   88.51249695    1.75000000    2.50000000
   19.36611176   82.02050018    1.83000004    2.50000000
   19.36944389   84.16750336    1.85000002    2.48000002
   19.37249947   84.34680176    1.83000004    2.48000002
   19.37583351   87.53320313    1.83000004    2.48000002
   19.37916756   88.99970245    1.76999998    2.48000002
   19.38222313   86.71939850    1.69000006    2.50000000
   19.38555527   88.30609894    1.71000004    2.50000000
   19.39166641   88.30609894    1.76999998    2.48000002
   19.39583397   82.78079987    1.76999998    2.48000002
   19.39888954   89.74060059    1.69000006    2.50000000
   19.40222168   92.55039978    1.58000004    2.50000000
   19.40527725   90.72059631    1.51999998    2.50000000
   19.40888786   82.17150116    1.48000002    2.50000000
   19.41194344   82.04199982    1.48000002    2.50000000
   19.41527748   88.99410248    1.48000002    2.50000000
   19.41833305   85.74230194    1.48000002    2.50000000
   19.42166519   88.72799683    1.48000002    2.48000002
   19.42388916   85.87840271    1.46000004    2.50000000
   19.42555428   89.19499969    1.46000004    2.50000000
   19.42860985   89.94619751    1.46000004    2.50000000
   19.43444443   89.94619751    1.33000004    2.50000000
   19.43861008   81.19570160    1.30999994    2.50000000
   19.44166565   94.66000366    1.30999994    2.50000000
   19.44499969   87.08399963    1.28999996    2.48000002
   19.44833183   86.84790039    1.28999996    2.48000002
   19.45138931   90.29380035    1.28999996    2.50000000
   19.45472336   82.17070007    1.28999996    2.50000000
   19.45722389   98.67230225    1.28999996    2.50000000
   19.45833397   78.97540283    1.25000000    2.48000002
   19.46138954   83.25469971    1.25000000    2.48000002
   19.46472359   93.98400116    1.21000004    2.48000002
   19.46805573   88.38140106    1.16999996    2.48000002
   19.47111130   88.39689636    1.14999998    2.50000000
   19.47722244   88.39689636    1.11000001    2.50000000
   19.48139000   87.75119781    1.11000001    2.48000002
   19.48472214   84.33920288    1.07000005    2.48000002
   19.48777771   79.05339813    1.07000005    2.48000002
   19.49055672   86.08809662    1.03999996    2.50000000
   19.49166679   83.33229828    1.03999996    2.50000000
   19.49472237   95.96600342    1.00000000    2.50000000
   19.49805641   75.15209961    0.98000002    2.48000002
   19.50138855   83.53679657    0.95999998    2.48000002
   19.50444412   83.64910126    0.89999998    2.48000002
   19.50777817   82.94210052    0.83999997    2.48000002
   19.51083374   86.65740204    0.83999997    2.48000002
   19.51416588   80.61769867    0.83999997    2.48000002
   19.52000046   80.61769867    0.88000000    2.48000002
   19.52416611   84.74929810    0.88000000    2.48000002
   19.52750015   91.28250122    0.88000000    2.48000002
   19.53083229   87.50959778    0.92000002    2.50000000
   19.53388786   85.79550171    0.92000002    2.48000002
   19.53722191   90.02490234    0.94000000    2.48000002
   19.54027748   82.70800018    0.95999998    2.48000002
   19.54361153   95.19909668    0.95999998    2.48000002
   19.54694366   87.25080109    0.98000002    2.48000002
   19.54999924   83.04750061    1.00000000    2.48000002
   19.55333328   90.11160278    0.94000000    2.48000002
   19.55666542   81.27030182    0.94000000    2.48000002
   19.55722237   87.06569672    0.94000000    2.48000002
   19.56305504   87.06569672    0.94000000    2.48000002
   19.56722260   81.78260040    0.94000000    2.48000002
   19.57027817   84.66300201    0.94000000    2.48000002
   19.57361221   90.17479706    0.94000000    2.48000002
   19.57666779   89.57849884    0.94000000    2.46000004
   19.58000183   81.56800079    0.92000002    2.48000002
   19.58333397   93.21530151    0.89999998    2.48000002
   19.58638954   91.64579773    0.83999997    2.48000002
   19.58972359   77.21350098    0.83999997    2.46000004
   19.59055710   86.65480042    0.83999997    2.46000004
   19.59333420   93.75530243    0.81999999    2.46000004
   19.59638977   93.53690338    0.81999999    2.46000004
   19.59972191   98.33799744    0.80000001    2.48000002
   19.60583305   98.33799744    0.80000001    2.48000002
   19.61000061   88.90760040    0.83999997    2.46000004
   19.61305618   93.62259674    0.83999997    2.46000004
   19.61638832   97.26709747    0.89999998    2.48000002
   19.61972237   90.55529785    0.86000001    2.46000004
   19.62277794   90.87840271    0.76999998    2.48000002
   19.62388992   79.56310272    0.76999998    2.48000002
   19.62666702   96.90809631    0.76999998    2.48000002
   19.62972260   88.89440155    0.76999998    2.48000002
   19.63305473   86.90550232    0.76999998    2.48000002
   19.63638878   85.94750214    0.73000002    2.48000002
   19.63944435   90.83660126    0.70999998    2.46000004
   19.64277840   92.33979797    0.70999998    2.46000004
   19.64861107   92.33979797    0.69000000    2.46000004
   19.65277672   90.18109894    0.69000000    2.46000004
   19.65611076   86.21379852    0.67000002    2.46000004
   19.65722275   87.27290344    0.67000002    2.46000004
   19.65972137   81.64739990    0.67000002    2.46000004
   19.66277695   82.37039948    0.67000002    2.48000002
   19.66611099   80.49340057    0.67000002    2.46000004
   19.66944313   93.69290161    0.67000002    2.46000004
   19.67249870   90.05760193    0.67000002    2.46000004
   19.67583275   84.47920227    0.64999998    2.46000004
   19.67916679   84.84929657    0.63000000    2.46000004
   19.68222237   86.87490082    0.64999998    2.46000004
   19.68555450   91.19920349    0.64999998    2.46000004
   19.69138718   91.19920349    0.64999998    2.48000002
   19.69555473   87.23280334    0.64999998    2.46000004
   19.69888878   92.18599701    0.64999998    2.46000004
   19.70222282   87.75409698    0.64999998    2.46000004
   19.70527840   94.84069824    0.64999998    2.46000004
   19.70861244   93.42690277    0.64999998    2.46000004
   19.71194458   88.89309692    0.64999998    2.46000004
   19.71527863   96.71379852    0.63000000    2.46000004
   19.71833420   88.16529846    0.63000000    2.46000004
   19.72166634  103.62799835    0.63000000    2.46000004
   19.72389030   96.62680054    0.61000001    2.46000004
   19.72527885   92.61479950    0.61000001    2.46000004
   19.72861099   88.73789978    0.56999999    2.46000004
   19.73444557   88.73789978    0.56999999    2.46000004
   19.73861122   87.28019714    0.55000001    2.46000004
   19.74166679   84.77089691    0.55000001    2.46000004
   19.74500084   93.26989746    0.55000001    2.46000004
   19.74805641   86.21540070    0.55000001    2.46000004
   19.75138855   87.84020233    0.55000001    2.46000004
   19.75472260   89.61669922    0.55000001    2.46000004
   19.75722313   87.90489960    0.55000001    2.46000004
   19.75833321   89.96350098    0.55000001    2.46000004
   19.76138878  102.34700012    0.55000001    2.46000004
   19.76472282  131.31700134    0.52999997    2.46000004
   19.76805496   -1.00000000    0.51999998    2.46000004
   19.77111053   -1.00000000    0.51999998    2.44000006
   19.77722168   -1.00000000    0.50000000    2.46000004
   19.78138924  366.02398682    0.50000000    2.46000004
   19.78472137   -1.00000000    0.50000000    2.46000004
   19.78805542   -1.00000000    0.50000000    2.44000006
   19.79138756   -1.00000000    0.50000000    2.44000006
