    HOUR (UT)   FLARE FACTOR    SKY TESTER    SUN TESTER
   11.07555580   -1.00000000   -1.00000000   -1.00000000
   11.18694496  124.68399811    0.89999998    2.57999992
   11.19027805  132.83299255    0.92000002    2.57999992
   11.19333363  122.93399811    0.92000002    2.57999992
   11.19666672  120.70200348    0.89999998    2.57999992
   11.19999981  126.40100098    0.89999998    2.59999990
   11.20694447  126.40100098    0.92000002    2.57999992
   11.21083355  129.11900330    0.89999998    2.59999990
   11.21416664  130.28399658    0.89999998    2.57999992
   11.21749973  129.16700745    0.88000000    2.57999992
   11.21972179  132.41700745    0.88000000    2.57999992
   11.22111034  134.23899841    0.88000000    2.59999990
   11.22444439  131.81199646    0.88000000    2.59999990
   11.22749996  136.91600037    0.89999998    2.59999990
   11.23111057  138.03799438    0.89999998    2.59999990
   11.23416710  134.83000183    0.94000000    2.59999990
   11.23750019  132.50799561    0.94000000    2.59999990
   11.24083328  134.70599365    0.88000000    2.59999990
   11.24388885  137.75599670    0.88000000    2.59999990
   11.24972248  137.75599670    0.81999999    2.59999990
   11.25388908  128.00700378    0.81999999    2.59999990
   11.25694466  131.93400574    0.81999999    2.59999990
   11.26027775  123.23600006    0.83999997    2.59999990
   11.26361084  125.91699982    0.80000001    2.59999990
   11.26694393  124.09100342    0.81999999    2.61999989
   11.26999950  121.55000305    0.81999999    2.61999989
   11.27333355  125.66500092    0.81999999    2.59999990
   11.27666664  122.51899719    0.83999997    2.61999989
   11.27972221  128.16000366    0.83999997    2.61999989
   11.28305531  120.34500122    0.80000001    2.61999989
   11.28611183  121.31600189    0.81999999    2.61999989
   11.28666687  112.98600006    0.81999999    2.61999989
   11.29250050  112.98600006    0.83999997    2.61999989
   11.29666710  114.43199921    0.83999997    2.61999989
   11.29972267  106.13800049    0.88000000    2.61999989
   11.30305576  110.62100220    0.83999997    2.61999989
   11.30638885  113.81800079    0.81999999    2.61999989
   11.30944443  119.63400269    0.81999999    2.61999989
   11.31277752  115.06600189    0.83999997    2.61999989
   11.31611156  112.28299713    0.89999998    2.64000010
   11.31916618  113.95500183    0.92000002    2.61999989
   11.31999969  112.93599701    0.95999998    2.61999989
   11.32277775  107.97100067    0.95999998    2.61999989
   11.32611084  117.93900299    0.95999998    2.61999989
   11.32916641  115.46099854    0.94000000    2.61999989
   11.33527756  115.46099854    0.94000000    2.61999989
   11.33944416  124.84200287    1.00000000    2.61999989
   11.34277725  123.88500214    0.94000000    2.61999989
   11.34583282  128.78999329    0.89999998    2.64000010
   11.34916592  124.52799988    0.89999998    2.64000010
   11.35249996  117.03099823    0.88000000    2.64000010
   11.35333347  111.24500275    0.88000000    2.64000010
   11.35611153  107.13800049    0.88000000    2.64000010
   11.35944462  113.66600037    0.89999998    2.64000010
   11.36250019  120.33100128    0.88000000    2.61999989
   11.36583328  119.58899689    0.86000001    2.64000010
   11.36888885  126.96800232    0.86000001    2.64000010
   11.37222195  120.48799896    0.86000001    2.64000010
   11.37833309  120.48799896    0.86000001    2.64000010
   11.38222218  117.15599823    0.83999997    2.64000010
   11.38555527  113.47200012    0.83999997    2.64000010
   11.38666630  130.78799438    0.83999997    2.64000010
   11.38916683  117.19499969    0.83999997    2.64000010
   11.39249992  112.24099731    0.81999999    2.64000010
   11.39555550  110.52899933    0.83999997    2.64000010
   11.39888859  121.59799957    0.81999999    2.64000010
   11.40222168  111.99199677    0.81999999    2.64000010
   11.40527725  113.50900269    0.81999999    2.64000010
   11.40861034  126.99400330    0.81999999    2.64000010
   11.41166592  126.25700378    0.80000001    2.64000010
   11.41499996  125.72399902    0.80000001    2.64000010
   11.42111111  125.72399902    0.80000001    2.66000009
   11.42527771  127.75900269    0.79000002    2.66000009
   11.42861176  125.93000031    0.80000001    2.64000010
   11.43166733  121.11499786    0.80000001    2.64000010
   11.43500042  127.94499969    0.80000001    2.66000009
   11.43805599  121.06900024    0.81999999    2.66000009
   11.44138908  125.69400024    0.81999999    2.66000009
   11.44472218  120.39499664    0.81999999    2.66000009
   11.44777775  117.38800049    0.81999999    2.64000010
   11.45111084  117.09500122    0.81999999    2.64000010
   11.45333290  116.49700165    0.83999997    2.64000010
   11.45472240  110.12899780    0.83999997    2.64000010
   11.45805550  115.99600220    0.81999999    2.66000009
   11.46388912  115.99600220    0.79000002    2.66000009
   11.46805477  109.03800201    0.76999998    2.66000009
   11.47138882  117.77100372    0.76999998    2.66000009
   11.47444439  117.94100189    0.76999998    2.66000009
   11.47777748  118.69400024    0.76999998    2.66000009
   11.48083305  117.76699829    0.76999998    2.66000009
   11.48416710  114.95899963    0.79000002    2.66000009
   11.48666668  115.03199768    0.81999999    2.66000009
   11.48777771  122.82499695    0.81999999    2.66000009
   11.49111176  118.52899933    0.81999999    2.67000008
   11.49416733  117.62300110    0.81999999    2.67000008
   11.49750042  114.03399658    0.81999999    2.66000009
   11.50083351  114.51200104    0.83999997    2.66000009
   11.50666714  114.51200104    0.83999997    2.66000009
   11.51083374  121.80500031    0.88000000    2.66000009
   11.51416683  119.32900238    0.88000000    2.67000008
   11.51722240  121.86100006    0.94000000    2.67000008
   11.51999950  132.01899719    0.94000000    2.67000008
   11.52083302  122.27100372    0.92000002    2.67000008
   11.52416611  125.48899841    0.88000000    2.67000008
   11.52722168  122.22699738    0.88000000    2.67000008
   11.53055573  122.21199799    0.89999998    2.67000008
   11.53388977  119.72499847    0.89999998    2.67000008
   11.53694534  117.65899658    1.03999996    2.66000009
   11.54027843  122.75000000    1.07000005    2.67000008
   11.54333401  117.33399963    1.09000003    2.67000008
   11.54944515  117.33399963    1.14999998    2.67000008
   11.55361176  106.77200317    1.16999996    2.66000009
   11.55694485  116.09300232    1.14999998    2.67000008
   11.56027794  116.99299622    1.14999998    2.67000008
   11.56333351  113.22799683    1.16999996    2.67000008
   11.56666660  115.63600159    1.01999998    2.67000008
   11.56999969  118.89700317    1.01999998    2.67000008
   11.57305527  116.62799835    1.01999998    2.67000008
   11.57638836  117.59799957    1.03999996    2.67000008
   11.57944393  119.93099976    1.01999998    2.67000008
   11.58277798  121.06900024    0.94000000    2.67000008
   11.58611107  125.09899902    0.86000001    2.67000008
   11.58666611  120.36100006    0.86000001    2.67000008
   11.59249973  120.36100006    0.88000000    2.67000008
   11.59666634  125.25800323    0.88000000    2.67000008
   11.59972191  128.30999756    0.86000001    2.67000008
   11.60305595  127.06199646    0.81999999    2.67000008
   11.60638905  115.35500336    0.81999999    2.67000008
   11.60944462  115.05599976    0.79000002    2.69000006
   11.61277771  118.45600128    0.79000002    2.69000006
   11.61583328  121.64800262    0.81999999    2.67000008
   11.61916637  120.37799835    0.81999999    2.67000008
   11.61999989  114.82700348    0.81999999    2.67000008
   11.62277794  116.41300201    0.80000001    2.69000006
   11.62611103  123.80899811    0.81999999    2.69000006
   11.62916660  126.77300262    0.83999997    2.69000006
   11.63527775  126.77300262    0.86000001    2.71000004
   11.63944435  124.29199982    0.88000000    2.69000006
   11.64249992  117.38700104    0.92000002    2.69000006
   11.64583302  117.11100006    0.92000002    2.69000006
   11.64916611  114.65299988    0.92000002    2.69000006
   11.65222168  116.45300293    0.88000000    2.69000006
   11.65333271  116.02500153    0.88000000    2.69000006
   11.65583324  107.58200073    0.86000001    2.69000006
   11.65916634  117.25599670    0.86000001    2.69000006
   11.66222191  113.99700165    0.86000001    2.69000006
   11.66555500  108.13800049    0.86000001    2.69000006
   11.66888905  113.45800018    0.86000001    2.69000006
   11.67194462  110.76300049    0.83999997    2.69000006
   11.67805576  110.76300049    0.86000001    2.69000006
   11.68222237  113.21099854    0.86000001    2.69000006
   11.68555546  114.58699799    0.83999997    2.69000006
   11.68666649  119.61799622    0.83999997    2.69000006
   11.68916702  111.31199646    0.86000001    2.69000006
   11.69250011  117.35199738    0.92000002    2.71000004
   11.69555569  109.03800201    0.89999998    2.71000004
   11.69888878  114.74600220    0.89999998    2.71000004
   11.70222187  129.85499573    0.89999998    2.69000006
   11.70527744  128.44299316    0.89999998    2.69000006
   11.70861053  125.47799683    0.86000001    2.69000006
   11.71194458  111.07700348    0.81999999    2.69000006
   11.71527767  116.30200195    0.81999999    2.71000004
   11.72083282  116.30200195    0.80000001    2.69000006
   11.72499943  116.32900238    0.81999999    2.69000006
   11.72833252  115.50299835    0.80000001    2.71000004
   11.73166656  133.94200134    0.80000001    2.71000004
   11.73472214  118.72599792    0.83999997    2.71000004
   11.73805618  117.18499756    0.86000001    2.71000004
   11.74138927  113.22599792    0.86000001    2.71000004
   11.74444485  125.16600037    0.83999997    2.71000004
   11.74777794  128.97900391    0.83999997    2.71000004
   11.75083351  122.10099792    0.81999999    2.71000004
   11.75361156  122.02400208    0.79000002    2.71000004
   11.75444412  122.81999969    0.79000002    2.71000004
   11.75777817  144.64500427    0.83999997    2.71000004
   11.76388931  144.64500427    0.88000000    2.71000004
   11.76805496  131.04100037    0.79000002    2.71000004
   11.77111053  137.74200439    0.79000002    2.71000004
   11.77444458  139.75399780    0.79000002    2.71000004
   11.77750015  112.16999817    0.79000002    2.71000004
   11.78083324  117.56400299    0.80000001    2.71000004
   11.78416729  122.16100311    0.80000001    2.71000004
   11.78666687  121.82299805    0.80000001    2.71000004
   11.78777790  115.52600098    0.81999999    2.71000004
   11.79111195  141.20500183    0.81999999    2.71000004
   11.79416752  129.50199890    0.81999999    2.71000004
   11.79750061  130.30400085    0.80000001    2.73000002
   11.80083370  125.40100098    0.80000001    2.73000002
   11.80666733  125.40100098    0.88000000    2.73000002
   11.81083393  118.43099976    0.89999998    2.71000004
   11.81388950  132.04499817    0.89999998    2.71000004
   11.81722260  127.09700012    0.89999998    2.73000002
   11.82055569  126.64399719    0.94000000    2.73000002
   11.82111073  115.37400055    0.94000000    2.73000002
   11.82444477  114.12400055    0.92000002    2.71000004
   11.82777786  115.83000183    0.89999998    2.71000004
   11.83083344  111.13500214    0.89999998    2.71000004
   11.83416653  135.50100708    0.92000002    2.73000002
   11.83749962  123.55000305    0.92000002    2.73000002
   11.84055519  114.01200104    0.92000002    2.73000002
   11.84388828  116.30999756    0.94000000    2.71000004
   11.84944439  116.30999756    0.95999998    2.73000002
   11.85361195  126.01100159    0.98000002    2.73000002
   11.85694504  126.75499725    1.03999996    2.73000002
   11.86000061  121.45700073    1.05999994    2.73000002
   11.86333370  123.69499969    1.13000000    2.73000002
   11.86666679  120.06500244    1.19000006    2.73000002
   11.86999989  120.87999725    1.19000006    2.73000002
   11.87305546  114.30500031    1.21000004    2.73000002
   11.87638855  127.15699768    1.11000001    2.73000002
   11.87972260  123.96800232    1.11000001    2.73000002
   11.88277817  116.26000214    1.09000003    2.73000002
   11.88611126  126.65799713    1.09000003    2.73000002
   11.88694477  130.58000183    1.13000000    2.73000002
   11.89222240  130.58000183    1.14999998    2.73000002
   11.89638901  117.45400238    1.16999996    2.73000002
   11.89972210  149.53900146    1.21000004    2.73000002
   11.90305519  133.21899414    1.25000000    2.73000002
   11.90611076  122.51899719    1.23000002    2.73000002
   11.90944386  120.80799866    1.23000002    2.73000002
   11.91277695  135.15800476    1.30999994    2.75000000
   11.91583252  127.92400360    1.30999994    2.73000002
   11.91916656  122.03500366    1.33000004    2.73000002
   11.92027855  116.93599701    1.33000004    2.73000002
   11.92277813  122.37400055    1.28999996    2.73000002
   11.92611122  118.35199738    1.25000000    2.73000002
   11.92944431  120.22599792    1.21000004    2.73000002
   11.93527794  120.22599792    1.16999996    2.73000002
   11.93944454  122.28900146    1.13000000    2.75000000
   11.94250011  132.52499390    1.07000005    2.73000002
   11.94583321  122.26899719    1.05999994    2.73000002
   11.94916630  127.55599976    1.05999994    2.73000002
   11.95222187  132.46099854    1.07000005    2.75000000
   11.95361137  128.52400208    1.07000005    2.75000000
   11.95583344  121.31600189    1.07000005    2.75000000
   11.95916653  120.93699646    1.03999996    2.73000002
   11.96249962  124.11299896    0.98000002    2.73000002
   11.96555519  116.22000122    0.98000002    2.73000002
   11.96888828  128.28199768    0.98000002    2.75000000
   11.97194386  125.31900024    0.95999998    2.75000000
   11.97805500  125.31900024    0.98000002    2.75000000
   11.98222160  119.00000000    1.05999994    2.75000000
   11.98527813  121.36399841    1.05999994    2.75000000
   11.98694515  115.45700073    1.05999994    2.75000000
   11.98888874  127.37699890    1.05999994    2.75000000
   11.99222279  134.83399963    0.98000002    2.75000000
   11.99555588  134.87199402    0.88000000    2.75000000
   11.99861145  122.36699677    0.88000000    2.75000000
   12.00194454  120.04599762    0.88000000    2.75000000
   12.00527763  121.23200226    0.88000000    2.75000000
   12.00833321  121.20899963    0.86000001    2.75000000
   12.01166630  118.26999664    0.80000001    2.75000000
   12.01500034  117.68299866    0.80000001    2.75000000
   12.02083302  117.68299866    0.83999997    2.75000000
   12.02499962  121.65799713    0.86000001    2.75000000
   12.02833271  113.13200378    0.83999997    2.75000000
   12.03166676  110.35099792    0.86000001    2.75000000
   12.03472233  112.09200287    0.88000000    2.75000000
   12.03805637  119.45200348    0.88000000    2.75000000
   12.04138947  114.54599762    0.89999998    2.75000000
   12.04444504  113.89600372    0.88000000    2.76999998
   12.04777813  112.73699951    0.86000001    2.76999998
   12.05083370  120.74600220    0.86000001    2.75000000
   12.05361176  117.52200317    0.86000001    2.75000000
   12.05444431  117.39600372    0.88000000    2.75000000
   12.05777836  120.28800201    0.88000000    2.75000000
   12.06388950  120.28800201    0.92000002    2.75000000
   12.06777763  119.12799835    0.88000000    2.76999998
   12.07111073  115.09999847    0.88000000    2.75000000
   12.07444477  114.24500275    0.89999998    2.75000000
   12.07750034  116.40899658    0.89999998    2.75000000
   12.08083344  120.53399658    0.86000001    2.76999998
   12.08416653  115.55899811    0.89999998    2.75000000
   12.08694458  116.82900238    0.94000000    2.75000000
   12.08749962  117.12599945    0.94000000    2.75000000
   12.09083271  122.57599640    0.98000002    2.75000000
   12.09416676  117.57499695    0.98000002    2.76999998
   12.09722233  114.00800323    0.98000002    2.76999998
   12.10055637  115.68199921    0.95999998    2.76999998
   12.10666752  115.68199921    0.95999998    2.76999998
   12.11083412  117.99900055    1.03999996    2.76999998
   12.11416721  127.64399719    1.07000005    2.76999998
   12.11750031  120.02999878    1.09000003    2.76999998
   12.12027836  118.94899750    1.09000003    2.76999998
   12.12111092  113.26000214    1.11000001    2.76999998
   12.12444496  113.03800201    1.11000001    2.76999998
   12.12777805  116.55200195    1.07000005    2.76999998
   12.13083363  114.11900330    1.09000003    2.76999998
   12.13416672  119.46199799    1.01999998    2.76999998
   12.13722229  119.12699890    0.98000002    2.75000000
   12.14055538  118.49900055    1.05999994    2.76999998
   12.14388847  121.92199707    1.05999994    2.76999998
   12.14944458  121.92199707    1.00000000    2.76999998
   12.15361118  121.14700317    1.09000003    2.76999998
   12.15666676  130.64900208    1.07000005    2.76999998
   12.15999985  119.54699707    0.89999998    2.76999998
   12.16333294  121.39499664    0.88000000    2.76999998
   12.16638851  122.07700348    0.88000000    2.76999998
   12.16972256  115.14700317    0.94000000    2.76999998
   12.17305565  119.34999847    0.98000002    2.76999998
   12.17611122  122.31400299    1.11000001    2.76999998
   12.17944431  115.48000336    1.14999998    2.76999998
   12.18249989  119.47100067    1.14999998    2.76999998
   12.18583298  124.13999939    1.09000003    2.76999998
   12.18694496  116.48000336    1.34000003    2.76999998
   12.20749950  116.48000336    1.44000006    2.75000000
   12.21166611  115.97299957    1.44000006    2.76999998
   12.21500015  121.51000214    1.44000006    2.76999998
   12.21805477  119.27600098    1.36000001    2.78999996
   12.22027779  116.12599945    1.41999996    2.78999996
   12.22166634  115.32599640    1.41999996    2.78999996
   12.22499943  118.32599640    1.44000006    2.76999998
   12.22833252  115.97000122    1.33000004    2.76999998
   12.23138809  116.28700256    1.33000004    2.76999998
   12.23472214  116.42700195    1.16999996    2.76999998
   12.23805618  106.34700012    1.09000003    2.76999998
   12.24111176  117.25900269    1.05999994    2.78999996
   12.24444485  115.21499634    1.01999998    2.76999998
   12.25027752  115.21499634    0.98000002    2.78999996
   12.25444412  117.92700195    0.95999998    2.78999996
   12.25777817  120.02400208    1.00000000    2.78999996
   12.26083374  112.08100128    1.00000000    2.78999996
   12.26416683  113.10700226    1.00000000    2.78999996
   12.26749992  112.60600281    1.00000000    2.78999996
   12.27055550  113.50599670    0.98000002    2.78999996
   12.27388859  114.95800018    0.92000002    2.78999996
   12.27694416  121.62599945    0.92000002    2.78999996
   12.28027725  115.76000214    0.92000002    2.78999996
   12.28361130  129.79899597    0.92000002    2.78999996
   12.28666687  122.32199860    0.88000000    2.78999996
   12.28722286  127.34799957    0.89999998    2.78999996
   12.29305553  127.34799957    0.89999998    2.78999996
   12.29722309  119.52999878    0.83999997    2.78999996
   12.30055618  119.42900085    0.81999999    2.78999996
   12.30361176  118.61599731    0.83999997    2.78999996
   12.30694485  126.54399872    0.86000001    2.78999996
   12.31027794  114.41699982    0.86000001    2.78999996
   12.31333351  119.50900269    0.86000001    2.80999994
   12.31666660  120.27200317    0.88000000    2.78999996
   12.31999969  121.78299713    0.83999997    2.78999996
   12.32055569  113.08200073    0.83999997    2.78999996
   12.32361126  115.42299652    0.83999997    2.78999996
   12.32666683  118.59700012    0.83999997    2.78999996
   12.32999992  121.85900116    0.81999999    2.78999996
   12.33611107  121.85900116    0.88000000    2.78999996
   12.34000015  111.83899689    0.88000000    2.78999996
   12.34333324  108.26399994    0.86000001    2.78999996
   12.34666634  112.62100220    0.88000000    2.78999996
   12.34972191  120.01000214    0.88000000    2.78999996
   12.35305595  107.79100037    0.86000001    2.80999994
   12.35388947  112.31300354    0.88000000    2.80999994
   12.35666752  116.50000000    0.89999998    2.80999994
   12.35972214  113.48500061    0.89999998    2.78999996
   12.36305618  117.54100037    0.89999998    2.78999996
   12.36638927  109.30200195    0.89999998    2.78999996
   12.36944485  109.01899719    0.89999998    2.78999996
   12.37277794  114.59100342    0.89999998    2.78999996
   12.37888908  114.59100342    0.88000000    2.80999994
   12.38305569  113.52300262    0.89999998    2.78999996
   12.38611126  112.54199982    0.88000000    2.78999996
   12.38722229  118.85500336    0.88000000    2.78999996
   12.38972187  117.98100281    0.88000000    2.78999996
   12.39305496  116.58599854    0.86000001    2.80999994
   12.39611053  116.25099945    0.86000001    2.80999994
   12.39944458  116.60500336    0.86000001    2.78999996
   12.40277767  114.73500061    0.81999999    2.80999994
   12.40611076  113.70400238    0.80000001    2.78999996
   12.40916634  112.24199677    0.80000001    2.78999996
   12.41249943  113.38400269    0.79000002    2.80999994
   12.41583252  120.51699829    0.79000002    2.80999994
   12.42166710  120.51699829    0.76999998    2.78999996
   12.42583370  120.39399719    0.75000000    2.80999994
   12.42916679  124.80400085    0.75000000    2.80999994
   12.43222237  118.38200378    0.75000000    2.80999994
   12.43555546  121.32099915    0.75000000    2.80999994
   12.43861103  121.69799805    0.75000000    2.80999994
   12.44194412  125.24800110    0.75000000    2.82999992
   12.44527817  119.07199860    0.75000000    2.80999994
   12.44833374  124.32599640    0.75000000    2.80999994
   12.45166683  123.81099701    0.75000000    2.80999994
   12.45388889  112.11000061    0.75000000    2.80999994
   12.45527744  113.10099792    0.75000000    2.80999994
   12.45861053  113.50399780    0.75000000    2.80999994
   12.46444416  113.50399780    0.73000002    2.80999994
   12.46861076  113.86000061    0.73000002    2.82999992
   12.47194386  116.38999939    0.73000002    2.80999994
   12.47499943  116.50099945    0.75000000    2.80999994
   12.47833252  110.98400116    0.73000002    2.80999994
   12.48166656  110.22200012    0.73000002    2.80999994
   12.48472214  107.84899902    0.75000000    2.82999992
   12.48722267  113.62599945    0.75000000    2.80999994
   12.48833370  113.88999939    0.75000000    2.80999994
   12.49166679  115.41100311    0.73000002    2.80999994
   12.49472237  115.67299652    0.73000002    2.80999994
   12.49805546  114.45999908    0.73000002    2.82999992
   12.50138855  114.56400299    0.73000002    2.82999992
   12.50749969  114.56400299    0.70999998    2.80999994
   12.51138878  106.77600098    0.73000002    2.80999994
   12.51472187  109.47100067    0.73000002    2.80999994
   12.51805496  106.60500336    0.73000002    2.82999992
   12.52055550  112.20899963    0.73000002    2.82999992
   12.52166653  114.16000366    0.73000002    2.80999994
   12.52499962  112.04900360    0.73000002    2.80999994
   12.52805519  110.52899933    0.73000002    2.82999992
   12.53138828  114.36699677    0.73000002    2.82999992
   12.53444481  114.71900177    0.73000002    2.80999994
   12.53777790  112.78500366    0.73000002    2.80999994
   12.54111195  115.43900299    0.73000002    2.82999992
   12.54444504  122.58699799    0.73000002    2.80999994
   12.55027771  122.58699799    0.75000000    2.80999994
   12.55444431  119.05100250    0.76999998    2.82999992
   12.55749989  119.09799957    0.79000002    2.82999992
   12.56083393  124.16200256    0.79000002    2.80999994
   12.56416702  123.03299713    0.79000002    2.82999992
   12.56722260  130.86099243    0.79000002    2.82999992
   12.57055569  123.38099670    0.79000002    2.82999992
   12.57361126  116.56300354    0.79000002    2.82999992
   12.57694435  116.23000336    0.76999998    2.82999992
   12.58027744  113.90699768    0.79000002    2.82999992
   12.58333302  130.46099854    0.76999998    2.82999992
   12.58666611  122.90699768    0.75000000    2.82999992
   12.58722210  121.20500183    0.75000000    2.82999992
   12.59305477  121.20500183    0.75000000    2.82999992
   12.59722233  118.97499847    0.76999998    2.82999992
   12.60055637  117.89199829    0.76999998    2.82999992
   12.60361195  117.37500000    0.79000002    2.84999990
   12.60694504  114.26300049    0.79000002    2.82999992
   12.61000061  114.12599945    0.79000002    2.82999992
   12.61333370  129.10899353    0.80000001    2.80999994
   12.61666679  125.27500153    0.83999997    2.82999992
   12.61972237  118.30400085    0.83999997    2.82999992
   12.62055588  114.75000000    0.83999997    2.82999992
   12.62333393  121.90299988    0.83999997    2.82999992
   12.62666702  126.47200012    0.83999997    2.82999992
   12.63000011  115.84999847    0.83999997    2.82999992
   12.63583279  115.84999847    0.83999997    2.80999994
   12.64000034  128.64399719    0.83999997    2.82999992
   12.64333344  121.23100281    0.86000001    2.82999992
   12.64666653  119.12500000    0.88000000    2.82999992
   12.64972210  131.04600525    0.88000000    2.82999992
   12.65305519  114.72699738    0.88000000    2.82999992
   12.65388870  114.52200317    0.88000000    2.82999992
   12.65666676  106.88899994    0.88000000    2.82999992
   12.65999985  130.72999573    0.88000000    2.82999992
   12.66305542  129.17999268    0.88000000    2.82999992
   12.66638851  127.99900055    0.92000002    2.82999992
   12.66972256  126.45999908    0.92000002    2.82999992
   12.67277813  130.10499573    0.92000002    2.82999992
   12.67888927  130.10499573    0.92000002    2.82999992
   12.68305588  119.96900177    0.92000002    2.82999992
   12.68611145  119.26399994    0.94000000    2.84999990
   12.68722248  122.69599915    0.94000000    2.84999990
   12.68972206  116.16400146    0.94000000    2.82999992
   12.69305515  122.99400330    0.95999998    2.82999992
   12.69611073  125.79100037    0.95999998    2.82999992
   12.69944477  127.00700378    0.98000002    2.82999992
   12.70277786  117.26399994    0.98000002    2.82999992
   12.70583344  119.62200165    0.98000002    2.82999992
   12.70916653  119.00700378    0.95999998    2.82999992
   12.71222210  125.16300201    0.95999998    2.84999990
   12.71555519  123.12799835    0.95999998    2.82999992
   12.72166634  123.12799835    0.95999998    2.82999992
   12.72583294  124.98000336    0.94000000    2.84999990
   12.72888851  125.93099976    0.92000002    2.84999990
   12.73222160  127.14700317    0.89999998    2.82999992
   12.73555565  128.55000305    0.88000000    2.82999992
   12.73861122  126.56199646    0.86000001    2.84999990
   12.74194431  130.29499817    0.86000001    2.84999990
   12.74527836  131.07600403    0.83999997    2.84999990
   12.74833393  136.16299438    0.81999999    2.84999990
   12.75166702  136.90400696    0.79000002    2.82999992
   12.75388908  135.84599304    0.79000002    2.82999992
   12.75527763  139.84100342    0.79000002    2.84999990
   12.75861073  135.55000305    0.76999998    2.84999990
   12.76444435  135.55000305    0.75000000    2.84999990
   12.76861095  130.50900269    0.75000000    2.82999992
   12.77194405  125.35299683    0.75000000    2.84999990
   12.77499962  126.77400208    0.75000000    2.84999990
   12.77833271  126.98400116    0.75000000    2.84999990
   12.78138828  122.14900208    0.75000000    2.84999990
   12.78472233  124.56099701    0.75000000    2.84999990
   12.78722286  136.81100464    0.75000000    2.84999990
   12.78833389  128.54600525    0.75000000    2.84999990
   12.79166698  125.36000061    0.75000000    2.84999990
   12.79472256  126.55599976    0.73000002    2.84999990
   12.79805565  129.87800598    0.75000000    2.84999990
   12.80138874  120.93000031    0.75000000    2.84999990
   12.80722237  120.93000031    0.75000000    2.84999990
   12.81138897  121.32399750    0.75000000    2.84999990
   12.81472206  130.72099304    0.75000000    2.84999990
   12.81777763  125.57099915    0.75000000    2.86999989
   12.82055569  125.75199890    0.76999998    2.84999990
   12.82138920  123.19899750    0.76999998    2.84999990
   12.82472229  124.09200287    0.76999998    2.84999990
   12.82777786  126.70600128    0.76999998    2.84999990
   12.83111095  127.99900055    0.79000002    2.86999989
   12.83444405  129.65899658    0.79000002    2.82999992
   12.83749962  134.95100403    0.80000001    2.86999989
   12.84111118  125.05300140    0.80000001    2.84999990
   12.84444427  123.06600189    0.80000001    2.84999990
   12.85055637  123.06600189    0.80000001    2.84999990
   12.85472298  126.66400146    0.80000001    2.84999990
   12.85777855  130.59700012    0.81999999    2.84999990
   12.86111164  127.21199799    0.81999999    2.84999990
   12.86416721  125.19100189    0.81999999    2.86999989
   12.86750031  128.07800293    0.81999999    2.84999990
   12.87083340  119.71299744    0.81999999    2.84999990
   12.87388897  133.45500183    0.81999999    2.84999990
   12.87722206  133.94700623    0.81999999    2.84999990
   12.88055611  134.03900146    0.81999999    2.84999990
   12.88361073  129.18299866    0.80000001    2.86999989
   12.88694477  132.22099304    0.80000001    2.86999989
   12.88749981  131.53399658    0.81999999    2.86999989
   12.89333344  131.53399658    0.80000001    2.84999990
   12.89750004  133.43699646    0.80000001    2.84999990
   12.90055561  132.31500244    0.80000001    2.86999989
   12.90388870  124.12899780    0.81999999    2.84999990
   12.90722179  124.46700287    0.81999999    2.84999990
   12.91027737  121.33100128    0.81999999    2.84999990
   12.91361046  125.42299652    0.81999999    2.84999990
   12.91694450  123.62599945    0.81999999    2.86999989
   12.92000008  119.21700287    0.81999999    2.84999990
   12.92083359  120.23999786    0.81999999    2.84999990
   12.92361164  119.53800201    0.81999999    2.84999990
   12.92694473  120.98200226    0.81999999    2.84999990
   12.93027782  121.12200165    0.81999999    2.84999990
   12.93611145  121.12200165    0.83999997    2.84999990
   12.94027805  118.15699768    0.80000001    2.84999990
   12.94361115  124.17299652    0.83999997    2.84999990
   12.94666672  120.65100098    0.83999997    2.86999989
   12.94999981  122.11900330    0.83999997    2.86999989
   12.95333290  124.56099701    0.81999999    2.86999989
   12.95416641  113.07599640    0.81999999    2.86999989
   12.95694447  109.98300171    0.81999999    2.86999989
   12.96000004  116.13400269    0.81999999    2.84999990
   12.96333313  116.11100006    0.80000001    2.84999990
   12.96638870  118.72299957    0.79000002    2.86999989
   12.96972179  110.68599701    0.79000002    2.86999989
   12.97305489  124.52400208    0.79000002    2.86999989
   12.97888851  124.52400208    0.80000001    2.84999990
   12.98305511  119.49500275    0.80000001    2.84999990
   12.98638916  116.72299957    0.80000001    2.86999989
   12.98750019  117.51200104    0.80000001    2.86999989
   12.98972225  118.78700256    0.81999999    2.86999989
   12.99305534  115.76699829    0.83999997    2.84999990
   12.99638939  117.12999725    0.83999997    2.84999990
   12.99944496  123.66100311    0.86000001    2.86999989
   13.00277805  121.62000275    0.88000000    2.84999990
   13.00611115  126.44699860    0.81999999    2.84999990
   13.00916672  121.15699768    0.80000001    2.84999990
   13.01249981  123.28500366    0.79000002    2.84999990
   13.01583290  123.34700012    0.79000002    2.84999990
   13.02194405  123.34700012    0.79000002    2.84999990
   13.02611065  118.31900024    0.79000002    2.86999989
   13.02916622  130.45700073    0.79000002    2.84999990
   13.03249931  122.49500275    0.76999998    2.86999989
   13.03555584  125.52600098    0.76999998    2.86999989
   13.03888893  120.55300140    0.76999998    2.86999989
   13.04222298  120.93099976    0.75000000    2.86999989
   13.04555607  112.20300293    0.75000000    2.86999989
   13.04861164  122.44599915    0.75000000    2.86999989
   13.05194473  123.30899811    0.73000002    2.86999989
   13.05416679  117.77700043    0.73000002    2.86999989
   13.05527782  107.75000000    0.73000002    2.86999989
   13.05861092  109.83000183    0.73000002    2.84999990
   13.06472206  109.83000183    0.70999998    2.86999989
   13.06888866  115.94999695    0.69000000    2.89000010
   13.07194424  111.63500214    0.69000000    2.86999989
   13.07527733  109.49199677    0.70999998    2.86999989
   13.07861137  114.44000244    0.70999998    2.86999989
   13.08166695  117.11100006    0.69000000    2.86999989
   13.08500004  114.72000122    0.67000002    2.86999989
   13.08749962  120.84200287    0.69000000    2.86999989
   13.08861065  114.93900299    0.69000000    2.86999989
   13.09194374  120.13400269    0.67000002    2.86999989
   13.09527779  115.94400024    0.67000002    2.86999989
   13.09833336  112.21099854    0.69000000    2.86999989
   13.10166740  119.38200378    0.69000000    2.86999989
   13.10750008  119.38200378    0.69000000    2.86999989
   13.11166668  116.88800049    0.70999998    2.86999989
   13.11500072  114.45500183    0.83999997    2.86999989
   13.11833382  114.37500000    0.75000000    2.89000010
   13.12083340  118.83300018    0.75000000    2.89000010
   13.12166691  118.78399658    0.73000002    2.86999989
   13.12500000  106.30699921    0.73000002    2.86999989
   13.12833309  110.70700073    0.75000000    2.86999989
   13.13138866  109.65899658    0.75000000    2.86999989
   13.13472176  110.23999786    0.76999998    2.86999989
   13.13805580  115.51000214    0.81999999    2.86999989
   13.14111137  114.50599670    0.80000001    2.86999989
   13.14444447  114.75800323    0.80000001    2.86999989
   13.15027714  114.75800323    0.75000000    2.86999989
   13.15444374   99.81469727    0.73000002    2.86999989
   13.15777779  111.02300262    0.75000000    2.89000010
   13.16111088  123.05599976    0.75000000    2.89000010
   13.16416645  125.70300293    0.75000000    2.86999989
   13.16750050  116.70700073    0.75000000    2.89000010
   13.17055607  118.59200287    0.73000002    2.86999989
   13.17388916  124.38999939    0.73000002    2.86999989
   13.17722225  117.84200287    0.75000000    2.89000010
   13.18027782  123.60199738    0.75000000    2.89000010
   13.18361092  118.56199646    0.75000000    2.89000010
   13.18666649  117.67400360    0.75000000    2.86999989
   13.18750000  116.68499756    0.75000000    2.86999989
   13.19333363  116.68499756    0.76999998    2.86999989
   13.19750023  117.24800110    0.76999998    2.89000010
   13.20055580  129.62500000    0.79000002    2.89000010
   13.20388889  121.17700195    0.79000002    2.89000010
   13.22138882  118.12899780    0.76999998    2.86999989
   13.22388840  111.50800323    0.76999998    2.86999989
   13.22722149  115.11399841    0.75000000    2.89000010
   13.23027706  113.11599731    0.76999998    2.89000010
   13.23638916  113.11599731    0.73000002    2.89000010
   13.24027824  112.02300262    0.70999998    2.89000010
   13.24361134  117.78399658    0.70999998    2.86999989
   13.24694443  119.60199738    0.70999998    2.89000010
   13.25000000  123.47200012    0.69000000    2.86999989
   13.25333309  121.92700195    0.69000000    2.86999989
   13.25472260  117.60399628    0.69000000    2.89000010
   13.25722218  120.33499908    0.69000000    2.89000010
   13.26055527  123.96299744    0.70999998    2.89000010
   13.26361084  120.13500214    0.69000000    2.89000010
   13.26694393  119.83200073    0.70999998    2.89000010
   13.27027798  122.38899994    0.70999998    2.89000010
   13.27333355  117.23899841    0.70999998    2.89000010
   13.27916622  117.23899841    0.69000000    2.89000010
   13.28333378  108.26100159    0.67000002    2.89000010
   13.28638935  107.65799713    0.64999998    2.89000010
   13.28805637  113.24500275    0.64999998    2.89000010
   13.29027843  113.52700043    0.64999998    2.89000010
   13.29333401  113.54000092    0.63000000    2.89000010
   13.29666710  111.83100128    0.61000001    2.89000010
   13.29972267  113.84200287    0.61000001    2.89000010
   13.30305576  114.66200256    0.61000001    2.89000010
   13.30638885  114.34799957    0.58999997    2.89000010
   13.30972195  114.34100342    0.61000001    2.89000010
   13.31277752  114.80699921    0.58999997    2.86999989
   13.31611156  114.72799683    0.58999997    2.86999989
   13.32194424  114.72799683    0.61000001    2.89000010
   13.32611084  117.87999725    0.61000001    2.89000010
   13.32944393  117.28099823    0.63000000    2.89000010
   13.33249950  119.30200195    0.61000001    2.89000010
   13.33583260  107.83799744    0.61000001    2.89000010
   13.33888817  118.28800201    0.61000001    2.89000010
   13.34222221  116.65499878    0.61000001    2.89000010
   13.34555531  121.77600098    0.63000000    2.89000010
   13.34861088  116.01899719    0.61000001    2.89000010
   13.35194492  116.53500366    0.63000000    2.89000010
   13.35472298  109.12599945    0.63000000    2.89000010
   13.35555553  113.09600067    0.63000000    2.89000010
   13.35861111  102.68499756    0.63000000    2.89000010
   13.36472225  102.68499756    0.63000000    2.89000010
   13.36888885  114.06199646    0.63000000    2.89000010
   13.37222195  120.14700317    0.63000000    2.89000010
   13.37555599  114.89199829    0.64999998    2.91000009
   13.37861156  115.87599945    0.64999998    2.91000009
   13.38194466  112.48600006    0.64999998    2.89000010
   13.38527775  117.66799927    0.67000002    2.89000010
   13.38805580  119.59999847    0.67000002    2.89000010
   13.38888836  121.79900360    0.69000000    2.91000009
   13.39194393  117.48400116    0.69000000    2.91000009
   13.39527798  115.62000275    0.69000000    2.86999989
   13.39861107  189.81599426    0.69000000    2.89000010
   13.40166664  115.61199951    0.67000002    2.89000010
   13.40777779  115.61199951    0.67000002    2.89000010
   13.41194439  125.65399933    0.69000000    2.91000009
   13.41499996  115.94699860    0.67000002    2.89000010
   13.41833401  117.06400299    0.67000002    2.89000010
   13.42138958  119.97100067    0.67000002    2.89000010
   13.42194462  119.09600067    0.67000002    2.89000010
   13.42500019  123.77100372    0.70999998    2.89000010
   13.42833328  105.98799896    0.70999998    2.89000010
   13.43138885  104.84200287    0.70999998    2.89000010
   13.43472195  111.49600220    0.69000000    2.91000009
   13.43805599  113.07099915    0.70999998    2.91000009
   13.44111156  111.39299774    0.70999998    2.89000010
   13.44444466  115.02899933    0.70999998    2.89000010
   13.45055580  115.02899933    0.67000002    2.89000010
   13.45472240  116.76399994    0.67000002    2.89000010
   13.45527744  115.05899811    0.67000002    2.89000010
   13.45833302  112.57499695    0.67000002    2.91000009
   13.46166611  118.47399902    0.64999998    2.89000010
   13.46500015  109.89199829    0.64999998    2.89000010
   13.46805477  108.95600128    0.64999998    2.89000010
   13.47138882  112.49299622    0.64999998    2.91000009
   13.47472191  111.09899902    0.64999998    2.91000009
   13.47777748  113.33399963    0.64999998    2.91000009
   13.48111057  112.18199921    0.67000002    2.91000009
   13.48416710  111.85700226    0.67000002    2.89000010
   13.48750019  114.32700348    0.67000002    2.89000010
   13.48805618  116.55899811    0.67000002    2.89000010
   13.49333382  116.55899811    0.67000002    2.91000009
   13.49750042  121.75800323    0.67000002    2.89000010
   13.50083351  115.66600037    0.69000000    2.89000010
   13.50388908  112.82700348    0.69000000    2.89000010
   13.50722218  114.28099823    0.69000000    2.89000010
   13.51055527  107.02799988    0.69000000    2.89000010
   13.51361084  116.58699799    0.69000000    2.89000010
   13.51694393  117.80000305    0.69000000    2.89000010
   13.52027798  114.93699646    0.70999998    2.91000009
   13.52138901  115.34600067    0.70999998    2.91000009
   13.52388859  113.09600067    0.75000000    2.91000009
   13.52694416  116.62500000    0.73000002    2.89000010
   13.53027725  114.26300049    0.70999998    2.91000009
   13.53611183  114.26300049    0.69000000    2.91000009
   13.54027843  104.72200012    0.69000000    2.91000009
   13.54361153  112.90499878    0.67000002    2.91000009
   13.54694462  108.27200317    0.64999998    2.91000009
   13.55000019  107.06800079    0.64999998    2.93000007
   13.55333328  111.00099945    0.64999998    2.93000007
   13.55472279  110.46299744    0.63000000    2.91000009
   13.55694485  115.19200134    0.63000000    2.91000009
   13.56027794  113.73200226    0.63000000    2.89000010
   13.56333351  118.00900269    0.69000000    2.91000009
   13.56666660  116.69400024    0.63000000    2.91000009
   13.56999969  113.07199860    0.63000000    2.91000009
   13.57333374  113.53900146    0.63000000    2.91000009
   13.57916641  113.53900146    0.64999998    2.93000007
   13.58305550  113.18099976    0.63000000    2.91000009
   13.58638859  112.44999695    0.63000000    2.91000009
   13.58805561  116.62200165    0.64999998    2.91000009
   13.59000015  113.73000336    0.64999998    2.91000009
   13.59305477  114.73200226    0.64999998    2.91000009
   13.59638882  112.89800262    0.64999998    2.91000009
   13.59972191  109.30999756    0.63000000    2.89000010
   13.60277843  115.70800018    0.64999998    2.91000009
   13.60611153  117.77700043    0.64999998    2.91000009
   13.60944462  120.41699982    0.63000000    2.91000009
   13.61250019  120.90799713    0.63000000    2.91000009
   13.61583328  117.81600189    0.63000000    2.91000009
   13.62194443  117.81600189    0.63000000    2.91000009
   13.62611103  114.69300079    0.63000000    2.91000009
   13.62944412  114.37300110    0.63000000    2.91000009
   13.63249969  114.50599670    0.63000000    2.91000009
   13.63583279  116.79900360    0.63000000    2.91000009
   13.63916683  116.64900208    0.63000000    2.91000009
   13.64222240  115.88600159    0.63000000    2.91000009
   13.64555550  115.52300262    0.63000000    2.89000010
   13.64861107  117.33399963    0.61000001    2.91000009
   13.65194416  117.94400024    0.61000001    2.91000009
   13.65472221  115.58100128    0.58999997    2.91000009
   13.65555477  115.04499817    0.58999997    2.91000009
   13.65861034  111.90100098    0.58999997    2.91000009
   13.66472149  111.90100098    0.56999999    2.91000009
   13.66888905  113.76699829    0.55000001    2.91000009
   13.67222214  113.32099915    0.55000001    2.91000009
   13.67527771  105.51599884    0.56999999    2.91000009
   13.67861176  107.91300201    0.55000001    2.91000009
   13.68194485  103.15100098    0.52999997    2.93000007
   13.68500042  109.61299896    0.52999997    2.91000009
   13.68805599  113.79699707    0.52999997    2.91000009
   13.68861103  109.32199860    0.52999997    2.91000009
   13.69166660  113.48699951    0.52999997    2.93000007
   13.69499969  114.44400024    0.52999997    2.93000007
   13.69833374  113.72899628    0.55000001    2.91000009
   13.70138836  108.48000336    0.52999997    2.93000007
   13.70749950  108.48000336    0.55000001    2.91000009
   13.71166611  113.30699921    0.55000001    2.91000009
   13.71500015  114.70700073    0.55000001    2.91000009
   13.71805477  117.81400299    0.55000001    2.91000009
   13.72138882  111.95899963    0.55000001    2.94000006
   13.72194386  115.42600250    0.55000001    2.94000006
   13.72527695  112.82499695    0.56999999    2.93000007
   13.72833252  105.88800049    0.56999999    2.93000007
   13.73166656  103.33399963    0.56999999    2.93000007
   13.73472214  107.35800171    0.56999999    2.91000009
   13.73805618  110.94699860    0.56999999    2.91000009
   13.74138927  116.91899872    0.56999999    2.93000007
   13.74444485  117.26699829    0.56999999    2.93000007
   13.75055599  117.26699829    0.56999999    2.91000009
   13.75444412  105.35399628    0.56999999    2.93000007
   13.75500011  106.54499817    0.56999999    2.93000007
   13.75833321  111.70899963    0.56999999    2.93000007
   13.76166630  113.87400055    0.56999999    2.93000007
   13.76472187  114.58699799    0.58999997    2.91000009
   13.76805496  111.71900177    0.58999997    2.91000009
   13.77138901  112.68199921    0.61000001    2.91000009
   13.77444458  108.25599670    0.58999997    2.93000007
   13.77777767  111.65000153    0.58999997    2.91000009
   13.78111076  114.76599884    0.56999999    2.91000009
   13.78416729  115.75000000    0.56999999    2.93000007
   13.78750038  110.99800110    0.56999999    2.93000007
   13.78833389  108.81300354    0.56999999    2.93000007
   13.79333401  108.81300354    0.56999999    2.93000007
   13.79750061  114.38899994    0.56999999    2.93000007
   13.80055618  115.51499939    0.56999999    2.93000007
   13.80388927  111.02400208    0.56999999    2.93000007
   13.80722237  109.46399689    0.56999999    2.93000007
   13.81055546  109.45700073    0.55000001    2.93000007
   13.81361103  115.20200348    0.55000001    2.93000007
   13.81694412  116.01599884    0.56999999    2.93000007
   13.82027817  107.24900055    0.56999999    2.93000007
   13.82166672  112.89199829    0.56999999    2.93000007
   13.82388878  106.71399689    0.56999999    2.93000007
   13.82722187  106.20800018    0.56999999    2.93000007
   13.83027744  111.31900024    0.56999999    2.93000007
   13.83611107  111.31900024    0.56999999    2.91000009
   13.84027767  112.01899719    0.56999999    2.93000007
   13.84361076  110.53700256    0.56999999    2.93000007
   13.84666634  112.25299835    0.56999999    2.93000007
   13.85000038  109.78299713    0.56999999    2.93000007
   13.85305595  110.99099731    0.56999999    2.93000007
   13.85500050  109.58799744    0.56999999    2.93000007
   13.85666752  109.69999695    0.58999997    2.93000007
   13.86000061  116.24700165    0.56999999    2.91000009
   13.86305618  116.52700043    0.56999999    2.91000009
   13.86638927  115.03500366    0.58999997    2.93000007
   13.86972237  111.57499695    0.58999997    2.91000009
   13.87277794  107.97100067    0.58999997    2.91000009
   13.87888908  107.97100067    0.56999999    2.93000007
   13.88305569  107.62300110    0.56999999    2.93000007
   13.88638878  105.73200226    0.56999999    2.93000007
   13.88861084  106.77999878    0.55000001    2.93000007
   13.89027786  104.71700287    0.55000001    2.93000007
   13.89333344  110.54699707    0.55000001    2.93000007
   13.89666653  110.44899750    0.55000001    2.94000006
   13.89999962  106.67099762    0.55000001    2.93000007
   13.90305519  109.24099731    0.55000001    2.93000007
   13.90638828  109.52600098    0.55000001    2.93000007
   13.90944386  111.23300171    0.55000001    2.93000007
   13.91277695  109.66400146    0.55000001    2.93000007
   13.91611099  111.76999664    0.55000001    2.93000007
   13.92194462  111.76999664    0.55000001    2.93000007
   13.92583370  124.44300079    0.52999997    2.93000007
   13.92916679  116.13899994    0.52999997    2.93000007
   13.93249989  115.08799744    0.52999997    2.93000007
   13.93555546  105.03600311    0.52999997    2.94000006
   13.93888855  114.55400085    0.51999998    2.93000007
   13.94222260  117.23600006    0.51999998    2.93000007
   13.94527817  109.39700317    0.52999997    2.93000007
   13.94861126  105.89499664    0.51999998    2.93000007
   13.95166683  107.84899902    0.51999998    2.93000007
   13.95499992  108.38700104    0.51999998    2.93000007
   13.95555496  109.33499908    0.51999998    2.93000007
   13.95888901  103.81999969    0.51999998    2.93000007
   13.96472168  103.81999969    0.52999997    2.93000007
   13.96888828  107.04599762    0.55000001    2.94000006
   13.97194386  102.59200287    0.58999997    2.93000007
   13.97527695  101.58399963    0.58999997    2.93000007
   13.97861099  103.59400177    0.58999997    2.93000007
   13.98166656  109.28099823    0.61000001    2.94000006
   13.98500061  109.52100372    0.63000000    2.93000007
   13.98805618  106.72100067    0.63000000    2.93000007
   13.98888874  110.03800201    0.63000000    2.93000007
   13.99194431  111.86100006    0.67000002    2.94000006
   13.99499989  111.88999939    0.64999998    2.93000007
   13.99833393  104.89600372    0.64999998    2.94000006
   14.00166702  108.24900055    0.67000002    2.94000006
   14.00749969  108.24900055    0.70999998    2.93000007
   14.01166630  117.00299835    0.70999998    2.93000007
   14.01472187  112.62400055    0.69000000    2.93000007
   14.01805496  114.55300140    0.69000000    2.93000007
   14.02138901  111.26399994    0.70999998    2.94000006
   14.02222157  106.54000092    0.70999998    2.94000006
   14.02499962  109.19699860    0.75000000    2.93000007
   14.02833271  109.45300293    0.79000002    2.93000007
   14.03166676  110.21299744    0.83999997    2.94000006
   14.03472233  108.62000275    0.83999997    2.94000006
   14.03805637  111.97699738    0.89999998    2.93000007
   14.04111195  111.65699768    0.98000002    2.93000007
   14.04444504  112.08799744    1.00000000    2.93000007
   14.05027771  112.08799744    1.00000000    2.94000006
   14.05444431  108.48400116    0.98000002    2.93000007
   14.05555534  110.29299927    0.98000002    2.93000007
   14.05833340  115.08999634    0.98000002    2.94000006
   14.06138897  117.62400055    0.98000002    2.94000006
   14.06472206  107.33000183    0.83999997    2.94000006
   14.06805515  113.78099823    0.83999997    2.94000006
   14.07111073  117.09500122    0.81999999    2.93000007
   14.07444477  109.84500122    0.81999999    2.93000007
   14.07750034  113.58399963    0.80000001    2.93000007
   14.08083344  118.43000031    0.80000001    2.93000007
   14.08416653  117.40599823    0.80000001    2.93000007
   14.08722210  119.92099762    0.80000001    2.93000007
   14.08888817  118.58899689    0.79000002    2.93000007
   14.09333324  118.58899689    0.76999998    2.94000006
   14.09722233  108.57800293    0.73000002    2.94000006
   14.10055637  108.37699890    0.73000002    2.93000007
   14.10388947  112.97100067    0.73000002    2.93000007
   14.10694504  107.29100037    0.73000002    2.93000007
   14.11027813  114.20099640    0.70999998    2.93000007
   14.11361122  109.98400116    0.69000000    2.93000007
   14.11666679  114.23500061    0.67000002    2.93000007
   14.11999989  115.63899994    0.67000002    2.93000007
   14.12222195  116.04699707    0.67000002    2.93000007
   14.12361145  108.95400238    0.69000000    2.94000006
   14.12666702  115.35700226    0.67000002    2.93000007
   14.13000011  115.10600281    0.69000000    2.93000007
   14.13611126  115.10600281    0.67000002    2.93000007
   14.14027786  111.32499695    0.69000000    2.94000006
   14.14361095  117.28500366    0.69000000    2.93000007
   14.14666653  110.48899841    0.69000000    2.93000007
   14.14999962  115.80799866    0.69000000    2.93000007
   14.15305519  120.11299896    0.69000000    2.93000007
   14.15555477  116.93699646    0.70999998    2.93000007
   14.15694427  120.81600189    0.70999998    2.93000007
   14.15999985  114.02100372    0.70999998    2.93000007
   14.16333294  111.48200226    0.70999998    2.94000006
   14.16666698  109.80500031    0.70999998    2.94000006
   14.16972256  117.30100250    0.73000002    2.93000007
   14.17305565  115.32800293    0.73000002    2.93000007
   14.17888927  115.32800293    0.76999998    2.94000006
   14.18305588  121.41200256    0.76999998    2.94000006
   14.18638897  121.51399994    0.76999998    2.94000006
   14.18888855  117.18699646    0.75000000    2.93000007
   14.19000053  115.56999969    0.75000000    2.93000007
   14.19305515  116.33599854    0.75000000    2.94000006
   14.19638920  111.59799957    0.75000000    2.93000007
   14.19972229  108.12500000    0.75000000    2.93000007
   14.20277786  112.98699951    0.70999998    2.93000007
   14.20611095  116.45500183    0.70999998    2.94000006
   14.20916653  110.12699890    0.69000000    2.94000006
   14.21249962  121.27799988    0.69000000    2.94000006
   14.21583271  117.30599976    0.67000002    2.94000006
   14.22166634  117.30599976    0.67000002    2.94000006
   14.24027824  106.63500214    0.64999998    2.93000007
   14.24333382  107.07099915    0.64999998    2.94000006
   14.24666691  107.77799988    0.70999998    2.94000006
   14.24972248  102.56500244    0.70999998    2.94000006
   14.25305557  111.28600311    0.63000000    2.94000006
   14.25638866  112.78099823    0.63000000    2.94000006
   14.25944424  105.48799896    0.61000001    2.93000007
   14.26472187  105.48799896    0.58999997    2.94000006
   14.26888847  111.08799744    0.58999997    2.94000006
   14.27222157  107.80699921    0.56999999    2.94000006
   14.27305508  112.64099884    0.56999999    2.94000006
   14.27583313  118.80500031    0.56999999    2.94000006
   14.27916622  115.14800262    0.56999999    2.96000004
   14.28222179  116.09899902    0.56999999    2.94000006
   14.28555584  113.34999847    0.56999999    2.94000006
   14.28888893  114.55300140    0.56999999    2.94000006
   14.29194450  111.30100250    0.56999999    2.94000006
   14.29527855  107.94599915    0.56999999    2.94000006
   14.29861164  113.96199799    0.56999999    2.94000006
   14.30166721  113.20200348    0.56999999    2.94000006
   14.30777836  113.20200348    0.58999997    2.94000006
   14.31194496  108.53299713    0.56999999    2.94000006
   14.31527805  111.88200378    0.56999999    2.94000006
   14.31861115  112.09500122    0.58999997    2.94000006
   14.32166672  109.56700134    0.58999997    2.94000006
   14.32499981  109.25800323    0.58999997    2.94000006
   14.32833290  119.30699921    0.58999997    2.94000006
   14.33138847  110.49900055    0.58999997    2.94000006
   14.33472157  112.32599640    0.58999997    2.94000006
   14.33777714  109.87400055    0.58999997    2.94000006
   14.33972168  106.79900360    0.56999999    2.93000007
   14.34138870  108.82399750    0.56999999    2.93000007
   14.34472179  106.07399750    0.56999999    2.94000006
   14.35055637  106.07399750    0.55000001    2.94000006
   14.35472298  112.05899811    0.52999997    2.94000006
   14.35777855  105.33699799    0.52999997    2.94000006
   14.36111164  113.51200104    0.52999997    2.94000006
   14.36444473  116.87500000    0.55000001    2.94000006
   14.36750031  107.48100281    0.52999997    2.94000006
   14.37083340  103.04499817    0.52999997    2.94000006
   14.37305546  111.18699646    0.52999997    2.94000006
   14.37444496  113.54299927    0.52999997    2.94000006
   14.37777805  104.33699799    0.52999997    2.94000006
   14.38083363  103.16100311    0.51999998    2.94000006
   14.38416672  108.90599823    0.52999997    2.94000006
   14.38749981  108.65799713    0.51999998    2.93000007
   14.39333344  108.65799713    0.51999998    2.94000006
   14.39750004  115.84899902    0.51999998    2.96000004
   14.40083313  105.51200104    0.51999998    2.94000006
   14.40388870  111.83100128    0.51999998    2.94000006
   14.40666676  121.00199890    0.51999998    2.94000006
   14.40749931  108.68599701    0.51999998    2.94000006
   14.41083336  106.16999817    0.51999998    2.94000006
   14.41416645  115.23200226    0.50000000    2.94000006
   14.41722298  115.70300293    0.50000000    2.96000004
   14.42055607  114.02999878    0.50000000    2.96000004
   14.42388916  118.85700226    0.50000000    2.94000006
   14.42694473  114.58999634    0.50000000    2.94000006
   14.43027782  118.55100250    0.50000000    2.94000006
   14.43611145  118.55100250    0.51999998    2.94000006
   14.44027805  113.59600067    0.52999997    2.94000006
   14.44361115  117.53299713    0.52999997    2.94000006
   14.44666672  113.52600098    0.55000001    2.94000006
   14.44999981  104.83499908    0.55000001    2.94000006
   14.45333290  105.42299652    0.55000001    2.94000006
   14.45638847  109.03800201    0.52999997    2.94000006
   14.45972157  111.40200043    0.51999998    2.94000006
   14.46305561  102.73100281    0.51999998    2.93000007
   14.46611118  101.10500336    0.51999998    2.93000007
   14.46944427  105.00499725    0.51999998    2.94000006
   14.47249985  110.79599762    0.51999998    2.94000006
   14.47333336  104.63999939    0.51999998    2.94000006
   14.47916603  104.63999939    0.52999997    2.94000006
   14.48333359  112.45700073    0.56999999    2.94000006
   14.48638916  118.60500336    0.55000001    2.94000006
   14.48972225  108.27300262    0.55000001    2.96000004
   14.49305534  114.30599976    0.55000001    2.96000004
   14.49611092  103.19300079    0.73000002    2.94000006
   14.49944496  117.90799713    0.86000001    2.94000006
   14.50277805  114.60099792    0.95999998    2.94000006
   14.50583363  116.08100128    0.83999997    2.94000006
   14.50666714  117.98899841    0.83999997    2.94000006
   14.50944424  122.81700134    0.58999997    2.94000006
   14.51277733  114.89900208    0.58999997    2.94000006
   14.51583290  109.78600311    0.58999997    2.94000006
   14.52194405  109.78600311    0.80000001    2.94000006
   14.52611065   94.57360077    0.80000001    2.94000006
   14.52916622  111.03600311    0.64999998    2.94000006
   14.53249931  105.67600250    0.64999998    2.94000006
   14.53583336  103.04199982    0.64999998    2.94000006
   14.53888893  105.59799957    0.64999998    2.94000006
   14.54000092  109.89499664    0.64999998    2.94000006
   14.54250050  105.93299866    0.67000002    2.94000006
   14.54583359  100.85500336    0.67000002    2.94000006
   14.54888916  106.39099884    0.67000002    2.94000006
   14.55222225   98.55470276    0.67000002    2.93000007
   14.55555534  110.79100037    0.61000001    2.94000006
   14.55861092  110.48500061    0.63000000    2.94000006
   14.56472206  110.48500061    0.63000000    2.94000006
   14.56888866  109.35399628    0.63000000    2.94000006
   14.57222176  104.22000122    0.64999998    2.94000006
   14.57333374  107.81900024    0.64999998    2.94000006
   14.57555580  106.10900116    0.64999998    2.94000006
   14.57888889  111.89399719    0.64999998    2.94000006
   14.58222198  109.99500275    0.67000002    2.94000006
   14.58527756  113.24400330    0.67000002    2.94000006
   14.58861065  104.40000153    0.67000002    2.94000006
   14.59166622  108.58999634    0.64999998    2.94000006
   14.59499931   98.51110077    0.63000000    2.94000006
   14.59833336  100.95500183    0.63000000    2.94000006
   14.60138893  103.01000214    0.61000001    2.93000007
   14.60750008  103.01000214    0.61000001    2.94000006
   14.61166668  105.86900330    0.58999997    2.94000006
   14.61500072  107.02300262    0.55000001    2.94000006
   14.61833382  105.75599670    0.55000001    2.94000006
   14.62138939  105.12899780    0.55000001    2.94000006
   14.62472248  106.84600067    0.52999997    2.94000006
   14.62777805  106.02400208    0.55000001    2.94000006
   14.63111115  113.25000000    0.55000001    2.94000006
   14.63444424  113.69400024    0.55000001    2.94000006
   14.63749981  107.73999786    0.55000001    2.94000006
   14.64000034  114.83200073    0.55000001    2.94000006
   14.64111137  104.84200287    0.55000001    2.94000006
   14.64444447  114.74500275    0.56999999    2.94000006
   14.65055561  114.74500275    0.56999999    2.94000006
   14.65472221  123.21199799    0.58999997    2.94000006
   14.65777779  112.69499969    0.58999997    2.94000006
   14.66111088  109.53299713    0.56999999    2.96000004
   14.66416645  107.09999847    0.58999997    2.94000006
   14.66750050  101.95800018    0.55000001    2.94000006
   14.67083359   98.56919861    0.55000001    2.96000004
   14.67333412   96.74269867    0.55000001    2.96000004
   14.67416668   98.77709961    0.56999999    2.94000006
   14.67750072  100.33699799    0.56999999    2.94000006
   14.68083382  106.11100006    0.55000001    2.96000004
   14.68388939  106.68199921    0.55000001    2.94000006
   14.68722248  107.86100006    0.55000001    2.94000006
   14.69333363  107.86100006    0.52999997    2.94000006
   14.69750023  100.99600220    0.52999997    2.94000006
   14.70055580  104.29499817    0.52999997    2.94000006
   14.70388889  104.58799744    0.58999997    2.94000006
   14.70666695  103.45200348    0.58999997    2.96000004
   14.70749950  105.37200165    0.58999997    2.96000004
   14.71083355  110.05000305    0.58999997    2.96000004
   14.71416664  107.78099823    0.63000000    2.94000006
   14.71722221  110.14199829    0.56999999    2.94000006
   14.72055531  112.22100067    0.52999997    2.94000006
   14.72361088  108.93499756    0.51999998    2.94000006
   14.72694397  106.54100037    0.51999998    2.96000004
   14.73027706  109.96600342    0.51999998    2.96000004
   14.73611164  109.96600342    0.52999997    2.94000006
   14.74027824  110.37000275    0.51999998    2.96000004
   14.74361134  110.12300110    0.52999997    2.94000006
   14.74694443  102.24500275    0.51999998    2.94000006
   14.75000000  105.36699677    0.51999998    2.94000006
   14.75333309   95.80220032    0.50000000    2.94000006
   14.75666714  102.55300140    0.50000000    2.96000004
   14.75972176  103.04699707    0.50000000    2.96000004
   14.76305580   93.80670166    0.50000000    2.94000006
   14.76638889   89.21559906    0.50000000    2.94000006
   14.76944447   94.72899628    0.47999999    2.94000006
   14.77277756  106.94400024    0.47999999    2.94000006
   14.77333355   98.89009857    0.47999999    2.94000006
   14.77888870   98.89009857    0.51999998    2.94000006
   14.78305531  107.25700378    0.51999998    2.94000006
   14.78638935  105.64199829    0.51999998    2.94000006
   14.78972244  108.03700256    0.51999998    2.94000006
   14.79277802  109.90599823    0.50000000    2.94000006
   14.79611111  105.54699707    0.50000000    2.94000006
   14.79944515  110.15699768    0.50000000    2.94000006
   14.80249977  117.13899994    0.50000000    2.94000006
   14.80583382  115.99700165    0.50000000    2.94000006
   14.80666733  112.04100037    0.50000000    2.94000006
   14.80944443  115.63200378    0.50000000    2.94000006
   14.81277752  111.51999664    0.50000000    2.94000006
   14.81611156  106.48400116    0.50000000    2.94000006
   14.82194424  106.48400116    0.50000000    2.94000006
   14.82611084  108.80200195    0.55000001    2.94000006
   14.82916641  101.52100372    0.56999999    2.96000004
   14.83249950  103.46099854    0.51999998    2.94000006
   14.83583260  114.15899658    0.51999998    2.94000006
   14.83888817  108.23799896    0.51999998    2.94000006
   14.84000015  105.19599915    0.51999998    2.94000006
   14.84249973  116.94899750    0.51999998    2.96000004
   14.84583282  107.95700073    0.52999997    2.94000006
   14.84916592  103.23799896    0.52999997    2.96000004
   14.85222244  106.15399933    0.51999998    2.94000006
   14.85555553  103.49099731    0.51999998    2.94000006
   14.85861111  103.53700256    0.51999998    2.94000006
   14.86472225  103.53700256    0.50000000    2.94000006
   14.86888885  110.47699738    0.50000000    2.96000004
   14.87222195  114.12500000    0.50000000    2.96000004
   14.87333393  115.41600037    0.50000000    2.96000004
   14.87555599  119.88800049    0.50000000    2.96000004
   14.87888908  110.97499847    0.50000000    2.96000004
   14.88222218  108.71299744    0.47999999    2.96000004
   14.88527775  110.22699738    0.47999999    2.96000004
   14.88861084  106.77500153    0.47999999    2.94000006
   14.89166641  117.33000183    0.47999999    2.96000004
   14.89499950  108.71199799    0.46000001    2.96000004
   14.89833355  109.09400177    0.46000001    2.96000004
   14.90138817  102.69499969    0.46000001    2.94000006
   14.90749931  102.69499969    0.46000001    2.96000004
   14.91166592  116.44100189    0.44000000    2.96000004
   14.91499996  113.75499725    0.44000000    2.96000004
   14.91805553   98.38610077    0.44000000    2.96000004
   14.92138958  107.40200043    0.44000000    2.94000006
   14.92472267  109.57299805    0.44000000    2.96000004
   14.92777824  116.04399872    0.44000000    2.96000004
   14.93111134  109.29000092    0.44000000    2.96000004
   14.93444443  110.83699799    0.41999999    2.96000004
   14.93750000  104.27100372    0.41999999    2.96000004
   14.94000053  108.99400330    0.41999999    2.96000004
   14.94111156  119.01799774    0.41999999    2.96000004
   14.94444466  111.83999634    0.41999999    2.96000004
   14.95027733  111.83999634    0.44000000    2.96000004
   14.95444393  121.64900208    0.41999999    2.96000004
   14.95777798  102.69499969    0.41999999    2.96000004
   14.96083355  110.89600372    0.41999999    2.96000004
   14.96416664  111.45899963    0.41999999    2.96000004
   14.96749973  119.22799683    0.41999999    2.96000004
   14.97055531  111.37599945    0.46000001    2.96000004
   14.97333336   97.88130188    0.46000001    2.96000004
   14.97444439  108.05699921    0.46000001    2.96000004
   14.97749996  101.27999878    0.46000001    2.96000004
   14.98083305  110.82299805    0.46000001    2.94000006
   14.98388958  112.37699890    0.46000001    2.94000006
   14.98722267  115.55000305    0.46000001    2.96000004
   14.99333382  115.55000305    0.46000001    2.96000004
   14.99750042  119.40100098    0.46000001    2.96000004
   15.00055599  123.10199738    0.47999999    2.94000006
   15.00388908  122.34700012    0.46000001    2.96000004
   15.00666714  119.96900177    0.47999999    2.96000004
   15.00722218  111.92299652    0.47999999    2.96000004
   15.01055527  117.45099640    0.47999999    2.94000006
   15.01388931  131.48399353    0.46000001    2.96000004
   15.01694393  113.96700287    0.46000001    2.96000004
   15.02027798  125.86399841    0.46000001    2.94000006
   15.02361107  121.18499756    0.47999999    2.96000004
   15.02666664  119.24800110    0.47999999    2.94000006
   15.02999973  122.90100098    0.47999999    2.94000006
   15.03611183  122.90100098    0.47999999    2.96000004
   15.04027843  113.73400116    0.47999999    2.96000004
   15.04333401  121.19200134    0.47999999    2.96000004
   15.04666710  106.92700195    0.47999999    2.96000004
   15.05000019  113.00499725    0.47999999    2.98000002
   15.05305576  120.64600372    0.46000001    2.94000006
   15.05638885  115.62100220    0.47999999    2.96000004
   15.05972195  110.47499847    0.47999999    2.96000004
   15.06277752  109.92500305    0.47999999    2.96000004
   15.06611156  113.86799622    0.47999999    2.96000004
   15.06916618  118.65899658    0.47999999    2.94000006
   15.07250023  117.84899902    0.47999999    2.96000004
   15.07333374  112.83699799    0.47999999    2.96000004
   15.07888889  112.83699799    0.46000001    2.96000004
   15.08305550  109.68199921    0.46000001    2.94000006
   15.08638859  112.03900146    0.46000001    2.94000006
   15.08944416  110.02999878    0.47999999    2.94000006
   15.09277725  112.91999817    0.46000001    2.96000004
   15.09611034  109.09999847    0.47999999    2.94000006
   15.09944439  113.37699890    0.47999999    2.96000004
   15.10277843  115.12200165    0.47999999    2.94000006
   15.10611153  114.69300079    0.47999999    2.94000006
   15.10666752  114.12699890    0.47999999    2.96000004
   15.10944462  116.09999847    0.47999999    2.96000004
   15.11277771  106.51200104    0.47999999    2.94000006
   15.11611176  105.07599640    0.46000001    2.94000006
   15.12166691  105.07599640    0.47999999    2.94000006
   15.12583351  103.79499817    0.47999999    2.94000006
   15.12916660  108.01300049    0.47999999    2.94000006
   15.13249969  118.33699799    0.47999999    2.96000004
   15.13555527  101.22000122    0.47999999    2.96000004
   15.13888836  101.23500061    0.47999999    2.96000004
   15.14000034  101.38899994    0.47999999    2.96000004
   15.14222240  105.27600098    0.47999999    2.96000004
   15.14555550  120.61399841    0.47999999    2.96000004
   15.24916649   -1.00000000   -1.00000000   -1.00000000
   15.34638882   -1.00000000   -1.00000000   -1.00000000
   15.44638920   -1.00000000   -1.00000000   -1.00000000
   15.49194431  126.83899689    0.41999999    2.96000004
   15.49499989  126.63200378    0.41999999    2.96000004
   15.49833393  122.44699860    0.41999999    2.96000004
   15.50166702  130.34899902    0.41999999    2.96000004
   15.50472260  135.31799316    0.41999999    2.96000004
   15.50805569  122.67199707    0.41999999    2.96000004
   15.51222229  122.67199707    0.41999999    2.96000004
   15.51638889  125.04399872    0.41999999    2.96000004
   15.51944447  130.54200745    0.41999999    2.96000004
   15.52277756  123.28900146    0.41999999    2.96000004
   15.52499962  123.20600128    0.41999999    2.96000004
   15.52638817  130.44900513    0.41999999    2.96000004
   15.52972221  120.62599945    0.41999999    2.96000004
   15.53277779  124.48100281    0.41999999    2.96000004
   15.53611183  122.75700378    0.41999999    2.98000002
   15.53916740  122.86599731    0.41999999    2.96000004
   15.54250050  117.34799957    0.41999999    2.98000002
   15.54583359  113.80400085    0.41999999    2.98000002
   15.54888916  124.39099884    0.41999999    2.96000004
   15.55527782  124.39099884    0.41999999    2.96000004
   15.55916691  125.09100342    0.41999999    2.96000004
   15.56250000  111.59600067    0.41999999    2.96000004
   15.56583309  119.28800201    0.41999999    2.96000004
   15.56888866  108.68599701    0.41999999    2.96000004
   15.57222176  113.97200012    0.44000000    2.96000004
   15.57555580  119.48699951    0.44000000    2.98000002
   15.57861137  109.12999725    0.44000000    2.96000004
   15.58194447  114.85199738    0.44000000    2.96000004
   15.58527756  113.45999908    0.44000000    2.96000004
   15.58833313  112.63300323    0.44000000    2.96000004
   15.59166622  112.47399902    0.44000000    2.96000004
   15.59222221  117.63800049    0.44000000    2.96000004
   15.59777737  117.63800049    0.44000000    2.96000004
   15.60194492  117.22499847    0.41999999    2.96000004
   15.60527802  107.04900360    0.41999999    2.96000004
   15.60833359  118.44300079    0.41999999    2.96000004
   15.61166668  114.63300323    0.44000000    2.96000004
   15.61472225  111.76300049    0.44000000    2.96000004
   15.61833382  114.58799744    0.44000000    2.96000004
   15.62138939  111.62500000    0.44000000    2.96000004
   15.62472248  121.68099976    0.44000000    2.96000004
   15.62555599  120.38800049    0.41999999    2.98000002
   15.62805557  107.93000031    0.41999999    2.98000002
   15.63138866  113.37000275    0.41999999    2.96000004
   15.63472176  112.64499664    0.41999999    2.96000004
   15.64055538  112.64499664    0.41999999    2.96000004
   15.64472198  115.03600311    0.41999999    2.98000002
   15.64805508  111.77899933    0.41999999    2.98000002
   15.65111065  115.24700165    0.44000000    2.96000004
   15.65444374  117.69699860    0.44000000    2.98000002
   15.65777779  119.31099701    0.44000000    2.98000002
   15.65888882  115.23699951    0.41999999    2.96000004
   15.66111088  120.17400360    0.41999999    2.96000004
   15.66444397  116.83000183    0.41999999    2.96000004
   15.66777802  119.61100006    0.44000000    2.96000004
   15.67083359  114.71700287    0.44000000    2.96000004
   15.67416668  118.99099731    0.44000000    2.96000004
   15.67750072  117.32099915    0.44000000    2.98000002
   15.68361092  117.32099915    0.44000000    2.98000002
   15.68777752  124.46900177    0.44000000    2.96000004
   15.69083309  130.25000000    0.46000001    2.96000004
   15.69222260  132.69900513    0.46000001    2.96000004
   15.69444466  117.76999664    0.46000001    2.96000004
   15.69777775  119.21800232    0.46000001    2.96000004
   15.70111084  123.59300232    0.46000001    2.98000002
   15.70416641  118.11100006    0.46000001    2.96000004
   15.70749950  124.73300171    0.46000001    2.96000004
   15.71083355  125.49400330    0.46000001    2.98000002
   15.71416664  124.54799652    0.46000001    2.96000004
   15.71722221  117.37300110    0.46000001    2.96000004
   15.72055531  110.18000031    0.46000001    2.98000002
   15.72638798  110.18000031    0.44000000    2.96000004
   15.73055553  111.55899811    0.44000000    2.96000004
   15.73388958  128.00900269    0.44000000    2.96000004
   15.73694515  121.59500122    0.44000000    2.96000004
   15.74027824  122.80500031    0.44000000    2.96000004
   15.74361134  110.16100311    0.46000001    2.96000004
   15.74666691  107.17500305    0.44000000    2.96000004
   15.75000000  115.89499664    0.44000000    2.96000004
   15.75333309  108.67199707    0.44000000    2.98000002
   15.75638866  111.94899750    0.44000000    2.98000002
   15.75888920  102.23300171    0.44000000    2.98000002
   15.76000023  114.48300171    0.44000000    2.98000002
   15.76333332  111.91500092    0.44000000    2.96000004
   15.76916599  111.91500092    0.41999999    2.98000002
   15.77333355  111.85500336    0.41999999    2.96000004
   15.77666664  146.27600098    0.41999999    2.96000004
   15.77972221  120.55200195    0.41999999    2.98000002
   15.78305531  117.78600311    0.41999999    2.96000004
   15.78638935  115.78600311    0.41999999    2.98000002
   15.78944492  118.16400146    0.46000001    2.96000004
   15.79222298  119.47399902    0.46000001    2.96000004
   15.79333401  120.69499969    0.46000001    2.96000004
   15.79638958  118.71399689    0.47999999    2.96000004
   15.79972267  119.86799622    0.46000001    2.98000002
   15.80277824  117.51599884    0.46000001    2.98000002
   15.80611134  118.37000275    0.46000001    2.96000004
   15.81222248  118.37000275    0.46000001    2.98000002
   15.81638908  118.70099640    0.46000001    2.98000002
   15.81944466  133.49499512    0.46000001    2.98000002
   15.82277775  116.13300323    0.47999999    2.98000002
   15.82555580  115.89600372    0.47999999    2.98000002
   15.82666683  118.44300079    0.47999999    2.98000002
   15.82972240  113.82700348    0.46000001    2.98000002
   15.83305550  112.98400116    0.46000001    2.96000004
   15.83611107  120.33399963    0.46000001    2.96000004
   15.83944416  111.22200012    0.46000001    2.96000004
   15.84277725  112.96199799    0.47999999    2.98000002
   15.84583282  107.31900024    0.47999999    2.96000004
   15.84916592  109.92800140    0.47999999    2.96000004
   15.85500050  109.92800140    0.51999998    2.98000002
   15.85916710  115.48100281    0.51999998    2.98000002
   15.86222267  101.28099823    0.50000000    2.98000002
   15.86555576  108.84100342    0.47999999    2.98000002
   15.86861134  107.31400299    0.44000000    2.98000002
   15.87194443  110.02500153    0.44000000    2.98000002
   15.87555599  110.95400238    0.44000000    2.98000002
   15.87861156  108.61900330    0.44000000    2.98000002
   15.88194466  116.97799683    0.44000000    2.98000002
   15.88527775  104.43900299    0.44000000    2.98000002
   15.88833332  110.09200287    0.46000001    2.96000004
   15.89166641  117.31199646    0.44000000    2.98000002
   15.89222240  105.70500183    0.44000000    2.98000002
   15.89777756  105.70500183    0.44000000    2.98000002
   15.90194416  117.45300293    0.44000000    2.96000004
   15.90527725   98.26629639    0.44000000    2.96000004
   15.90833282  110.26499939    0.44000000    2.96000004
   15.91166592   98.51270294    0.44000000    2.96000004
   15.91499996  110.99199677    0.44000000    2.98000002
   15.91805553  107.65399933    0.44000000    2.98000002
   15.92138958  112.15100098    0.44000000    2.96000004
   15.92472267  104.37200165    0.44000000    2.98000002
   15.92555618  111.29599762    0.44000000    2.98000002
   15.92833328  110.48200226    0.44000000    2.98000002
   15.93138885  106.63600159    0.40000001    2.96000004
   15.93472195  101.57499695    0.40000001    2.96000004
   15.94055557  101.57499695    0.40000001    2.96000004
   15.94472218  105.71800232    0.40000001    2.98000002
   15.94805527  111.46700287    0.40000001    2.96000004
   15.95111084  100.77300262    0.41999999    2.98000002
   15.95444393  112.51100159    0.41999999    2.96000004
   15.95749950  103.21399689    0.41999999    2.96000004
   15.95888901  108.65399933    0.41999999    2.98000002
   15.96138859  105.84400177    0.41999999    2.98000002
   15.96444416  111.82199860    0.41999999    2.98000002
   15.96777725  112.33799744    0.41999999    2.98000002
   15.97111034  108.61399841    0.41999999    2.98000002
   15.97416592  110.09100342    0.41999999    2.98000002
   15.97749996  120.46700287    0.41999999    2.96000004
   15.98333359  120.46700287    0.41999999    2.98000002
   15.98750019  110.99600220    0.41999999    2.98000002
   15.99083328  117.91899872    0.40000001    2.98000002
   15.99222279  108.82299805    0.40000001    2.98000002
   15.99444485  112.69899750    0.40000001    2.98000002
   15.99750042  112.08799744    0.40000001    2.98000002
   16.00083351  114.70700073    0.41999999    2.96000004
   16.00416756  111.72399902    0.41999999    2.96000004
   16.00722313  106.18099976    0.41999999    2.98000002
   16.01055527  113.21800232    0.44000000    2.96000004
   16.01361084  121.33399963    0.41999999    2.98000002
   16.01722145  117.21099854    0.40000001    2.98000002
   16.02027702  111.89800262    0.40000001    2.96000004
   16.02638817  111.89800262    0.41999999    2.98000002
   16.03027725  124.14499664    0.41999999    2.98000002
   16.03361130  111.45400238    0.44000000    2.98000002
   16.03694344  115.51799774    0.44000000    2.98000002
   16.03999901  117.44699860    0.44000000    2.96000004
   16.04333305  121.09999847    0.46000001    2.98000002
   16.04666710  118.93900299    0.46000001    2.98000002
   16.04972076  115.97599792    0.46000001    2.98000002
   16.05305481  108.93199921    0.44000000    2.96000004
   16.05638885  120.00299835    0.44000000    2.98000002
   16.05888748  112.66899872    0.41999999    2.98000002
   16.05999947  116.16200256    0.41999999    2.98000002
   16.06305504  116.75700378    0.41999999    2.98000002
   16.06916809  116.75700378    0.41999999    2.98000002
   16.07333374  111.88899994    0.41999999    2.96000004
   16.07638931  112.50299835    0.40000001    2.98000002
   16.07972336  120.50399780    0.40000001    2.98000002
   16.08305550  118.37200165    0.40000001    2.98000002
   16.08611107  113.30699921    0.40000001    2.96000004
   16.08944511  105.90200043    0.40000001    2.98000002
   16.09222221  111.63300323    0.40000001    2.98000002
   16.09305573  110.39199829    0.40000001    2.98000002
   16.09611130  111.46399689    0.40000001    2.96000004
   16.09944534  107.17199707    0.40000001    2.98000002
   16.10277748  105.90499878    0.40000001    3.00000000
   16.10583305  103.98999786    0.40000001    2.98000002
   16.11194420  103.98999786    0.38000000    2.98000002
   16.11611176  106.37599945    0.38000000    2.96000004
   16.11944389  178.31599426    0.38000000    2.98000002
   16.12249947  116.97699738    0.38000000    2.98000002
   16.12555504  113.46099854    0.38000000    2.96000004
   16.12611198  113.42600250    0.38000000    2.96000004
   16.12916756  117.24400330    0.38000000    2.98000002
   16.13249969  120.86199951    0.38000000    2.98000002
   16.13583374  119.28500366    0.38000000    3.00000000
   16.13888931  116.78900146    0.38000000    2.98000002
   16.14222145  113.60199738    0.40000001    2.98000002
   16.14555550  115.26999664    0.40000001    2.98000002
   16.14861107  110.89600372    0.40000001    2.98000002
   16.15499878  110.89600372    0.41999999    2.96000004
   16.15916634  120.08000183    0.41999999    2.98000002
   16.16222191  110.57199860    0.41999999    2.98000002
   16.16555595  108.46900177    0.41999999    2.98000002
   16.16888809  106.21099854    0.41999999    2.98000002
   16.17194366  107.06800079    0.44000000    2.98000002
   16.17527771  107.55999756    0.44000000    2.98000002
   16.17860985  105.16100311    0.44000000    2.96000004
   16.18166542  111.17099762    0.44000000    2.98000002
   16.18499947  110.01000214    0.46000001    2.96000004
   16.18833160  102.88700104    0.46000001    2.96000004
   16.19138718  104.14199829    0.46000001    2.98000002
   16.19222069  104.23899841    0.46000001    2.98000002
   16.19777679  104.23899841    0.46000001    2.98000002
   16.20194435  104.24199677    0.44000000    2.96000004
   16.20499992  107.12799835    0.44000000    2.98000002
   16.20833397  101.42800140    0.44000000    2.96000004
   16.21138954  104.87100220    0.44000000    2.98000002
   16.21472359  106.05599976    0.44000000    3.00000000
   16.21805573  107.41200256    0.44000000    2.96000004
   16.22111130  103.11299896    0.44000000    2.98000002
   16.22444534  107.74900055    0.44000000    2.98000002
   16.22555542  109.14199829    0.44000000    2.98000002
   16.22805595  110.95400238    0.44000000    2.98000002
   16.23111153  108.66000366    0.44000000    2.98000002
   16.23444557  109.33399963    0.44000000    2.98000002
   16.24055672  109.33399963    0.44000000    2.98000002
   16.24472237  105.21299744    0.44000000    2.98000002
   16.24777794  106.12599945    0.44000000    2.98000002
   16.25111198  100.06400299    0.44000000    2.96000004
   16.25444412  103.08899689    0.44000000    2.96000004
   16.25749969  101.87799835    0.44000000    2.98000002
   16.25888824  101.79699707    0.44000000    2.98000002
   16.26111031  103.12699890    0.46000001    2.96000004
   16.26416588  105.92199707    0.46000001    2.98000002
   16.26749992  102.88200378    0.46000001    2.98000002
   16.27083397  107.07399750    0.46000001    2.98000002
   16.27388954  102.46900177    0.46000001    2.98000002
   16.27722168  102.67700195    0.44000000    2.96000004
   16.28333282  102.67700195    0.44000000    2.98000002
   16.28750038  103.67600250    0.44000000    2.98000002
   16.29083252  105.57700348    0.44000000    2.98000002
   16.29222107  107.82199860    0.44000000    2.98000002
   16.29444313  116.59100342    0.44000000    2.96000004
   16.29749870  103.16300201    0.44000000    2.98000002
   16.30083275   97.02780151    0.44000000    2.98000002
   16.30416679  105.84600067    0.44000000    2.98000002
   16.30722237  105.30500031    0.46000001    2.98000002
   16.31055450  111.69599915    0.46000001    2.98000002
   16.31388855  114.25700378    0.46000001    2.98000002
   16.31694603  100.30699921    0.46000001    2.96000004
   16.32027817  102.26499939    0.46000001    2.98000002
   16.32611275  102.26499939    0.44000000    2.98000002
   16.33027840  103.81800079    0.46000001    2.98000002
   16.33361244  106.62100220    0.44000000    2.98000002
   16.33666801  107.04000092    0.44000000    2.98000002
   16.34000015  107.94000244    0.44000000    2.98000002
   16.34333420  105.58200073    0.44000000    2.98000002
   16.34666824  108.11000061    0.44000000    2.98000002
   16.34972191  110.58599854    0.41999999    2.98000002
   16.35305595  107.32700348    0.41999999    2.98000002
   16.35611153  109.83699799    0.41999999    2.98000002
   16.35888863  101.10500336    0.44000000    2.96000004
   16.36000061  112.12400055    0.44000000    2.96000004
   16.36333466  108.58000183    0.44000000    2.96000004
   16.36916733  108.58000183    0.44000000    2.98000002
   16.37305641  106.03600311    0.41999999    2.98000002
   16.37638855  107.71700287    0.44000000    2.98000002
   16.37972260   95.17819977    0.44000000    2.98000002
   16.38277817  105.80200195    0.46000001    2.98000002
   16.38611031  104.91000366    0.44000000    2.96000004
   16.38944435   90.05750275    0.44000000    2.98000002
   16.39222145  102.40699768    0.44000000    2.96000004
   16.39305496   99.78530121    0.44000000    2.96000004
   16.39638901   96.34130096    0.41999999    2.98000002
   16.39944458   99.30030060    0.03000000    0.51999998
   16.40277672   95.64389801    0.01000000    0.25999999
   16.40583229   93.70570374    0.01000000    0.25999999
   16.41194344   93.70570374    0.01000000    0.25999999
   16.41611099   99.08789825    0.01000000    0.25999999
   16.41916656  102.55400085    0.01000000    0.25999999
   16.42249870  108.04399872    0.01000000    0.25999999
   16.42555428  107.89499664    0.01000000    0.25999999
   16.42611122  105.49500275    0.01000000    0.25999999
   16.42916679  109.67800140    0.01000000    0.25999999
   16.43249893  107.25000000    0.01000000    0.25999999
   16.43583298  109.24500275    0.01000000    0.25999999
   16.43888855  109.75199890    0.01000000    0.25999999
   16.44222069  111.63700104    0.01000000    0.25999999
   16.44555473  110.58999634    0.01000000    0.25999999
   16.44861031  106.19499969    0.01000000    0.25999999
   16.45472336  106.19499969    0.01000000    0.25999999
   16.45888901  110.13700104    0.01000000    0.25999999
   16.45944595  115.61399841    0.01000000    0.25999999
   16.46250153  120.93499756    0.01000000    0.25999999
   16.46583366  109.00499725    0.01000000    0.25999999
   16.46916771  117.94100189    0.01000000    0.25999999
   16.47222328  107.10099792    0.01000000    0.25999999
   16.47555542  118.33000183    0.01000000    0.25999999
   16.47888947  105.26899719    0.01000000    0.25999999
   16.48194504  103.33699799    0.01000000    0.25999999
   16.48527718  108.36100006    0.01000000    0.25999999
   16.48833275  101.55400085    0.01000000    0.25999999
   16.49166679  109.71399689    0.01000000    0.25999999
   16.50916672  116.78199768    0.01000000    0.25999999
   16.51333427  116.78199768    0.01000000    0.25999999
   16.51749992   98.57270050    0.01000000    0.25999999
   16.52055550  119.83200073    0.01000000    0.25999999
   16.52388954  109.22100067    0.01000000    0.25999999
   16.52694511  109.15499878    0.01000000    0.25999999
   16.53027725  111.39800262    0.01000000    0.25999999
   16.53361130  108.90599823    0.01000000    0.25999999
   16.53666687  112.76699829    0.01000000    0.25999999
   16.53999901  114.56099701    0.01000000    0.25999999
   16.54222107  112.83000183    0.01000000    0.25999999
   16.54361153  110.14299774    0.01000000    0.25999999
   16.54694366  106.92299652    0.01000000    0.25999999
   16.54999924  109.98600006    0.01000000    0.25999999
   16.55611038  109.98600006    0.01000000    0.25999999
   16.56027794  107.76100159    0.01000000    0.25999999
   16.56333351  116.02799988    0.01000000    0.25999999
   16.56666756  119.35500336    0.01000000    0.25999999
   16.57000160  112.95999908    0.01000000    0.25999999
   16.57305717  114.12000275    0.01000000    0.25999999
   16.57555580  112.16300201    0.01000000    0.25999999
   16.57666779  111.47899628    0.01000000    0.25999999
   16.58000183  118.85199738    0.01000000    0.25999999
   16.58305550  112.72299957    0.01000000    0.25999999
   16.58638954  110.68900299    0.01000000    0.25999999
   16.58972359  112.08999634    0.01000000    0.25999999
   16.59305573  110.95600128    0.01000000    0.25999999
   16.59889030  110.95600128    0.01000000    0.25999999
   16.60305595  111.20800018    0.01000000    0.25999999
   16.60639000  112.99099731    0.01000000    0.25999999
   16.60888863  111.49800110    0.01000000    0.25999999
   16.60972214  104.78399658    0.01000000    0.25999999
   16.61305618  112.98999786    0.01000000    0.25999999
   16.61611176  108.71099854    0.01000000    0.25999999
   16.61944389  113.66699982    0.01000000    0.25999999
   16.62277794  107.51599884    0.01000000    0.25999999
   16.62583351  104.15699768    0.01000000    0.25999999
   16.62916756  113.48799896    0.01000000    0.25999999
   16.63249969  107.30300140    0.01000000    0.25999999
   16.63555527  114.22200012    0.01000000    0.25999999
   16.64166641  114.22200012    0.01000000    0.25999999
   16.64583397  117.51999664    0.01000000    0.25999999
   16.64916611  113.77400208    0.01000000    0.25999999
   16.65250015  111.22399902    0.01000000    0.25999999
   16.65555573  114.64099884    0.01000000    0.25999999
   16.65888786  127.71700287    0.01000000    0.25999999
   16.66194344  120.61399841    0.01000000    0.25999999
   16.66527748  121.13300323    0.01000000    0.25999999
   16.66860962  112.61100006    0.01000000    0.25999999
   16.67166519  120.32499695    0.01000000    0.25999999
   16.67499924  112.23100281    0.01000000    0.25999999
   16.67694473  118.22499847    0.01000000    0.25999999
   16.67888832  112.68599701    0.01000000    0.25999999
   16.68472099  112.68599701    0.01000000    0.25999999
   16.68888855  110.74900055    0.01000000    0.25999999
   16.69194412  114.72799683    0.01000000    0.25999999
   16.69527626  111.85900116    0.01000000    0.25999999
   16.69833183  104.06999969    0.01000000    0.25999999
   16.70166779  110.94200134    0.01000000    0.25999999
   16.70499992  111.28500366    0.01000000    0.25999999
   16.70805550  100.95700073    0.01000000    0.25999999
   16.71027946  111.05699921    0.01000000    0.25999999
   16.71194458  110.79199982    0.01000000    0.25999999
   16.71500015  114.73100281    0.01000000    0.25999999
   16.71833420  113.29399872    0.01000000    0.25999999
   16.72138977  113.41000366    0.01000000    0.25999999
   16.72750092  113.41000366    0.01000000    0.25999999
   16.73166656  107.01799774    0.01000000    0.25999999
   16.73472214  112.27600098    0.01000000    0.25999999
   16.73805618  115.75099945    0.01000000    0.25999999
   16.74138832  110.87400055    0.01000000    0.25999999
   16.74361229  116.20600128    0.01000000    0.25999999
   16.74500084  120.13999939    0.01000000    0.25999999
   16.74833298  114.91300201    0.01000000    0.25999999
   16.75138855  107.63600159    0.01000000    0.25999999
   16.75472260  115.24199677    0.01000000    0.25999999
   16.75805473  116.22899628    0.01000000    0.25999999
   16.76111031  112.46499634    0.01000000    0.25999999
   16.76444435  113.21700287    0.01000000    0.25999999
   16.77027702  113.21700287    0.01000000    0.25999999
   16.77444458  106.22100067    0.01000000    0.25999999
   16.77694511  109.41799927    0.01000000    0.25999999
   16.77805519  106.90200043    0.01000000    0.25999999
   16.78138924  106.65399933    0.01000000    0.25999999
   16.78444481  103.43800354    0.01000000    0.25999999
   16.78777695  119.00399780    0.01000000    0.25999999
   16.79111099  112.23600006    0.01000000    0.25999999
   16.79416656  118.90499878    0.01000000    0.25999999
   16.79749870  109.98699951    0.01000000    0.25999999
   16.80055428  117.58000183    0.01000000    0.25999999
   16.80388832  110.41899872    0.01000000    0.25999999
   16.80722237  112.56600189    0.01000000    0.25999999
   16.81305504  112.56600189    0.01000000    0.25999999
   16.81722260  110.54799652    0.01000000    0.25999999
   16.82055664  109.66899872    0.01000000    0.25999999
   16.82389069  110.83000183    0.01000000    0.25999999
   16.82694626  111.87999725    0.01000000    0.25999999
   16.83027840  104.39199829    0.01000000    0.25999999
   16.83333397  106.94200134    0.01000000    0.25999999
   16.83666801  110.88800049    0.01000000    0.25999999
   16.84000015  112.37000275    0.01000000    0.25999999
   16.84305573  110.93699646    0.01000000    0.25999999
   16.84416771  109.32199860    0.01000000    0.25999999
   16.84666824  111.60600281    0.01000000    0.25999999
   16.85000038  108.30200195    0.01000000    0.25999999
   16.85611153  108.30200195    0.01000000    0.25999999
   16.86027908  112.55300140    0.01000000    0.25999999
   16.86333466  107.31900024    0.01000000    0.25999999
   16.86666679  114.85299683    0.01000000    0.25999999
   16.86972237  108.01999664    0.01000000    0.25999999
   16.87305641  107.96700287    0.01000000    0.25999999
   16.87638855  104.05200195    0.01000000    0.25999999
   16.87750053  104.81600189    0.01000000    0.25999999
   16.87972260  104.88400269    0.01000000    0.25999999
   16.88305473  110.17199707    0.01000000    0.25999999
   16.88638878  111.61000061    0.01000000    0.25999999
   16.88944435  113.44799805    0.01000000    0.25999999
   16.89277840  112.65000153    0.01000000    0.25999999
   16.89888954  112.65000153    0.01000000    0.25999999
   16.90305519  103.82599640    0.01000000    0.25999999
   16.90611076  107.67600250    0.01000000    0.25999999
   16.90944481  106.38500214    0.01000000    0.25999999
   16.91083336  106.62000275    0.01000000    0.25999999
   16.91305542  114.31700134    0.01000000    0.25999999
   16.91638756  110.02999878    0.01000000    0.25999999
   16.91944313  115.09799957    0.01000000    0.25999999
   16.92277718  100.86299896    0.01000000    0.25999999
   16.92611122  109.64099884    0.01000000    0.25999999
   16.92916679  108.69200134    0.01000000    0.25999999
   16.93249893  112.60299683    0.01000000    0.25999999
   16.93583298  104.17299652    0.01000000    0.25999999
   16.94166565  104.17299652    0.01000000    0.25999999
   16.94583321  115.17400360    0.01000000    0.25999999
   16.94888878  105.08100128    0.01000000    0.25999999
   16.95222282  106.72499847    0.01000000    0.25999999
   16.95555687  109.28399658    0.01000000    0.25999999
   16.95861244  112.67500305    0.01000000    0.25999999
   16.96194458  111.00499725    0.01000000    0.25999999
   16.96527863  113.73500061    0.01000000    0.25999999
   16.96833420  109.16899872    0.01000000    0.25999999
   16.97166634  112.55200195    0.01000000    0.25999999
   16.97500038  110.60900116    0.01000000    0.25999999
   16.97750092  108.42800140    0.01000000    0.25999999
   16.97861099  109.62599945    0.01000000    0.25999999
   16.98444557  109.62599945    0.01000000    0.25999999
   16.98861122  113.46700287    0.01000000    0.25999999
   16.99194527  106.02200317    0.01000000    0.25999999
   16.99527740  105.86799622    0.01000000    0.25999999
   16.99833298  108.77300262    0.01000000    0.25999999
   17.00166702  112.24400330    0.01000000    0.25999999
   17.00472260  109.97699738    0.01000000    0.25999999
   17.00805473  109.42500305    0.01000000    0.25999999
   17.01083374  103.56500244    0.01000000    0.25999999
   17.01166725  108.56300354    0.01000000    0.25999999
   17.01499939  113.91000366    0.01000000    0.25999999
   17.01805496  109.69499969    0.01000000    0.25999999
   17.02138901  115.80000305    0.01000000    0.25999999
   17.02750015  115.80000305    0.01000000    0.25999999
   17.03138924  108.58599854    0.01000000    0.25999999
   17.03472137  105.24299622    0.01000000    0.25999999
   17.03805542  110.55899811    0.01000000    0.25999999
   17.04111099  107.93800354    0.01000000    0.25999999
   17.04416656  106.33000183    0.01000000    0.25999999
   17.04472160  111.07199860    0.01000000    0.25999999
   17.04805565  118.86100006    0.01000000    0.25999999
   17.05111122  111.73899841    0.01000000    0.25999999
   17.05444336  114.44599915    0.01000000    0.25999999
   17.05749893  112.87699890    0.01000000    0.25999999
   17.06083298  111.05699921    0.01000000    0.25999999
   17.06416512  112.31500244    0.01000000    0.25999999
   17.07027817  112.31500244    0.01000000    0.25999999
   17.07444572  109.31400299    0.01000000    0.25999999
   17.07750130  107.77799988    0.01000000    0.25999999
   17.07805634   93.52610016    0.01000000    0.25999999
   17.08139038  111.55999756    0.01000000    0.25999999
   17.08444595  105.30599976    0.01000000    0.25999999
   17.08777809  107.63400269    0.01000000    0.25999999
   17.09083366  111.48999786    0.01000000    0.25999999
   17.09416771  109.13500214    0.01000000    0.25999999
   17.09749985  106.75800323    0.01000000    0.25999999
   17.10055542  109.74700165    0.01000000    0.25999999
   17.10388947  103.76399994    0.01000000    0.25999999
   17.10722351  107.40499878    0.01000000    0.25999999
   17.11305618  107.40499878    0.01000000    0.25999999
   17.11722183  118.19300079    0.01000000    0.25999999
   17.12055588  127.27200317    0.01000000    0.25999999
   17.12361145  122.45099640    0.01000000    0.25999999
   17.12694550  117.23799896    0.01000000    0.25999999
   17.13000107  119.60199738    0.01000000    0.25999999
   17.13333321  128.98100281    0.01000000    0.25999999
   17.13666725  128.71499634    0.01000000    0.25999999
   17.13972282  122.08999634    0.01000000    0.25999999
   17.14305496  125.46900177    0.01000000    0.25999999
   17.14416695  125.69899750    0.01000000    0.25999999
   17.14666748  118.01699829    0.01000000    0.25999999
   17.14999962  111.61499786    0.01000000    0.25999999
   17.15583229  111.61499786    0.01000000    0.25999999
   17.15999985  110.58999634    0.01000000    0.25999999
   17.16333389  114.23200226    0.01000000    0.25999999
   17.16666603  106.24400330    0.01000000    0.25999999
   17.16972160  117.04399872    0.01000000    0.25999999
   17.17305565  108.12000275    0.01000000    0.25999999
   17.17611122  107.98200226    0.01000000    0.25999999
   17.17749977  107.07800293    0.01000000    0.25999999
   17.17972183  116.04399872    0.01000000    0.25999999
   17.18305397  101.04599762    0.01000000    0.25999999
   17.18610954  111.27200317    0.01000000    0.25999999
   17.18944359  104.91400146    0.01000000    0.25999999
   17.19277763  107.85600281    0.01000000    0.25999999
   17.19888878  107.85600281    0.01000000    0.25999999
   17.20305634  111.93900299    0.01000000    0.25999999
   17.20611191  114.73899841    0.01000000    0.25999999
   17.20944595  111.35900116    0.01000000    0.25999999
   17.21111107  108.78500366    0.01000000    0.25999999
   17.21305656  111.79499817    0.01000000    0.25999999
   17.21611214  111.97299957    0.01000000    0.25999999
   17.21944427  101.29100037    0.01000000    0.25999999
   17.22277832  104.93099976    0.01000000    0.25999999
   17.22583389  105.63899994    0.01000000    0.25999999
   17.22916794  101.67500305    0.01000000    0.25999999
   17.23250008  101.38700104    0.01000000    0.25999999
   17.23555565   99.86199951    0.01000000    0.25999999
   17.24166679   99.86199951    0.01000000    0.25999999
   17.24583435  110.40899658    0.01000000    0.25999999
   17.24888992  100.66300201    0.01000000    0.25999999
   17.25222206  108.09200287    0.01000000    0.25999999
   17.25527763  103.06099701    0.01000000    0.25999999
   17.25861168  111.07199860    0.01000000    0.25999999
   17.26194382  111.53199768    0.01000000    0.25999999
   17.26499939  110.41000366    0.01000000    0.25999999
   17.26833344  110.13300323    0.01000000    0.25999999
   17.27166557  115.69000244    0.01000000    0.25999999
   17.27472115  104.61699677    0.01000000    0.25999999
   17.27777672  121.37000275    0.01000000    0.25999999
   17.27833366  107.64299774    0.01000000    0.25999999
   17.28444481  107.64299774    0.01000000    0.25999999
   17.28861046  112.51100159    0.01000000    0.25999999
   17.29166603  110.67800140    0.01000000    0.25999999
   17.29500008  107.12400055    0.01000000    0.25999999
   17.29833221  106.47000122    0.01000000    0.25999999
   17.30138779  101.88700104    0.01000000    0.25999999
   17.30472183  100.61100006    0.01000000    0.25999999
   17.30805397   99.97789764    0.01000000    0.25999999
   17.31110954  114.46299744    0.01000000    0.25999999
   17.31166649  108.24400330    0.01000000    0.25999999
   17.31499863  104.14600372    0.01000000    0.25999999
   17.31805611   99.47579956    0.01000000    0.25999999
   17.32139015  103.33000183    0.01000000    0.25999999
   17.32722282  103.33000183    0.01000000    0.25999999
   17.33139038  106.69300079    0.01000000    0.25999999
   17.33472252  107.21099854    0.01000000    0.25999999
   17.33777809  108.15599823    0.01000000    0.25999999
   17.34111214  112.69899750    0.01000000    0.25999999
   17.34444427  100.39199829    0.01000000    0.25999999
   17.34500122  105.82900238    0.01000000    0.25999999
   17.34805679  108.75099945    0.01000000    0.25999999
   17.35138893  114.06400299    0.01000000    0.25999999
   17.35472298  104.50399780    0.01000000    0.25999999
   17.35777855  109.00499725    0.01000000    0.25999999
   17.36111069  104.57800293    0.01000000    0.25999999
   17.36444473  112.82599640    0.01000000    0.25999999
   17.37027740  112.82599640    0.01000000    0.25999999
   17.37416649  115.46199799    0.01000000    0.25999999
   17.37750053  111.92400360    0.01000000    0.25999999
   17.37833405  108.66500092    0.01000000    0.25999999
   17.38111115  112.28800201    0.01000000    0.25999999
   17.38444519  105.27700043    0.01000000    0.25999999
   17.38777733  101.00499725    0.01000000    0.25999999
   17.39083290   97.37409973    0.01000000    0.25999999
   17.39416695  107.33799744    0.01000000    0.25999999
   17.39722252  104.65000153    0.01000000    0.25999999
   17.40055466  108.97699738    0.01000000    0.25999999
   17.40388870  114.50700378    0.01000000    0.25999999
   17.40694427  107.78500366    0.01000000    0.25999999
   17.41305542  107.78500366    0.01000000    0.25999999
   17.41722107  113.07099915    0.01000000    0.25999999
   17.42027664  111.64900208    0.01000000    0.25999999
   17.42361069  110.98999786    0.01000000    0.25999999
   17.42694473  119.52300262    0.01000000    0.25999999
   17.43000031  114.43900299    0.01000000    0.25999999
   17.43333244  118.59500122    0.01000000    0.25999999
   17.43666649  112.78900146    0.01000000    0.25999999
   17.43972206  112.64199829    0.01000000    0.25999999
   17.44305420  117.77899933    0.01000000    0.25999999
   17.44499969  108.92700195    0.01000000    0.25999999
   17.44666672  114.18599701    0.01000000    0.25999999
   17.45000076  113.01000214    0.01000000    0.25999999
   17.45583344  113.01000214    0.01000000    0.25999999
   17.46000099  112.55899811    0.01000000    0.25999999
   17.46305656  115.55999756    0.01000000    0.25999999
   17.46638870  112.08899689    0.01000000    0.25999999
   17.46972275  102.18499756    0.01000000    0.25999999
   17.47277832  108.36699677    0.01000000    0.25999999
   17.47611237  104.76399994    0.01000000    0.25999999
   17.47833443  102.36100006    0.01000000    0.25999999
   17.48000145  106.70099640    0.01000000    0.25999999
   17.48305511  107.81199646    0.01000000    0.25999999
   17.48638916  110.90799713    0.01000000    0.25999999
   17.48944473  114.28800201    0.01000000    0.25999999
   17.49277878  111.31999969    0.01000000    0.25999999
   17.49861145  111.31999969    0.01000000    0.25999999
   17.50277710  105.18299866    0.01000000    0.25999999
   17.50611115  106.40100098    0.01000000    0.25999999
   17.50916672  108.49500275    0.01000000    0.25999999
   17.52638817  103.65000153    0.01000000    0.25999999
   17.52916718  113.21099854    0.01000000    0.25999999
   17.53249931  122.27700043    0.01000000    0.25999999
   17.53583336  103.15299988    0.01000000    0.25999999
   17.54166603  103.15299988    0.01000000    0.25999999
   17.54583359  103.33000183    0.01000000    0.25999999
   17.54916573  100.92900085    0.01000000    0.25999999
   17.55222130  102.11199951    0.01000000    0.25999999
   17.55555534  103.39199829    0.01000000    0.25999999
   17.55861092   97.90709686    0.01000000    0.25999999
   17.55944443  103.72000122    0.01000000    0.25999999
   17.56222153  101.28800201    0.01000000    0.25999999
   17.56555557  104.38899994    0.01000000    0.25999999
   17.56861115  105.38999939    0.01000000    0.25999999
   17.57194519  101.22499847    0.01000000    0.25999999
   17.57527924  102.27500153    0.01000000    0.25999999
   17.57833481  101.70500183    0.01000000    0.25999999
   17.58444595  101.70500183    0.01000000    0.25999999
   17.58861160  108.06999969    0.01000000    0.25999999
   17.59194565  106.83499908    0.01000000    0.25999999
   17.59277916  106.29599762    0.01000000    0.25999999
   17.59555626  103.47100067    0.01000000    0.25999999
   17.59889030  104.99500275    0.01000000    0.25999999
   17.60194397  105.12100220    0.01000000    0.25999999
   17.60527802  108.87899780    0.01000000    0.25999999
   17.60861206  110.43699646    0.01000000    0.25999999
   17.61166763  105.43499756    0.01000000    0.25999999
   17.61499977  107.47499847    0.01000000    0.25999999
   17.61833382  110.62500000    0.01000000    0.25999999
   17.62138939   98.93350220    0.01000000    0.25999999
   17.62750053   98.93350220    0.01000000    0.25999999
   17.63166618   95.87969971    0.01000000    0.25999999
   17.63472176   97.10099792    0.01000000    0.25999999
   17.63805580  101.17400360    0.01000000    0.25999999
   17.64111137   95.98919678    0.01000000    0.25999999
   17.64444351  109.06900024    0.01000000    0.25999999
   17.64777756  102.79900360    0.01000000    0.25999999
   17.65083313   99.29589844    0.01000000    0.25999999
   17.65416718  101.28099823    0.01000000    0.25999999
   17.65749931  100.70500183    0.01000000    0.25999999
   17.65972137   99.19259644    0.01000000    0.25999999
   17.66083336  105.63600159    0.01000000    0.25999999
   17.66416550   99.54399872    0.01000000    0.25999999
   17.67027664   99.54399872    0.01000000    0.25999999
   17.67444420  108.18599701    0.01000000    0.25999999
   17.67777634  104.86199951    0.01000000    0.25999999
   17.68083191  103.77600098    0.01000000    0.25999999
   17.68416595  103.69100189    0.01000000    0.25999999
   17.68722153  103.08599854    0.01000000    0.25999999
   17.69055557  101.44300079    0.01000000    0.25999999
   17.69305420  108.26100159    0.01000000    0.25999999
   17.69416618  105.45700073    0.01000000    0.25999999
   17.69749832  102.35299683    0.01000000    0.25999999
   17.70055580   99.45420074    0.01000000    0.25999999
   17.70388985  104.20099640    0.01000000    0.25999999
   17.70722389   97.03970337    0.01000000    0.25999999
   17.71305656   97.03970337    0.01000000    0.25999999
   17.71722221   99.90589905    0.01000000    0.25999999
   17.72055626   97.25489807    0.01000000    0.25999999
   17.72361183   93.24610138    0.01000000    0.25999999
   17.72638893   97.83090210    0.01000000    0.25999999
   17.72722244  103.26100159    0.01000000    0.25999999
   17.73055649  103.53099823    0.01000000    0.25999999
   17.73388863  104.13800049    0.01000000    0.25999999
   17.73694420   97.15519714    0.01000000    0.25999999
   17.74027824  102.55500031    0.01000000    0.25999999
   17.74333382  102.86499786    0.01000000    0.25999999
   17.74666786  103.92500305    0.01000000    0.25999999
   17.75000000  104.77899933    0.01000000    0.25999999
   17.75583267  104.77899933    0.01000000    0.25999999
   17.76000023  115.44400024    0.01000000    0.25999999
   17.76333427  110.51499939    0.01000000    0.25999999
   17.76638794  109.14399719    0.01000000    0.25999999
   17.76972198  110.71299744    0.01000000    0.25999999
   17.77305603  114.99299622    0.01000000    0.25999999
   17.77611160  115.93000031    0.01000000    0.25999999
   17.77944374  109.77799988    0.01000000    0.25999999
   17.78277779  186.41900635    0.01000000    0.25999999
   17.78583336   99.66159821    0.01000000    0.25999999
   17.78916550  108.29100037    0.01000000    0.25999999
   17.79222107  104.25599670    0.01000000    0.25999999
   17.79305458   99.95339966    0.01000000    0.25999999
   17.79888916   99.95339966    0.01000000    0.25999999
   17.80277634  113.05799866    0.01000000    0.25999999
   17.80611038  100.69200134    0.01000000    0.25999999
   17.80944443  105.43599701    0.01000000    0.25999999
   17.81250000  110.09999847    0.01000000    0.25999999
   17.81583214  117.32099915    0.01000000    0.25999999
   17.81916809  104.39800262    0.01000000    0.25999999
   17.82222366  115.76499939    0.01000000    0.25999999
   17.82555580  109.60900116    0.01000000    0.25999999
   17.82638931  106.97699738    0.01000000    0.25999999
   17.82916832  110.56300354    0.01000000    0.25999999
   17.83250046  115.92800140    0.01000000    0.25999999
   17.83555603  116.38999939    0.01000000    0.25999999
   17.84166718  116.38999939    0.01000000    0.25999999
   17.84583473  120.85800171    0.01000000    0.25999999
   17.84889030  118.17400360    0.01000000    0.25999999
   17.85222244  120.87999725    0.01000000    0.25999999
   17.85555649  118.00700378    0.01000000    0.25999999
   17.85861206  109.41600037    0.01000000    0.25999999
   17.85972214  105.16400146    0.01000000    0.25999999
   17.86222267  101.19100189    0.01000000    0.25999999
   17.86555672  109.29199982    0.01000000    0.25999999
   17.86888885   98.15560150    0.01000000    0.25999999
   17.87194443   99.80259705    0.01000000    0.25999999
   17.87527847  112.13700104    0.01000000    0.25999999
   17.87833405   99.42259979    0.01000000    0.25999999
   17.88444519   99.42259979    0.01000000    0.25999999
   17.88861084   98.53279877    0.01000000    0.25999999
   17.89194489  105.00099945    0.01000000    0.25999999
   17.89305496  105.59899902    0.01000000    0.25999999
   17.89527702  108.16500092    0.01000000    0.25999999
   17.89861107   99.18350220    0.01000000    0.25999999
   17.90194321  100.68800354    0.01000000    0.25999999
   17.90499878  109.92900085    0.01000000    0.25999999
   17.90833282  114.59400177    0.01000000    0.25999999
   17.91138840  112.98400116    0.01000000    0.25999999
   17.91472244  109.89499664    0.01000000    0.25999999
   17.91805458  112.51999664    0.01000000    0.25999999
   17.92111015  107.91200256    0.01000000    0.25999999
   17.92722130  107.91200256    0.01000000    0.25999999
   17.93138885  118.10299683    0.01000000    0.25999999
   17.93472099  115.88800049    0.01000000    0.25999999
   17.93777657  123.29000092    0.01000000    0.25999999
   17.94111061  112.41500092    0.01000000    0.25999999
   17.94444275  122.97000122    0.01000000    0.25999999
   17.94777679  110.87100220    0.01000000    0.25999999
   17.95083427  116.36599731    0.01000000    0.25999999
   17.95416832  105.15499878    0.01000000    0.25999999
   17.95722389  112.54699707    0.01000000    0.25999999
   17.95972252  106.38400269    0.01000000    0.25999999
   17.96083450  108.62300110    0.01000000    0.25999999
   17.96416664  110.58200073    0.01000000    0.25999999
   17.97027779  110.58200073    0.01000000    0.25999999
   17.97416687  114.74700165    0.01000000    0.25999999
   17.97750092  114.39199829    0.01000000    0.25999999
   17.98083305  110.40200043    0.01000000    0.25999999
   17.98388863  122.93800354    0.01000000    0.25999999
   17.98722267  119.28099823    0.01000000    0.25999999
   17.99055672  115.93199921    0.01000000    0.25999999
   17.99305534  115.03500366    0.01000000    0.25999999
   17.99388885  114.86499786    0.01000000    0.25999999
   17.99722290  124.64499664    0.01000000    0.25999999
   18.00055504  118.97799683    0.01000000    0.25999999
   18.00361061  109.48500061    0.01000000    0.25999999
   18.00694466  120.13899994    0.01000000    0.25999999
   18.01305580  120.13899994    0.01000000    0.25999999
   18.01722145  111.20300293    0.01000000    0.25999999
   18.02027702  104.33499908    0.01000000    0.25999999
   18.02361107  109.85199738    0.01000000    0.25999999
   18.02638817  111.22899628    0.01000000    0.25999999
   18.02722168  107.67800140    0.01000000    0.25999999
   18.03055573  109.93399811    0.01000000    0.25999999
   18.03388786  102.46800232    0.01000000    0.25999999
   18.03694344  108.31400299    0.01000000    0.25999999
   18.04027748  114.59200287    0.01000000    0.25999999
   18.04333305  109.34899902    0.01000000    0.25999999
   18.04666710  111.34200287    0.01000000    0.25999999
   18.04999924  115.98500061    0.01000000    0.25999999
   18.05583191  115.98500061    0.01000000    0.25999999
   18.05999947  116.69400024    0.01000000    0.25999999
   18.06333351  112.36199951    0.01000000    0.25999999
   18.06638718  118.80599976    0.01000000    0.25999999
   18.06972313  114.58000183    0.01000000    0.25999999
   18.07277870  109.50099945    0.01000000    0.25999999
   18.07611275  111.94200134    0.01000000    0.25999999
   18.07944489  106.04399872    0.01000000    0.25999999
   18.08250046  110.54900360    0.01000000    0.25999999
   18.08583450  109.84300232    0.01000000    0.25999999
   18.08916664  111.68900299    0.01000000    0.25999999
   18.09222221  101.72399902    0.01000000    0.25999999
   18.09305573  100.77600098    0.01000000    0.25999999
   18.09861183  100.77600098    0.01000000    0.25999999
   18.10277748   97.76650238    0.01000000    0.25999999
   18.10611153  105.49299622    0.01000000    0.25999999
   18.10916710   93.46540070    0.01000000    0.25999999
   18.11250114   97.33419800    0.01000000    0.25999999
   18.11583328  100.41100311    0.01000000    0.25999999
   18.11916733  102.81700134    0.01000000    0.25999999
   18.12222290  108.48100281    0.01000000    0.25999999
   18.12555504  105.13400269    0.01000000    0.25999999
   18.12638855  101.55699921    0.01000000    0.25999999
   18.12916756  106.66100311    0.01000000    0.25999999
   18.13249969  104.73500061    0.01000000    0.25999999
   18.13583374  108.33699799    0.01000000    0.25999999
   18.14166641  108.33699799    0.01000000    0.25999999
   18.14555550  114.48600006    0.01000000    0.25999999
   18.14888954  118.43199921    0.01000000    0.25999999
   18.15222168  107.64499664    0.01000000    0.25999999
   18.15527725  101.46099854    0.01000000    0.25999999
   18.15861130  110.35600281    0.01000000    0.25999999
   18.15972137  107.52700043    0.01000000    0.25999999
   18.16222191  104.73899841    0.01000000    0.25999999
   18.16555595  107.62699890    0.01000000    0.25999999
   18.16888809  114.58399963    0.01000000    0.25999999
   18.17194366  104.26100159    0.01000000    0.25999999
   18.17527771  106.15000153    0.01000000    0.25999999
   18.17860985   84.97480011    0.01000000    0.25999999
   18.18444443   84.97480011    0.01000000    0.25999999
   18.18861008   91.64700317    0.01000000    0.25999999
   18.19166565  104.55500031    0.01000000    0.25999999
   18.19305420  110.50599670    0.01000000    0.25999999
   18.19527626  102.27100372    0.01000000    0.25999999
   18.19861031  105.74500275    0.01000000    0.25999999
   18.20194435  105.64600372    0.01000000    0.25999999
   18.20527840  113.17500305    0.01000000    0.25999999
   18.20833397  105.10500336    0.01000000    0.25999999
   18.21166801  101.34400177    0.01000000    0.25999999
   18.21500015  109.00900269    0.01000000    0.25999999
   18.21805573  111.56400299    0.01000000    0.25999999
   18.22138977  115.31199646    0.01000000    0.25999999
   18.22722244  115.31199646    0.01000000    0.25999999
   18.23139000  107.30300140    0.01000000    0.25999999
   18.23472214  105.72200012    0.01000000    0.25999999
   18.23777771  100.56099701    0.01000000    0.25999999
   18.24111176  104.34899902    0.01000000    0.25999999
   18.24416733  107.86799622    0.01000000    0.25999999
   18.24749947  106.10500336    0.01000000    0.25999999
   18.25083351  106.99199677    0.01000000    0.25999999
   18.25388908   96.78949738    0.01000000    0.25999999
   18.25722313  105.47599792    0.01000000    0.25999999
   18.25972176  104.09999847    0.01000000    0.25999999
   18.26083374  109.49199677    0.01000000    0.25999999
   18.26416588  105.76699829    0.01000000    0.25999999
   18.27000046  105.76699829    0.01000000    0.25999999
   18.27416611  137.80499268    0.01000000    0.25999999
   18.27750015  109.66400146    0.01000000    0.25999999
   18.28083229  102.75099945    0.01000000    0.25999999
   18.28388786  105.61599731    0.01000000    0.25999999
   18.28722191  105.73000336    0.01000000    0.25999999
   18.29055595  113.62799835    0.01000000    0.25999999
   18.29305458  106.04199982    0.01000000    0.25999999
   18.29416656  110.36199951    0.01000000    0.25999999
   18.29722214  101.70999908    0.01000000    0.25999999
   18.30055428  104.56199646    0.01000000    0.25999999
   18.30360985  101.47200012    0.01000000    0.25999999
   18.30694389  103.12599945    0.01000000    0.25999999
   18.31305504  103.12599945    0.01000000    0.25999999
   18.31694603  104.32599640    0.01000000    0.25999999
   18.32027817   98.59300232    0.01000000    0.25999999
   18.32361221  100.26999664    0.01000000    0.25999999
   18.32638931  105.33399963    0.01000000    0.25999999
   18.32722282  111.39499664    0.01000000    0.25999999
   18.33027840   99.53939819    0.01000000    0.25999999
   18.33361244   98.21440125    0.01000000    0.25999999
   18.33666801  105.61100006    0.01000000    0.25999999
   18.34000015  106.65499878    0.01000000    0.25999999
   18.34333420   97.14409637    0.01000000    0.25999999
   18.34638977  103.07099915    0.01000000    0.25999999
   18.34972191  108.73999786    0.01000000    0.25999999
   18.35583305  108.73999786    0.01000000    0.25999999
   18.36000061  103.48600006    0.01000000    0.25999999
   18.36305618  104.87799835    0.01000000    0.25999999
   18.36638832  101.89199829    0.01000000    0.25999999
   18.36972237  106.89299774    0.01000000    0.25999999
   18.37277794  202.22000122    0.01000000    0.25999999
   18.37611198  104.97000122    0.01000000    0.25999999
   18.37916756  106.97000122    0.01000000    0.25999999
   18.38249969   98.59020233    0.01000000    0.25999999
   18.38583374   98.07379913    0.01000000    0.25999999
   18.38888931   98.10459900    0.01000000    0.25999999
   18.39222145   98.69419861    0.01000000    0.25999999
   18.39305496   96.82599640    0.01000000    0.25999999
   18.39861107   96.82599640    0.01000000    0.25999999
   18.40277672   98.85929871    0.01000000    0.25999999
   18.40611076  103.92400360    0.01000000    0.25999999
   18.40916634  102.45999908    0.01000000    0.25999999
   18.41250038  100.78199768    0.01000000    0.25999999
   18.41555595  101.33599854    0.01000000    0.25999999
   18.41888809  102.11000061    0.01000000    0.25999999
   18.42222214  103.48799896    0.01000000    0.25999999
   18.42527771  104.38400269    0.01000000    0.25999999
   18.42638779  104.10299683    0.01000000    0.25999999
   18.42916679   98.29560089    0.01000000    0.25999999
   18.43222237  100.16200256    0.01000000    0.25999999
   18.43555450  103.23600006    0.01000000    0.25999999
   18.44138718  103.23600006    0.01000000    0.25999999
   18.44555473  102.17700195    0.01000000    0.25999999
   18.44888878  107.11799622    0.01000000    0.25999999
   18.45222282  114.28800201    0.01000000    0.25999999
   18.45527840  107.89299774    0.01000000    0.25999999
   18.45861244  106.47000122    0.01000000    0.25999999
   18.45972252  115.89199829    0.01000000    0.25999999
   18.46250153  107.64099884    0.01000000    0.25999999
   18.46555710  102.95600128    0.01000000    0.25999999
   18.46888924   97.93270111    0.01000000    0.25999999
   18.47194481  102.52200317    0.01000000    0.25999999
   18.47527885  102.12899780    0.01000000    0.25999999
   18.47861099  102.88400269    0.01000000    0.25999999
   18.48444557  102.88400269    0.01000000    0.25999999
   18.48833275  106.43199921    0.01000000    0.25999999
   18.49166679   97.73950195    0.01000000    0.25999999
   18.49305534  100.41300201    0.01000000    0.25999999
   18.49555588   96.03440094    0.01000000    0.25999999
   18.49861145   96.44499969    0.01000000    0.25999999
   18.50194359  105.55200195    0.01000000    0.25999999
   18.50499916  102.91200256    0.01000000    0.25999999
   18.50833321  100.16200256    0.01000000    0.25999999
   18.51166725  114.72000122    0.01000000    0.25999999
   18.51472282  109.19400024    0.01000000    0.25999999
   18.51805496  111.22699738    0.01000000    0.25999999
   18.52138901  108.23799896    0.01000000    0.25999999
   18.54361153   95.73609924    0.01000000    0.25999999
   18.54388809   95.71299744    0.01000000    0.25999999
   18.54722214   98.05200195    0.01000000    0.25999999
   18.55027771   95.24479675    0.01000000    0.25999999
   18.55360985   99.32430267    0.01000000    0.25999999
   18.55694389  110.23300171    0.01000000    0.25999999
   18.55972099  107.14399719    0.01000000    0.25999999
   18.56055450  100.56300354    0.01000000    0.25999999
   18.56361008  104.39800262    0.01000000    0.25999999
   18.57000160  104.39800262    0.01000000    0.25999999
   18.57416725  106.17099762    0.01000000    0.25999999
   18.57750130  109.30599976    0.01000000    0.25999999
   18.58055687  111.03099823    0.01000000    0.25999999
   18.58388901  101.24400330    0.01000000    0.25999999
   18.58722305  109.51399994    0.01000000    0.25999999
   18.59027863  116.47299957    0.01000000    0.25999999
   18.59305573  107.50499725    0.01000000    0.25999999
   18.59416771  108.26699829    0.01000000    0.25999999
   18.59722328  102.54100037    0.01000000    0.25999999
   18.60055542  120.82199860    0.01000000    0.25999999
   18.60388947  106.19000244    0.01000000    0.25999999
   18.60694504  104.52300262    0.01000000    0.25999999
   18.61277771  104.52300262    0.01000000    0.25999999
   18.61694527  115.88300323    0.01000000    0.25999999
   18.62027740  105.26799774    0.01000000    0.25999999
   18.62361145  108.04599762    0.01000000    0.25999999
   18.62638855  107.04699707    0.01000000    0.25999999
   18.62722206  111.20400238    0.01000000    0.25999999
   18.63027763  106.46800232    0.01000000    0.25999999
   18.63361168  113.99400330    0.01000000    0.25999999
   18.63694382  110.48000336    0.01000000    0.25999999
   18.63999939  108.81400299    0.01000000    0.25999999
   18.64333344  105.39199829    0.01000000    0.25999999
   18.64666748  111.61299896    0.01000000    0.25999999
   18.64972115  110.45600128    0.01000000    0.25999999
   18.65583229  110.45600128    0.01000000    0.25999999
   18.65999985  107.36699677    0.01000000    0.25999999
   18.66305542  108.28199768    0.01000000    0.25999999
   18.66638756  112.61299896    0.01000000    0.25999999
   18.66944313  108.04100037    0.01000000    0.25999999
   18.67277718  106.80000305    0.01000000    0.25999999
   18.67611122  114.39099884    0.01000000    0.25999999
   18.67916679  113.64600372    0.01000000    0.25999999
   18.68249893  104.46199799    0.01000000    0.25999999
   18.68583298  110.88300323    0.01000000    0.25999999
   18.68888855  102.27400208    0.01000000    0.25999999
   18.69222069  102.17199707    0.01000000    0.25999999
   18.69305420  111.28299713    0.01000000    0.25999999
   18.69861031  111.28299713    0.01000000    0.25999999
   18.70277786  100.10600281    0.01000000    0.25999999
   18.70583344  104.35299683    0.01000000    0.25999999
   18.70916748   99.49700165    0.01000000    0.25999999
   18.71250153   96.54199982    0.01000000    0.25999999
   18.71555710   99.31099701    0.01000000    0.25999999
   18.71888924   95.37590027    0.01000000    0.25999999
   18.72222328   94.50350189    0.01000000    0.25999999
   18.72527885  173.17999268    0.01000000    0.25999999
   18.72638893   96.99230194    0.01000000    0.25999999
   18.72888947   98.80619812    0.01000000    0.25999999
   18.73194504  102.66799927    0.01000000    0.25999999
   18.73527718  102.22599792    0.01000000    0.25999999
   18.74138832  102.22599792    0.01000000    0.25999999
   18.74555588   92.59809875    0.01000000    0.25999999
   18.74888992   97.86720276    0.01000000    0.25999999
   18.75194359  106.11599731    0.01000000    0.25999999
   18.75527763  104.31999969    0.01000000    0.25999999
   18.75861168   97.73259735    0.01000000    0.25999999
   18.75972176  100.85399628    0.01000000    0.25999999
   18.76222229   97.31159973    0.01000000    0.25999999
   18.76527786   99.63919830    0.01000000    0.25999999
   18.76861000   93.11769867    0.01000000    0.25999999
   18.77194405   94.26290131    0.01000000    0.25999999
   18.77499962   95.42970276    0.01000000    0.25999999
   18.77833366   93.49890137    0.01000000    0.25999999
   18.78416634   93.49890137    0.01000000    0.25999999
   18.78833199   93.87129974    0.01000000    0.25999999
   18.79166603   96.46350098    0.01000000    0.25999999
   18.79305458   94.81320190    0.01000000    0.25999999
   18.79527664   94.30899811    0.01000000    0.25999999
   18.79833221   96.07219696    0.01000000    0.25999999
   18.80166626   96.82599640    0.01000000    0.25999999
   18.80499840   94.00389862    0.01000000    0.25999999
   18.80805397  100.14700317    0.01000000    0.25999999
   18.81138802   94.71029663    0.01000000    0.25999999
   18.81472206   99.27819824    0.01000000    0.25999999
   18.81777954   94.10700226    0.01000000    0.25999999
   18.82111168   98.54820251    0.01000000    0.25999999
   18.82722282   98.54820251    0.01000000    0.25999999
   18.83139038   90.46700287    0.01000000    0.25999999
   18.83444595   88.81809998    0.01000000    0.25999999
   18.83777809   99.34220123    0.01000000    0.25999999
   18.84083366   92.32769775    0.01000000    0.25999999
   18.84416771   97.83229828    0.01000000    0.25999999
   18.84749985   83.17120361    0.01000000    0.25999999
   18.85055542   89.32460022    0.01000000    0.25999999
   18.85388947   92.80750275    0.01000000    0.25999999
   18.85722351   88.74079895    0.01000000    0.25999999
   18.85972214   92.33149719    0.01000000    0.25999999
   18.86083412   89.18720245    0.01000000    0.25999999
   18.86388969   92.85620117    0.01000000    0.25999999
   18.87000084   92.85620117    0.01000000    0.25999999
   18.87416649   95.83339691    0.01000000    0.25999999
   18.87722206   87.35700226    0.01000000    0.25999999
   18.88055611   87.17079926    0.01000000    0.25999999
   18.88388824   94.62789917    0.01000000    0.25999999
   18.88694382   85.65809631    0.01000000    0.25999999
   18.89027786   88.42680359    0.01000000    0.25999999
   18.89305496   85.80180359    0.01000000    0.25999999
   18.89388847   90.55899811    0.01000000    0.25999999
   18.89694405   88.58439636    0.01000000    0.25999999
   18.90027809   91.18129730    0.01000000    0.25999999
   18.90361023  201.57499695    0.01000000    0.25999999
   18.90666580   88.18270111    0.01000000    0.25999999
   18.91277695   88.18270111    0.01000000    0.25999999
   18.91694450   89.34639740    0.01000000    0.25999999
   18.92027664   88.83239746    0.01000000    0.25999999
   18.92333221   93.19139862    0.01000000    0.25999999
   18.92638779   84.90789795    0.01000000    0.25999999
   18.92722130   85.70210266    0.01000000    0.25999999
   18.93027687   86.51239777    0.01000000    0.25999999
   18.93361092   90.45020294    0.01000000    0.25999999
   18.93694305   85.86660004    0.01000000    0.25999999
   18.93999863   87.19259644    0.01000000    0.25999999
   18.94333267   91.37280273    0.01000000    0.25999999
   18.94666672   87.71820068    0.01000000    0.25999999
   18.94972038   94.87779999    0.01000000    0.25999999
   18.95555687   94.87779999    0.01000000    0.25999999
   18.95972252   94.13520050    0.01000000    0.25999999
   18.96305656   88.95829773    0.01000000    0.25999999
   18.96638870   94.98020172    0.01000000    0.25999999
   18.96972275   91.51599884    0.01000000    0.25999999
   18.97277832   97.42169952    0.01000000    0.25999999
   18.97611237   82.59300232    0.01000000    0.25999999
   18.97916794   99.05020142    0.01000000    0.25999999
   18.98250008   98.95659637    0.01000000    0.25999999
   18.98583412  106.01799774    0.01000000    0.25999999
   18.98888969  100.50199890    0.01000000    0.25999999
   18.99222183   98.54170227    0.01000000    0.25999999
   18.99305534   99.34390259    0.01000000    0.25999999
   18.99861145   99.34390259    0.01000000    0.25999999
   19.00277710   97.57029724    0.01000000    0.25999999
   19.00583267   92.67350006    0.01000000    0.25999999
   19.00916672   86.27320099    0.01000000    0.25999999
   19.01222229   93.43990326    0.01000000    0.25999999
   19.01555634   96.76719666    0.01000000    0.25999999
   19.01888847   94.88960266    0.01000000    0.25999999
   19.02194405   93.97540283    0.01000000    0.25999999
   19.02527809   90.14820099    0.01000000    0.25999999
   19.02638817   96.22039795    0.01000000    0.25999999
   19.02888870   93.14479828    0.01000000    0.25999999
   19.03194427   90.35410309    0.01000000    0.25999999
   19.03527641   85.60119629    0.01000000    0.25999999
   19.04138756   85.60119629    0.01000000    0.25999999
   19.04555511   89.67559814    0.01000000    0.25999999
   19.04861069   96.87229919    0.01000000    0.25999999
   19.05194283  103.17700195    0.01000000    0.25999999
   19.05527687  100.52999878    0.01000000    0.25999999
   19.05833244   95.63790131    0.01000000    0.25999999
   19.05972099  101.68000031    0.01000000    0.25999999
   19.06194305   91.48020172    0.01000000    0.25999999
   19.06499863   98.21690369    0.01000000    0.25999999
   19.06833458   92.85720062    0.01000000    0.25999999
   19.07166672  102.09799957    0.01000000    0.25999999
   19.07472229   99.66449738    0.01000000    0.25999999
   19.07805634   96.76519775    0.01000000    0.25999999
   19.08416748   96.76519775    0.01000000    0.25999999
   19.08833313   93.03869629    0.01000000    0.25999999
   19.09166718   99.58869934    0.01000000    0.25999999
   19.09305573   92.82589722    0.01000000    0.25999999
   19.09527779   98.88880157    0.01000000    0.25999999
   19.09861183   95.02020264    0.01000000    0.25999999
   19.10166740   95.05310059    0.01000000    0.25999999
   19.10499954   98.78440094    0.01000000    0.25999999
   19.10805511   99.31529999    0.01000000    0.25999999
   19.11138916   96.33599854    0.01000000    0.25999999
   19.11472321   94.92980194    0.01000000    0.25999999
   19.11777878   97.36910248    0.01000000    0.25999999
   19.12111092   96.35679626    0.01000000    0.25999999
   19.12694550   96.35679626    0.01000000    0.25999999
   19.13111115   98.74729919    0.01000000    0.25999999
   19.13444519   97.93129730    0.01000000    0.25999999
   19.13750076   92.50299835    0.01000000    0.25999999
   19.14083290  101.29000092    0.01000000    0.25999999
   19.14416695   93.88739777    0.01000000    0.25999999
   19.14722252   92.39630127    0.01000000    0.25999999
   19.15055466  102.45300293    0.01000000    0.25999999
   19.15388870  105.69400024    0.01000000    0.25999999
   19.15694427  101.43000031    0.01000000    0.25999999
   19.15972137   95.02310181    0.01000000    0.25999999
   19.16055489   92.98390198    0.01000000    0.25999999
   19.16388893   89.83249664    0.01000000    0.25999999
   19.17000008   89.83249664    0.01000000    0.25999999
   19.17388916  100.56099701    0.01000000    0.25999999
   19.17722130   94.58070374    0.01000000    0.25999999
   19.18055534   85.34040070    0.01000000    0.25999999
   19.18361092  107.34300232    0.01000000    0.25999999
   19.18694305  102.97299957    0.01000000    0.25999999
   19.19027710  103.92099762    0.01000000    0.25999999
   19.19305420  107.39700317    0.01000000    0.25999999
   19.19388771  102.69000244    0.01000000    0.25999999
   19.19722176  100.87000275    0.01000000    0.25999999
   19.20027924  102.17099762    0.01000000    0.25999999
   19.20361137   92.52860260    0.01000000    0.25999999
   19.20666695   94.37180328    0.01000000    0.25999999
   19.21277809   94.37180328    0.01000000    0.25999999
   19.21694565   94.29149628    0.01000000    0.25999999
   19.22000122   93.07260132    0.01000000    0.25999999
   19.22333336   89.57230377    0.01000000    0.25999999
   19.22638893   90.38839722    0.01000000    0.25999999
   19.22694588   94.28679657    0.01000000    0.25999999
   19.23027802   85.83499908    0.01000000    0.25999999
   19.23333359   90.18699646    0.01000000    0.25999999
   19.23666763   94.98999786    0.01000000    0.25999999
   19.23972321   86.30989838    0.01000000    0.25999999
   19.24305534   90.23459625    0.01000000    0.25999999
   19.24638939   85.85369873    0.01000000    0.25999999
   19.24944496   88.35669708    0.01000000    0.25999999
   19.25555611   88.35669708    0.01000000    0.25999999
   19.25972176   93.21640015    0.01000000    0.25999999
   19.26027870   90.87210083    0.01000000    0.25999999
   19.26361084   93.98380280    0.01000000    0.25999999
   19.26666641   90.03500366    0.01000000    0.25999999
   19.27000046   93.70729828    0.01000000    0.25999999
   19.27305603   93.36370087    0.01000000    0.25999999
   19.27638817   90.44999695    0.01000000    0.25999999
   19.27972221   95.96099854    0.01000000    0.25999999
   19.28277779   86.76570129    0.01000000    0.25999999
   19.28610992   94.99210358    0.01000000    0.25999999
   19.28944397   88.68080139    0.01000000    0.25999999
   19.29249954   93.07199860    0.01000000    0.25999999
   19.29361153   91.41410065    0.01000000    0.25999999
   19.29833221   91.41410065    0.01000000    0.25999999
   19.30249977   86.63719940    0.01000000    0.25999999
   19.30583191   93.09190369    0.01000000    0.25999999
   19.30916595   82.93859863    0.01000000    0.25999999
   19.31222153   90.36409760    0.01000000    0.25999999
   19.31555557   89.60150146    0.01000000    0.25999999
   19.31888962   94.96800232    0.01000000    0.25999999
   19.32194519   91.07029724    0.01000000    0.25999999
   19.32527924   96.68939972    0.01000000    0.25999999
   19.32694626   93.40579987    0.01000000    0.25999999
   19.32888985   92.96610260    0.01000000    0.25999999
   19.33194542   93.82869720    0.01000000    0.25999999
   19.33527756   98.85240173    0.01000000    0.25999999
   19.34138870   98.85240173    0.01000000    0.25999999
   19.34527779   95.72730255    0.01000000    0.25999999
   19.34861183   94.94219971    0.01000000    0.25999999
   19.35194397   99.32859802    0.01000000    0.25999999
   19.35499954   96.62069702    0.01000000    0.25999999
   19.35833359   93.86509705    0.01000000    0.25999999
   19.36027908   88.48709869    0.01000000    0.25999999
   19.36194420   90.72109985    0.01000000    0.25999999
   19.36499977   93.52320099    0.01000000    0.25999999
   19.36833382   79.02919769    0.01000000    0.25999999
   19.37166595   86.61370087    0.01000000    0.25999999
   19.37472153   86.50980377    0.01000000    0.25999999
   19.37805557   88.14600372    0.01000000    0.25999999
   19.38416672   88.14600372    0.01000000    0.25999999
   19.38833237   90.93229675    0.01000000    0.25999999
   19.39138794   94.46739960    0.01000000    0.25999999
   19.39361191   92.75080109    0.01000000    0.25999999
   19.39527702   88.72209930    0.01000000    0.25999999
   19.39833260   88.42289734    0.01000000    0.25999999
   19.40166664   90.23709869    0.01000000    0.25999999
   19.40499878   91.14589691    0.01000000    0.25999999
   19.40805435   91.70069885    0.01000000    0.25999999
   19.41138840   82.80159760    0.01000000    0.25999999
   19.41444397   90.07119751    0.01000000    0.25999999
   19.41777802   89.44899750    0.01000000    0.25999999
   19.42111015   92.09829712    0.01000000    0.25999999
   19.42694473   92.09829712    0.01000000    0.25999999
   19.43111038   97.49379730    0.01000000    0.25999999
   19.43444443   87.63590240    0.01000000    0.25999999
   19.43750000   90.96530151    0.01000000    0.25999999
   19.44083214   88.11029816    0.01000000    0.25999999
   19.44388771   86.62870026    0.01000000    0.25999999
   19.44749832   89.92160034    0.01000000    0.25999999
   19.45083427   88.28980255    0.01000000    0.25999999
   19.45416832   90.03540039    0.01000000    0.25999999
   19.45722389   94.26270294    0.01000000    0.25999999
   19.46027946   89.93039703    0.01000000    0.25999999
   19.46083450   90.54630280    0.01000000    0.25999999
   19.46389008   87.24870300    0.01000000    0.25999999
   19.46972275   87.24870300    0.01000000    0.25999999
   19.47389030   92.05970001    0.01000000    0.25999999
   19.47722244   94.31390381    0.01000000    0.25999999
   19.48027802   96.91660309    0.01000000    0.25999999
   19.48361206   96.97250366    0.01000000    0.25999999
   19.48694420   91.04019928    0.01000000    0.25999999
   19.48999977   90.33509827    0.01000000    0.25999999
   19.49333382   89.83460236    0.01000000    0.25999999
   19.49388885   88.52950287    0.01000000    0.25999999
   19.49694443   92.08450317    0.01000000    0.25999999
   19.50027847   93.36029816    0.01000000    0.25999999
   19.50361061   85.63430023    0.01000000    0.25999999
   19.50666618   94.92060089    0.01000000    0.25999999
   19.51277733   94.92060089    0.01000000    0.25999999
   19.51666641   99.00669861    0.01000000    0.25999999
   19.52000046   96.06079865    0.01000000    0.25999999
   19.52333260   95.77300262    0.01000000    0.25999999
   19.52638817  101.34300232    0.01000000    0.25999999
   19.52722168   92.08820343    0.01000000    0.25999999
   19.53000069   97.37069702    0.01000000    0.25999999
   19.53333282   92.77349854    0.01000000    0.25999999
   19.53666687   92.68589783    0.01000000    0.25999999
   19.53972244   94.41249847    0.01000000    0.25999999
   19.54305458   95.36209869    0.01000000    0.25999999
   19.56416512   95.36209869    0.01000000    0.25999999
   19.56833458   97.40989685    0.01000000    0.25999999
   19.57139015   97.72149658    0.01000000    0.25999999
   19.57472229   90.08339691    0.01000000    0.25999999
   19.57805634   96.55960083    0.01000000    0.25999999
   19.58111191   93.59999847    0.01000000    0.25999999
   19.58444595   92.47609711    0.01000000    0.25999999
   19.58777809   88.35749817    0.01000000    0.25999999
   19.59083366   86.77140045    0.01000000    0.25999999
   19.59416771   88.69560242    0.01000000    0.25999999
   19.59500122   89.35500336    0.01000000    0.25999999
   19.59749985   95.49800110    0.01000000    0.25999999
   19.60083389   92.58830261    0.01000000    0.25999999
   19.60694504   92.58830261    0.01000000    0.25999999
   19.61111069   89.73449707    0.01000000    0.25999999
   19.61416626   87.79219818    0.01000000    0.25999999
   19.61750031   90.14869690    0.01000000    0.25999999
   19.62083435   92.75720215    0.01000000    0.25999999
   19.62388992   96.19869995    0.01000000    0.25999999
   19.62722206   97.36470032    0.01000000    0.25999999
   19.62833405  100.05000305    0.01000000    0.25999999
   19.63055611  103.25800323    0.01000000    0.25999999
   19.63388824   92.14510345    0.01000000    0.25999999
   19.63722229   89.87280273    0.01000000    0.25999999
   19.64055634   86.92299652    0.01000000    0.25999999
   19.64388847   83.15110016    0.01000000    0.25999999
   19.64999962   83.15110016    0.01000000    0.25999999
   19.65444374   91.09400177    0.01000000    0.25999999
   19.65777779   96.83589935    0.01000000    0.25999999
   19.66110992   92.93939972    0.01000000    0.25999999
   19.66194344   94.26879883    0.01000000    0.25999999
   19.66444397   93.65450287    0.01000000    0.25999999
   19.66777802   89.84590149    0.01000000    0.25999999
   19.67083359  105.61199951    0.01000000    0.25999999
   19.67416573   85.01419830    0.01000000    0.25999999
   19.67749977   96.52980042    0.01000000    0.25999999
   19.68055534   93.03379822    0.01000000    0.25999999
   19.68388748   89.55159760    0.01000000    0.25999999
   19.68722153   90.60710144    0.01000000    0.25999999
   19.69249916   90.60710144    0.01000000    0.25999999
   19.69666672   86.39730072    0.01000000    0.25999999
   19.70000076   83.59369659    0.01000000    0.25999999
   19.70305634   92.99909973    0.01000000    0.25999999
   19.70639038   98.87329865    0.01000000    0.25999999
   19.70972252   91.90029907    0.01000000    0.25999999
   19.71277809   95.78520203    0.01000000    0.25999999
   19.71611214   94.44770050    0.01000000    0.25999999
   19.71944427   87.92469788    0.01000000    0.25999999
   19.72249985   93.08519745    0.01000000    0.25999999
   19.72583389   98.21739960    0.01000000    0.25999999
   19.72861099   98.11679840    0.01000000    0.25999999
   19.72944450  102.15299988    0.01000000    0.25999999
   19.73555565  102.15299988    0.01000000    0.25999999
   19.73944473  104.28199768    0.01000000    0.25999999
   19.74277878   94.08719635    0.01000000    0.25999999
   19.74611092  100.68399811    0.01000000    0.25999999
   19.74916649   89.64929962    0.01000000    0.25999999
   19.75250053   95.95050049    0.01000000    0.25999999
   19.75583267   91.63619995    0.01000000    0.25999999
   19.75888824   89.33989716    0.01000000    0.25999999
   19.76194382   89.58039856    0.01000000    0.25999999
   19.76250076   93.23650360    0.01000000    0.25999999
   19.76583290   89.54329681    0.01000000    0.25999999
   19.76916695   91.62789917    0.01000000    0.25999999
   19.77222252  100.44400024    0.01000000    0.25999999
   19.77833366  100.44400024    0.01000000    0.25999999
   19.78249931   89.39240265    0.01000000    0.25999999
   19.78555489   89.18450165    0.01000000    0.25999999
   19.78888893   96.73699951    0.01000000    0.25999999
   19.79222107  150.22099304    0.01000000    0.25999999
   19.79527664   97.67819977    0.01000000    0.25999999
   19.79555511   92.03489685    0.01000000    0.25999999
   19.79888916   92.88950348    0.01000000    0.25999999
   19.80222130   96.98529816    0.01000000    0.25999999
   19.80527687   92.76840210    0.01000000    0.25999999
   19.80861092   93.02880096    0.01000000    0.25999999
   19.81166649   92.62370300    0.01000000    0.25999999
   19.81499863   99.08190155    0.01000000    0.25999999
   19.82111168   99.08190155    0.01000000    0.25999999
   19.82527924   92.03079987    0.01000000    0.25999999
   19.82861137   97.18990326    0.01000000    0.25999999
   19.82888985   94.16870117    0.01000000    0.25999999
   19.83222389   93.91470337    0.01000000    0.25999999
   19.83555603  100.51000214    0.01000000    0.25999999
   19.83861160   87.07769775    0.01000000    0.25999999
   19.84194565   97.43730164    0.01000000    0.25999999
   19.84500122   96.09709930    0.01000000    0.25999999
   19.84833336   90.52239990    0.01000000    0.25999999
   19.85166740   92.69270325    0.01000000    0.25999999
   19.85472298   92.11060333    0.01000000    0.25999999
   19.85805511   95.39559937    0.01000000    0.25999999
   19.86388969   95.39559937    0.01000000    0.25999999
   19.86805534   95.90290070    0.01000000    0.25999999
   19.87138939   92.09619904    0.01000000    0.25999999
   19.87472153   90.58560181    0.01000000    0.25999999
   19.87777710   92.18340302    0.01000000    0.25999999
   19.88111115   94.46730042    0.01000000    0.25999999
   19.88416672   96.51879883    0.01000000    0.25999999
   19.88750076   94.91329956    0.01000000    0.25999999
   19.89083290   91.59359741    0.01000000    0.25999999
   19.89388847  100.09400177    0.01000000    0.25999999
   19.89527702   90.69270325    0.01000000    0.25999999
   19.89749908   92.86799622    0.01000000    0.25999999
   19.90083313   92.29640198    0.01000000    0.25999999
   19.90694427   92.29640198    0.01000000    0.25999999
   19.91110992  101.28299713    0.01000000    0.25999999
   19.91416550   93.19229889    0.01000000    0.25999999
   19.91749954   92.23490143    0.01000000    0.25999999
   19.92055511   83.97619629    0.01000000    0.25999999
   19.92388916   89.68509674    0.01000000    0.25999999
   19.92722130   89.39790344    0.01000000    0.25999999
   19.92860985   92.40730286    0.01000000    0.25999999
   19.93055534   94.97350311    0.01000000    0.25999999
   19.93388748   94.53849792    0.01000000    0.25999999
   19.93722153   87.00360107    0.01000000    0.25999999
   19.94027710   96.01260376    0.01000000    0.25999999
   19.94361115   91.23970032    0.01000000    0.25999999
   19.94972038   91.23970032    0.01000000    0.25999999
   19.95388985   93.91369629    0.01000000    0.25999999
   19.95694542   90.14150238    0.01000000    0.25999999
   19.96027946   91.05809784    0.01000000    0.25999999
   19.96222305   86.14140320    0.01000000    0.25999999
   19.96389008   85.95549774    0.01000000    0.25999999
   19.96722221   87.98719788    0.01000000    0.25999999
   19.97027779   88.12590027    0.01000000    0.25999999
   19.97361183   84.87979889    0.01000000    0.25999999
   19.97694588   89.95369720    0.01000000    0.25999999
   19.98000145   91.23729706    0.01000000    0.25999999
   19.98333359   93.44539642    0.01000000    0.25999999
   19.98666763   89.89230347    0.01000000    0.25999999
   19.99250031   89.89230347    0.01000000    0.25999999
   19.99666786   86.83270264    0.01000000    0.25999999
   20.00000000   92.19999695    0.01000000    0.25999999
   20.00305557   84.09819794    0.01000000    0.25999999
   20.00638962   86.13520050    0.01000000    0.25999999
   20.00944519   89.51909637    0.01000000    0.25999999
   20.01277733   89.93779755    0.01000000    0.25999999
   20.01611137   90.23570251    0.01000000    0.25999999
   20.01916695   88.11840057    0.01000000    0.25999999
   20.02249908   83.04450226    0.01000000    0.25999999
   20.02583313   88.55310059    0.01000000    0.25999999
   20.02888870   93.35910034    0.01000000    0.25999999
   20.02916718   90.03399658    0.01000000    0.25999999
   20.03527641   90.03399658    0.01000000    0.25999999
   20.03944397   87.09179688    0.01000000    0.25999999
   20.04277802   90.68890381    0.01000000    0.25999999
   20.04583359   87.05580139    0.01000000    0.25999999
   20.04916573   84.99179840    0.01000000    0.25999999
   20.05249977   81.06839752    0.01000000    0.25999999
   20.05555534   81.05529785    0.01000000    0.25999999
   20.05888748   88.44390106    0.01000000    0.25999999
   20.06222153   94.83560181    0.01000000    0.25999999
   20.06250000   88.80560303    0.01000000    0.25999999
   20.06583214   88.91190338    0.01000000    0.25999999
   20.06916809   87.68450165    0.01000000    0.25999999
   20.07222366   89.41790009    0.01000000    0.25999999
   20.07833481   89.41790009    0.01000000    0.25999999
   20.08222389   89.45659637    0.01000000    0.25999999
   20.08555603   92.67729950    0.01000000    0.25999999
   20.08889008   94.54219818    0.01000000    0.25999999
   20.09194565   84.77780151    0.01000000    0.25999999
   20.09527779   92.77539825    0.01000000    0.25999999
   20.09583473   90.83300018    0.01000000    0.25999999
   20.09889030   93.59490204    0.01000000    0.25999999
   20.10222244   91.86319733    0.01000000    0.25999999
   20.10555649   94.76879883    0.01000000    0.25999999
   20.10861206   88.67780304    0.01000000    0.25999999
   20.11194420   85.36150360    0.01000000    0.25999999
   20.11527824   86.83599854    0.01000000    0.25999999
   20.12111092   86.83599854    0.01000000    0.25999999
   20.12527847   91.14260101    0.01000000    0.25999999
   20.12833405   84.85440063    0.01000000    0.25999999
   20.12916756   92.44219971    0.01000000    0.25999999
   20.13194466   90.84510040    0.01000000    0.25999999
   20.13527679   81.99259949    0.01000000    0.25999999
   20.13861084   89.65239716    0.01000000    0.25999999
   20.14166641   85.95729828    0.01000000    0.25999999
   20.14500046   87.24680328    0.01000000    0.25999999
   20.14833260   88.66909790    0.01000000    0.25999999
   20.15138817   90.85369873    0.01000000    0.25999999
   20.15472221   89.87210083    0.01000000    0.25999999
   20.15777779   92.56040192    0.01000000    0.25999999
   20.16388893   92.56040192    0.01000000    0.25999999
   20.16805458   98.47489929    0.01000000    0.25999999
   20.17138863   93.37999725    0.01000000    0.25999999
   20.17444420   91.81150055    0.01000000    0.25999999
   20.17777634   93.27500153    0.01000000    0.25999999
   20.18111038   93.68620300    0.01000000    0.25999999
   20.18416595   87.15699768    0.01000000    0.25999999
   20.18750000   82.44390106    0.01000000    0.25999999
   20.19083214   86.29399872    0.01000000    0.25999999
   20.19388771   86.44920349    0.01000000    0.25999999
   20.19583321   81.90820313    0.01000000    0.25999999
   20.19749832   87.81120300    0.01000000    0.25999999
   20.20083427   92.29260254    0.01000000    0.25999999
   20.20666695   92.29260254    0.01000000    0.25999999
   20.21083450   95.35279846    0.01000000    0.25999999
   20.21416664   87.72480011    0.01000000    0.25999999
   20.21722221   87.32779694    0.01000000    0.25999999
   20.22055626   89.19999695    0.01000000    0.25999999
   20.22389030   87.87460327    0.01000000    0.25999999
   20.22694588   90.56390381    0.01000000    0.25999999
   20.22916794   94.08989716    0.01000000    0.25999999
   20.23055649   88.87449646    0.01000000    0.25999999
   20.23388863   88.97589874    0.01000000    0.25999999
   20.23722267   86.30449677    0.01000000    0.25999999
   20.24027824   82.98149872    0.01000000    0.25999999
   20.24361229   85.75630188    0.01000000    0.25999999
   20.24972153   85.75630188    0.01000000    0.25999999
   20.25361061   92.72940063    0.01000000    0.25999999
   20.25694466   92.11810303    0.01000000    0.25999999
   20.26027870   93.06490326    0.01000000    0.25999999
   20.26250076   93.45960236    0.01000000    0.25999999
   20.26388931   93.33329773    0.01000000    0.25999999
   20.26694489   95.86109924    0.01000000    0.25999999
   20.27027702   88.35600281    0.01000000    0.25999999
   20.27361107   91.19629669    0.01000000    0.25999999
   20.27666664   88.31569672    0.01000000    0.25999999
   20.28000069   90.32009888    0.01000000    0.25999999
   20.28333282   89.04550171    0.01000000    0.25999999
   20.28638840   92.98310089    0.01000000    0.25999999
   20.29249954   92.98310089    0.01000000    0.25999999
   20.29666710   90.28759766    0.01000000    0.25999999
   20.29972076   82.77239990    0.01000000    0.25999999
   20.30305481   83.22760010    0.01000000    0.25999999
   20.30638885   86.06800079    0.01000000    0.25999999
   20.30944443   88.00530243    0.01000000    0.25999999
   20.31277657   89.32350159    0.01000000    0.25999999
   20.31583214   92.45539856    0.01000000    0.25999999
   20.31916809   89.49230194    0.01000000    0.25999999
   20.32250023   88.61440277    0.01000000    0.25999999
   20.32555580   87.67549896    0.01000000    0.25999999
   20.32888985   91.57299805    0.01000000    0.25999999
   20.32944489   85.31340027    0.01000000    0.25999999
   20.33527756   85.31340027    0.01000000    0.25999999
   20.33944511   93.13339996    0.01000000    0.25999999
   20.34277916   89.07460022    0.01000000    0.25999999
   20.34583473   90.46230316    0.01000000    0.25999999
   20.34916687   85.39440155    0.01000000    0.25999999
   20.35222244   91.45110321    0.01000000    0.25999999
   20.35555649   87.23329926    0.01000000    0.25999999
   20.35888863   83.61820221    0.01000000    0.25999999
   20.36194420   86.11920166    0.01000000    0.25999999
   20.36277771   83.09989929    0.01000000    0.25999999
   20.36555672   85.15619659    0.01000000    0.25999999
   20.36888885   81.45510101    0.01000000    0.25999999
   20.37222290   84.60169983    0.01000000    0.25999999
   20.37805557   84.60169983    0.01000000    0.25999999
   20.38222313   87.19570160    0.01000000    0.25999999
   20.38555527   79.22760010    0.01000000    0.25999999
   20.38861084   84.25460052    0.01000000    0.25999999
   20.39194489   95.42680359    0.01000000    0.25999999
   20.39527702   93.76090240    0.01000000    0.25999999
   20.39611053   90.70659637    0.01000000    0.25999999
   20.39861107   92.08229828    0.01000000    0.25999999
   20.40194321   88.63339996    0.01000000    0.25999999
   20.40527725   88.83920288    0.01000000    0.25999999
   20.40833282   89.47350311    0.01000000    0.25999999
   20.41166687   86.27749634    0.01000000    0.25999999
   20.41499901   85.50460052    0.01000000    0.25999999
   20.42111015   85.50460052    0.01000000    0.25999999
   20.42527771   80.68329620    0.01000000    0.25999999
   20.42833328   83.22339630    0.01000000    0.25999999
   20.42944336   84.84439850    0.01000000    0.25999999
   20.43194389   88.83270264    0.01000000    0.25999999
   20.43527603   85.55300140    0.01000000    0.25999999
   20.43861008   84.18180084    0.01000000    0.25999999
   20.44166565   85.20980072    0.01000000    0.25999999
   20.44499969   90.49530029    0.01000000    0.25999999
   20.44833183   88.63819885    0.01000000    0.25999999
   20.45138931   88.12339783    0.01000000    0.25999999
   20.45472336   83.39569855    0.01000000    0.25999999
   20.45777893   88.40380096    0.01000000    0.25999999
   20.46389008   88.40380096    0.01000000    0.25999999
   20.46805573   89.59790039    0.01000000    0.25999999
   20.47111130   86.48660278    0.01000000    0.25999999
   20.47444534   88.39170074    0.01000000    0.25999999
   20.47777748   92.89479828    0.01000000    0.25999999
   20.48083305   89.35839844    0.01000000    0.25999999
   20.48416710   86.49700165    0.01000000    0.25999999
   20.48722267   89.75839996    0.01000000    0.25999999
   20.49055672   83.99169922    0.01000000    0.25999999
   20.49388885   87.44319916    0.01000000    0.25999999
   20.49611092   85.29090118    0.01000000    0.25999999
   20.49722290   86.19100189    0.01000000    0.25999999
   20.50055504   88.16909790    0.01000000    0.25999999
   20.50666618   88.16909790    0.01000000    0.25999999
   20.51083374   92.17870331    0.01000000    0.25999999
   20.51416588   95.64379883    0.01000000    0.25999999
   20.51722145   88.81649780    0.01000000    0.25999999
   20.52055550   95.29409790    0.01000000    0.25999999
   20.52361107   89.77239990    0.01000000    0.25999999
   20.52694511   89.21659851    0.01000000    0.25999999
   20.52944374   95.67220306    0.01000000    0.25999999
   20.53055573   94.58119965    0.01000000    0.25999999
   20.53388786   91.71739960    0.01000000    0.25999999
   20.53722191   92.82839966    0.01000000    0.25999999
   20.54027748   93.24780273    0.01000000    0.25999999
   20.54361153   92.73660278    0.01000000    0.25999999
   20.54944420   92.73660278    0.01000000    0.25999999
   20.55360985   93.85959625    0.01000000    0.25999999
   20.55694389   91.24790192    0.01000000    0.25999999
   20.55999947   89.05899811    0.01000000    0.25999999
   20.57805634   93.63300323    0.01000000    0.25999999
   20.57972336   89.97740173    0.01000000    0.25999999
   20.58305550   88.80960083    0.01000000    0.25999999
   20.58638954   96.38890076    0.01000000    0.25999999
   20.59250069   96.38890076    0.01000000    0.25999999
   20.59666824   87.14689636    0.01000000    0.25999999
   20.60000038   85.20549774    0.01000000    0.25999999
   20.60305595   91.25129700    0.01000000    0.25999999
   20.60639000   95.80860138    0.01000000    0.25999999
   20.60972214   93.11679840    0.01000000    0.25999999
   20.61138916   92.56680298    0.01000000    0.25999999
   20.61333466   95.95130157    0.01000000    0.25999999
   20.61666679  100.53700256    0.01000000    0.25999999
   20.62000084   93.72750092    0.01000000    0.25999999
   20.62305641   83.54940033    0.01000000    0.25999999
   20.62638855   86.96739960    0.01000000    0.25999999
   20.62944412   92.03569794    0.01000000    0.25999999
   20.63555527   92.03569794    0.01000000    0.25999999
   20.63944435   92.57469940    0.01000000    0.25999999
   20.64277840   94.35269928    0.01000000    0.25999999
   20.64472198   89.28489685    0.01000000    0.25999999
   20.64638901   95.72250366    0.01000000    0.25999999
   20.64972115   93.92459869    0.01000000    0.25999999
   20.65305519   92.52919769    0.01000000    0.25999999
   20.65611076   97.79519653    0.01000000    0.25999999
   20.65944481   96.59239960    0.01000000    0.25999999
   20.66250038   94.95300293    0.01000000    0.25999999
   20.66583252   91.99199677    0.01000000    0.25999999
   20.66916656   85.55130005    0.01000000    0.25999999
   20.67222214   91.67500305    0.01000000    0.25999999
   20.67833328   91.67500305    0.01000000    0.25999999
   20.68249893   97.22109985    0.01000000    0.25999999
   20.68555450   95.53559875    0.01000000    0.25999999
   20.68888855   92.55110168    0.01000000    0.25999999
   20.69222069   94.51080322    0.01000000    0.25999999
   20.69527626   94.94969940    0.01000000    0.25999999
   20.69861031   90.70600128    0.01000000    0.25999999
   20.70166779   95.75810242    0.01000000    0.25999999
   20.70499992   84.92459869    0.01000000    0.25999999
   20.70833397   81.90010071    0.01000000    0.25999999
   20.71138954   91.86060333    0.01000000    0.25999999
   20.71166801   91.33000183    0.01000000    0.25999999
   20.71500015   92.44210052    0.01000000    0.25999999
   20.72111130   92.44210052    0.01000000    0.25999999
   20.72527885   91.71299744    0.01000000    0.25999999
   20.72861099   90.54989624    0.01000000    0.25999999
   20.73166656   90.53579712    0.01000000    0.25999999
   20.73500061   92.34780121    0.01000000    0.25999999
   20.73805618   91.65399933    0.01000000    0.25999999
   20.74138832   85.01809692    0.01000000    0.25999999
   20.74472237   94.14270020    0.01000000    0.25999999
   20.74500084   94.70400238    0.01000000    0.25999999
   20.74833298   83.54319763    0.01000000    0.25999999
   20.75166702   97.42389679    0.01000000    0.25999999
   20.75472260   95.79920197    0.01000000    0.25999999
   20.75805473   92.85089874    0.01000000    0.25999999
   20.76388931   92.85089874    0.01000000    0.25999999
   20.76805496   84.77290344    0.01000000    0.25999999
   20.77138901   90.13449860    0.01000000    0.25999999
   20.77444458   96.25379944    0.01000000    0.25999999
   20.77777672   91.12339783    0.01000000    0.25999999
   20.77833366   95.35700226    0.01000000    0.25999999
   20.78138924   91.95030212    0.01000000    0.25999999
   20.78472137   89.93029785    0.01000000    0.25999999
   20.78805542   91.23930359    0.01000000    0.25999999
   20.79111099   91.30670166    0.01000000    0.25999999
   20.79444313   91.48650360    0.01000000    0.25999999
   20.79777718   92.82869720    0.01000000    0.25999999
   20.80083275   92.60209656    0.01000000    0.25999999
   20.80694389   92.60209656    0.01000000    0.25999999
   20.81083298   91.32319641    0.01000000    0.25999999
   20.81166649   91.83180237    0.01000000    0.25999999
   20.81444359   85.60700226    0.01000000    0.25999999
   20.81777954   92.77680206    0.01000000    0.25999999
   20.82111168   88.15450287    0.01000000    0.25999999
   20.82416725   88.10540009    0.01000000    0.25999999
   20.82750130   94.20929718    0.01000000    0.25999999
   20.83083344   92.10189819    0.01000000    0.25999999
   20.83388901   92.18109894    0.01000000    0.25999999
   20.83722305   90.81050110    0.01000000    0.25999999
   20.84027863   96.01830292    0.01000000    0.25999999
   20.84361267   92.57140350    0.01000000    0.25999999
   20.84500122   94.26409912    0.01000000    0.25999999
   20.84972191   94.26409912    0.01000000    0.25999999
   20.85388947   99.17829895    0.01000000    0.25999999
   20.85694504   85.76370239    0.01000000    0.25999999
   20.86027908   92.31580353    0.01000000    0.25999999
   20.86361122   98.36949921    0.01000000    0.25999999
   20.86666679   91.55210114    0.01000000    0.25999999
   20.87000084   91.28389740    0.01000000    0.25999999
   20.87305641   88.53589630    0.01000000    0.25999999
   20.87638855   81.91079712    0.01000000    0.25999999
   20.87833405   85.32479858    0.01000000    0.25999999
   20.88000107   79.39990234    0.01000000    0.25999999
   20.88333321   83.00879669    0.01000000    0.25999999
   20.88666725   85.17810059    0.01000000    0.25999999
   20.89249992   85.17810059    0.01000000    0.25999999
   20.89666748   86.68550110    0.01000000    0.25999999
   20.89972115   85.06870270    0.01000000    0.25999999
   20.90305519   82.63960266    0.01000000    0.25999999
   20.90638924   81.73529816    0.01000000    0.25999999
   20.90944481   88.23030090    0.01000000    0.25999999
   20.91166687   80.08999634    0.01000000    0.25999999
   20.91305542   82.99009705    0.01000000    0.25999999
   20.91638756   84.35420227    0.01000000    0.25999999
   20.91972160   85.43409729    0.01000000    0.25999999
   20.92277718   79.58080292    0.01000000    0.25999999
   20.92611122   86.10590363    0.01000000    0.25999999
   20.92944336   88.73220062    0.01000000    0.25999999
   20.93527603   88.73220062    0.01000000    0.25999999
   20.93944359   87.49320221    0.01000000    0.25999999
   20.94277763   82.06479645    0.01000000    0.25999999
   20.94499969   89.86039734    0.01000000    0.25999999
   20.94610977   83.80439758    0.01000000    0.25999999
   20.94944382   88.96739960    0.01000000    0.25999999
   20.95277786   84.61599731    0.01000000    0.25999999
   20.95583344   86.27110291    0.01000000    0.25999999
   20.95916748   89.98159790    0.01000000    0.25999999
   20.96250153   86.49060059    0.01000000    0.25999999
   20.96555710   86.82279968    0.01000000    0.25999999
   20.96888924   84.43769836    0.01000000    0.25999999
   20.97194481   84.66130066    0.01000000    0.25999999
   20.97833443   84.66130066    0.01000000    0.25999999
   20.98222351   92.91120148    0.01000000    0.25999999
   20.98555565   87.04280090    0.01000000    0.25999999
   20.98888969   89.97599792    0.01000000    0.25999999
   20.99194527   84.73459625    0.01000000    0.25999999
   20.99527740   86.95780182    0.01000000    0.25999999
   20.99861145   83.73470306    0.01000000    0.25999999
   21.00166702   87.54699707    0.01000000    0.25999999
   21.00499916   83.82319641    0.01000000    0.25999999
   21.00833321   85.10829926    0.01000000    0.25999999
   21.01138878   85.16909790    0.01000000    0.25999999
   21.01333427   84.90519714    0.01000000    0.25999999
   21.01499939   83.08850098    0.01000000    0.25999999
   21.02111053   83.08850098    0.01000000    0.25999999
   21.02527809   83.87229919    0.01000000    0.25999999
   21.02833366   86.51560211    0.01000000    0.25999999
   21.03166580   92.08370209    0.01000000    0.25999999
   21.03499985   84.73020172    0.01000000    0.25999999
   21.03805542   94.28880310    0.01000000    0.25999999
   21.04138756   83.24220276    0.01000000    0.25999999
   21.04472160   82.27570343    0.01000000    0.25999999
   21.04666710   90.30650330    0.01000000    0.25999999
   21.04805565   87.91999817    0.01000000    0.25999999
   21.05138779   94.94509888    0.01000000    0.25999999
   21.05472183   92.66510010    0.01000000    0.25999999
   21.05777740   90.36209869    0.01000000    0.25999999
   21.06388855   90.36209869    0.01000000    0.25999999
   21.06805611   90.62120056    0.01000000    0.25999999
   21.07111168   81.49459839    0.01000000    0.25999999
   21.07444572   92.42939758    0.01000000    0.25999999
   21.07777786   81.29119873    0.01000000    0.25999999
   21.08000183   89.95850372    0.01000000    0.25999999
   21.08139038   88.39009857    0.01000000    0.25999999
   21.08472252   84.71520233    0.01000000    0.25999999
   21.08777809   88.79360199    0.01000000    0.25999999
   21.09111214   83.47049713    0.01000000    0.25999999
   21.09416771   92.39929962    0.01000000    0.25999999
   21.09749985   86.77739716    0.01000000    0.25999999
   21.10083389   79.90769958    0.01000000    0.25999999
   21.10666656   79.90769958    0.01000000    0.25999999
   21.11083412   80.28330231    0.01000000    0.25999999
   21.11333466   87.29219818    0.01000000    0.25999999
   21.11444473   88.81359863    0.01000000    0.25999999
   21.11777878   78.86930084    0.01000000    0.25999999
   21.12083435   86.28669739    0.01000000    0.25999999
   21.12416649  168.36599731    0.01000000    0.25999999
   21.12722206   87.27249908    0.01000000    0.25999999
   21.13055611   93.40989685    0.01000000    0.25999999
   21.13388824   84.58070374    0.01000000    0.25999999
   21.13694382   85.31870270    0.01000000    0.25999999
   21.14027786   96.67680359    0.01000000    0.25999999
   21.14361191   94.52269745    0.01000000    0.25999999
   21.14972115   94.52269745    0.01000000    0.25999999
   21.15361023   94.39849854    0.01000000    0.25999999
   21.15694427   83.76309967    0.01000000    0.25999999
   21.16027832   87.25890350    0.01000000    0.25999999
   21.16333389   89.00080109    0.01000000    0.25999999
   21.16666603   79.37840271    0.01000000    0.25999999
   21.16972160   87.53600311    0.01000000    0.25999999
   21.17305565   89.48799896    0.01000000    0.25999999
   21.17638779   92.27040100    0.01000000    0.25999999
   21.17944336   85.79299927    0.01000000    0.25999999
   21.18055534   89.50229645    0.01000000    0.25999999
   21.18305397   94.41970062    0.01000000    0.25999999
   21.18638802   91.67459869    0.01000000    0.25999999
   21.19249916   91.67459869    0.01000000    0.25999999
   21.19666672   79.21379852    0.01000000    0.25999999
   21.19972038   82.68630219    0.01000000    0.25999999
   21.20305634   80.19349670    0.01000000    0.25999999
   21.20611191   91.89299774    0.01000000    0.25999999
   21.20944595   87.46939850    0.01000000    0.25999999
   21.21277809   86.02610016    0.01000000    0.25999999
   21.21389008   88.49320221    0.01000000    0.25999999
   21.21611214   85.63719940    0.01000000    0.25999999
   21.21944427   89.26650238    0.01000000    0.25999999
   21.22277832   89.17530060    0.01000000    0.25999999
   21.22583389   89.44029999    0.01000000    0.25999999
   21.22916794   90.34010315    0.01000000    0.25999999
   21.23527718   90.34010315    0.01000000    0.25999999
   21.23944473   88.92880249    0.01000000    0.25999999
   21.24277878   89.54160309    0.01000000    0.25999999
   21.24583435   82.42700195    0.01000000    0.25999999
   21.24749947   87.78919983    0.01000000    0.25999999
   21.24944496   88.61920166    0.01000000    0.25999999
   21.25277710   89.69840240    0.01000000    0.25999999
   21.25583267   91.12650299    0.01000000    0.25999999
   21.25916672   97.79170227    0.01000000    0.25999999
   21.26250076   82.59320068    0.01000000    0.25999999
   21.26555634   90.79370117    0.01000000    0.25999999
   21.26888847   92.23069763    0.01000000    0.25999999
   21.27222252   93.04100037    0.01000000    0.25999999
   21.27805519   93.04100037    0.01000000    0.25999999
   21.28222275   92.32420349    0.01000000    0.25999999
   21.28555489   90.81120300    0.01000000    0.25999999
   21.28861046   83.53900146    0.01000000    0.25999999
   21.29194450   80.53150177    0.01000000    0.25999999
   21.29527664   92.60459900    0.01000000    0.25999999
   21.29833221   86.88379669    0.01000000    0.25999999
   21.30166626   81.36579895    0.01000000    0.25999999
   21.30472183   85.89050293    0.01000000    0.25999999
   21.30805397   85.05110168    0.01000000    0.25999999
   21.31138802   85.82589722    0.01000000    0.25999999
   21.31416512   86.01090240    0.01000000    0.25999999
   21.31499863   88.34970093    0.01000000    0.25999999
   21.32111168   88.34970093    0.01000000    0.25999999
   21.32500076   87.43460083    0.01000000    0.25999999
   21.32833481   90.13619995    0.01000000    0.25999999
   21.33166695   80.68820190    0.01000000    0.25999999
   21.33472252   98.75640106    0.01000000    0.25999999
   21.33805656   95.26719666    0.01000000    0.25999999
   21.34111214   94.48960114    0.01000000    0.25999999
   21.34444427   84.93039703    0.01000000    0.25999999
   21.34749985   82.59210205    0.01000000    0.25999999
   21.34805679   80.94830322    0.01000000    0.25999999
   21.35138893   88.89869690    0.01000000    0.25999999
   21.35444450   88.10279846    0.01000000    0.25999999
   21.35777855   91.32720184    0.01000000    0.25999999
   21.36388969   91.32720184    0.01000000    0.25999999
   21.36805534   89.61309814    0.01000000    0.25999999
   21.37111092   91.18109894    0.01000000    0.25999999
   21.37444496   88.36849976    0.01000000    0.25999999
   21.37750053   86.30780029    0.01000000    0.25999999
   21.38083267   84.94660187    0.01000000    0.25999999
   21.38111115   92.69789886    0.01000000    0.25999999
   21.38444519   94.03479767    0.01000000    0.25999999
   21.38750076   93.88829803    0.01000000    0.25999999
   21.39083290   90.79190063    0.01000000    0.25999999
   21.39416695   82.68319702    0.01000000    0.25999999
   21.39722252   94.15499878    0.01000000    0.25999999
   21.40055466   90.24109650    0.01000000    0.25999999
   21.40666580   90.24109650    0.01000000    0.25999999
   21.41083336   88.85800171    0.01000000    0.25999999
   21.41416550   87.80609894    0.01000000    0.25999999
   21.41444397   87.42990112    0.01000000    0.25999999
   21.41777802   82.30719757    0.01000000    0.25999999
   21.42083359   91.75299835    0.01000000    0.25999999
   21.42416573   85.77100372    0.01000000    0.25999999
   21.42749977   85.97470093    0.01000000    0.25999999
   21.43055534   91.26210022    0.01000000    0.25999999
   21.43388748   90.72389984    0.01000000    0.25999999
   21.43722153   93.15039825    0.01000000    0.25999999
   21.44027710   90.32180023    0.01000000    0.25999999
   21.44361115   89.42659760    0.01000000    0.25999999
   21.44944382   89.42659760    0.01000000    0.25999999
   21.45361137   79.69660187    0.01000000    0.25999999
   21.45694542   83.34380341    0.01000000    0.25999999
   21.46000099   87.43399811    0.01000000    0.25999999
   21.46333504   90.21369934    0.01000000    0.25999999
   21.46666718   84.24320221    0.01000000    0.25999999
   21.47000122   78.48699951    0.01000000    0.25999999
   21.47305679   77.18309784    0.01000000    0.25999999
   21.47638893   90.64340210    0.01000000    0.25999999
   21.47944450   90.95860291    0.01000000    0.25999999
   21.48083305   89.26599884    0.01000000    0.25999999
   21.48305511   85.36969757    0.01000000    0.25999999
   21.48638916   85.65709686    0.01000000    0.25999999
   21.49222183   85.65709686    0.01000000    0.25999999
   21.49638939   96.09470367    0.01000000    0.25999999
   21.49972153   89.35859680    0.01000000    0.25999999
   21.50305557   87.77649689    0.01000000    0.25999999
   21.50611115   86.01159668    0.01000000    0.25999999
   21.50944519   85.35839844    0.01000000    0.25999999
   21.51250076   85.85269928    0.01000000    0.25999999
   21.51416588   84.34420013    0.01000000    0.25999999
   21.51611137   94.77919769    0.01000000    0.25999999
   21.51944351   89.52739716    0.01000000    0.25999999
   21.52277756   86.98249817    0.01000000    0.25999999
   21.52583313   86.55750275    0.01000000    0.25999999
   21.52916718   81.83930206    0.01000000    0.25999999
   21.53527641   81.83930206    0.01000000    0.25999999
   21.53944397   91.44280243    0.01000000    0.25999999
   21.54249954   87.43019867    0.01000000    0.25999999
   21.54583359   85.39019775    0.01000000    0.25999999
   21.54749870   94.40429688    0.01000000    0.25999999
   21.54944420   88.77860260    0.01000000    0.25999999
   21.55277634   88.20220184    0.01000000    0.25999999
   21.55583191   90.15270233    0.01000000    0.25999999
   21.55916595   83.25589752    0.01000000    0.25999999
   21.56250000   92.87850189    0.01000000    0.25999999
   21.56555557   91.35929871    0.01000000    0.25999999
   21.56888962   80.27909851    0.01000000    0.25999999
   21.57194519   79.55699921    0.01000000    0.25999999
   21.57805634   79.55699921    0.01000000    0.25999999
   21.59638977   83.46289825    0.01000000    0.25999999
   21.59972191   86.78170013    0.01000000    0.25999999
   21.60277748   92.36689758    0.01000000    0.25999999
   21.60611153   90.78710175    0.01000000    0.25999999
   21.60944557   88.08190155    0.01000000    0.25999999
   21.61250114   86.82379913    0.01000000    0.25999999
   21.61583328   97.65599823    0.01000000    0.25999999
   21.62111092   97.65599823    0.01000000    0.25999999
   21.62527847  100.92700195    0.01000000    0.25999999
   21.62833405   89.62809753    0.01000000    0.25999999
   21.62944412   92.65920258    0.01000000    0.25999999
   21.63222313   85.55069733    0.01000000    0.25999999
   21.63527679   82.97360229    0.01000000    0.25999999
   21.63861084   80.86630249    0.01000000    0.25999999
   21.64194489   84.88400269    0.01000000    0.25999999
   21.64500046   90.03540039    0.01000000    0.25999999
   21.64833260  159.04400635    0.01000000    0.25999999
   21.65166664   80.78309631    0.01000000    0.25999999
   21.65472221   80.93509674    0.01000000    0.25999999
   21.65805435   77.22779846    0.01000000    0.25999999
   21.66388893   77.22779846    0.01000000    0.25999999
   21.66805458   88.68830109    0.01000000    0.25999999
   21.67138863   85.93440247    0.01000000    0.25999999
   21.67444420  103.90299988    0.01000000    0.25999999
   21.67777634   95.83419800    0.01000000    0.25999999
   21.68111038   96.53359985    0.01000000    0.25999999
   21.68416595   91.93640137    0.01000000    0.25999999
   21.68750000   89.20919800    0.01000000    0.25999999
   21.69055557   88.20480347    0.01000000    0.25999999
   21.69388771   85.76860046    0.01000000    0.25999999
   21.69610977   87.55930328    0.01000000    0.25999999
   21.69749832   82.19660187    0.01000000    0.25999999
   21.70055580   81.13089752    0.01000000    0.25999999
   21.70666695   81.13089752    0.01000000    0.25999999
   21.71083450   88.74800110    0.01000000    0.25999999
   21.71416664   84.64070129    0.01000000    0.25999999
   21.71750069   83.26049805    0.01000000    0.25999999
   21.72055626   84.91239929    0.01000000    0.25999999
   21.72389030   85.31349945    0.01000000    0.25999999
   21.72694588   85.01770020    0.01000000    0.25999999
   21.72944450   81.30889893    0.01000000    0.25999999
   21.73083305   79.23229980    0.01000000    0.25999999
   21.73388863   92.51889801    0.01000000    0.25999999
   21.73722267   82.70899963    0.01000000    0.25999999
   21.74055672   86.30269623    0.01000000    0.25999999
   21.74361229   84.44750214    0.01000000    0.25999999
   21.74972153   84.44750214    0.01000000    0.25999999
   21.75388908   86.56250000    0.01000000    0.25999999
   21.75694466   82.11389923    0.01000000    0.25999999
   21.76027870   89.03910065    0.01000000    0.25999999
   21.76277733   82.98539734    0.01000000    0.25999999
   21.76388931   78.42099762    0.01000000    0.25999999
   21.76694489   78.78690338    0.01000000    0.25999999
   21.77027702   83.62840271    0.01000000    0.25999999
   21.77361107   84.18430328    0.01000000    0.25999999
   21.77666664   84.17440033    0.01000000    0.25999999
   21.78000069   81.09590149    0.01000000    0.25999999
   21.78305435   77.86630249    0.01000000    0.25999999
   21.78638840   84.56719971    0.01000000    0.25999999
   21.79249954   84.56719971    0.01000000    0.25999999
   21.79666710   83.70680237    0.01000000    0.25999999
   21.79972076   83.72280121    0.01000000    0.25999999
   21.80305481   76.96469879    0.01000000    0.25999999
   21.80638885   88.56990051    0.01000000    0.25999999
   21.80944443   82.28910065    0.01000000    0.25999999
   21.81277657   81.02610016    0.01000000    0.25999999
   21.81611061   78.31289673    0.01000000    0.25999999
   21.81916809   76.82540131    0.01000000    0.25999999
   21.82250023   81.13929749    0.01000000    0.25999999
   21.82555580   78.42279816    0.01000000    0.25999999
   21.82888985   82.46050262    0.01000000    0.25999999
   21.82944489   88.85839844    0.01000000    0.25999999
   21.83527756   88.85839844    0.01000000    0.25999999
   21.83944511   86.02850342    0.01000000    0.25999999
   21.84277916   75.78420258    0.01000000    0.25999999
   21.84583473   78.92729950    0.01000000    0.25999999
   21.84916687   80.41719818    0.01000000    0.25999999
   21.85250092   84.03720093    0.01000000    0.25999999
   21.85555649   87.60119629    0.01000000    0.25999999
   21.85888863   82.21690369    0.01000000    0.25999999
   21.86194420   82.07610321    0.01000000    0.25999999
   21.86277771   82.18930054    0.01000000    0.25999999
   21.86583328   82.75330353    0.01000000    0.25999999
   21.86888885   83.83580017    0.01000000    0.25999999
   21.87222290   80.55819702    0.01000000    0.25999999
   21.87805557   80.55819702    0.01000000    0.25999999
   21.88222313   75.24549866    0.01000000    0.25999999
   21.88555527   73.55280304    0.01000000    0.25999999
   21.88888931   77.15170288    0.01000000    0.25999999
   21.89194489   88.00260162    0.01000000    0.25999999
   21.89527702   88.28269958    0.01000000    0.25999999
   21.89611053   89.94080353    0.01000000    0.25999999
   21.89888954   87.62850189    0.01000000    0.25999999
   21.90194321   85.76059723    0.01000000    0.25999999
   21.90527725   82.84449768    0.01000000    0.25999999
   21.90861130   83.16609955    0.01000000    0.25999999
   21.91166687   84.35669708    0.01000000    0.25999999
   21.91499901   88.45850372    0.01000000    0.25999999
   21.92111015   88.45850372    0.01000000    0.25999999
   21.92527771   77.80650330    0.01000000    0.25999999
   21.92833328   85.03780365    0.01000000    0.25999999
   21.92944336   88.25119781    0.01000000    0.25999999
   21.93194389   90.22309875    0.01000000    0.25999999
   21.93499947   91.08920288    0.01000000    0.25999999
   21.93833160  105.25299835    0.01000000    0.25999999
   21.94166565   79.43830109    0.01000000    0.25999999
   21.94472122   88.08550262    0.01000000    0.25999999
   21.94805527   83.04260254    0.01000000    0.25999999
   21.95138931   93.20559692    0.01000000    0.25999999
   21.95444489   82.27629852    0.01000000    0.25999999
   21.95777893   89.22989655    0.01000000    0.25999999
   21.96389008   89.22989655    0.01000000    0.25999999
   21.96805573   98.36499786    0.01000000    0.25999999
   21.97111130   95.59770203    0.01000000    0.25999999
   21.97444534  102.12000275    0.01000000    0.25999999
   21.97777748  103.47200012    0.01000000    0.25999999
   21.98083305   89.75710297    0.01000000    0.25999999
   21.98416710   96.59130096    0.01000000    0.25999999
   21.98750114  104.34100342    0.01000000    0.25999999
   21.99055672   93.84449768    0.01000000    0.25999999
   21.99388885   92.72509766    0.01000000    0.25999999
   21.99611092   92.49759674    0.01000000    0.25999999
   21.99749947   90.91120148    0.01000000    0.25999999
   22.00055504  100.36100006    0.01000000    0.25999999
   22.00666618  100.36100006    0.01000000    0.25999999
   22.01083374   96.07559967    0.01000000    0.25999999
   22.01416588  109.09999847    0.01000000    0.25999999
   22.01722145   90.61080170    0.01000000    0.25999999
   22.02055550  101.47499847    0.01000000    0.25999999
   22.02388954   95.73670197    0.01000000    0.25999999
   22.02694511   96.08170319    0.01000000    0.25999999
   22.02944374   99.97460175    0.01000000    0.25999999
   22.03055573   96.32649994    0.01000000    0.25999999
   22.03388786   89.72270203    0.01000000    0.25999999
   22.03694344   92.93160248    0.01000000    0.25999999
   22.04027748   95.03790283    0.01000000    0.25999999
   22.04333305   92.75700378    0.01000000    0.25999999
   22.04972076   92.75700378    0.01000000    0.25999999
   22.05360985   90.23519897    0.01000000    0.25999999
   22.05694389   97.94609833    0.01000000    0.25999999
   22.06027794   99.89099884    0.01000000    0.25999999
   22.06277657   96.07610321    0.01000000    0.25999999
   22.06388855   93.39659882    0.01000000    0.25999999
   22.06722260   93.04879761    0.01000000    0.25999999
   22.07027817   94.28209686    0.01000000    0.25999999
   22.07361221   89.03990173    0.01000000    0.25999999
   22.07666779   98.70449829    0.01000000    0.25999999
   22.08000183   95.21160126    0.01000000    0.25999999
   22.08333397   99.53019714    0.01000000    0.25999999
   22.08638954   94.09590149    0.01000000    0.25999999
   22.09250069   94.09590149    0.01000000    0.25999999
   22.09666824   95.81020355    0.01000000    0.25999999
   22.09972191   89.64890289    0.01000000    0.25999999
   22.10305595   92.32109833    0.01000000    0.25999999
   22.10611153   96.86920166    0.01000000    0.25999999
   22.10944557   99.90370178    0.01000000    0.25999999
   22.11277771  105.37999725    0.01000000    0.25999999
   22.11583328   94.99990082    0.01000000    0.25999999
   22.11916733   99.41960144    0.01000000    0.25999999
   22.12249947   91.13059998    0.01000000    0.25999999
   22.12555504   89.69360352    0.01000000    0.25999999
   22.12888908   95.72290039    0.01000000    0.25999999
   22.12944412   96.95700073    0.01000000    0.25999999
   22.13527679   96.95700073    0.01000000    0.25999999
   22.13944435   96.90429688    0.01000000    0.25999999
   22.14249992   89.52059937    0.01000000    0.25999999
   22.14583397  101.22599792    0.01000000    0.25999999
   22.14916611   96.18810272    0.01000000    0.25999999
   22.15250015  102.81099701    0.01000000    0.25999999
   22.15555573  100.21299744    0.01000000    0.25999999
   22.15888786   89.27089691    0.01000000    0.25999999
   22.16194344   96.04669952    0.01000000    0.25999999
   22.16277695   87.84609985    0.01000000    0.25999999
   22.16555595   90.42400360    0.01000000    0.25999999
   22.16888809   86.99600220    0.01000000    0.25999999
   22.17194366   91.65080261    0.01000000    0.25999999
   22.17805481   91.65080261    0.01000000    0.25999999
   22.18249893   85.32700348    0.01000000    0.25999999
   22.18555450   91.36389923    0.01000000    0.25999999
   22.18888855   86.13880157    0.01000000    0.25999999
   22.19222069   87.23650360    0.01000000    0.25999999
   22.19527626   90.88860321    0.01000000    0.25999999
   22.19610977   94.88950348    0.01000000    0.25999999
   22.19888878   92.39959717    0.01000000    0.25999999
   22.20222282   90.37500000    0.01000000    0.25999999
   22.20527840   88.62010193    0.01000000    0.25999999
   22.20861244   97.32099915    0.01000000    0.25999999
   22.21166801   85.91889954    0.01000000    0.25999999
   22.21500015   85.58959961    0.01000000    0.25999999
   22.22111130   85.58959961    0.01000000    0.25999999
   22.22500038   93.45220184    0.01000000    0.25999999
   22.22833443   93.30699921    0.01000000    0.25999999
   22.22944450   88.10980225    0.01000000    0.25999999
   22.23194504   92.62290192    0.01000000    0.25999999
   22.23527718   86.87049866    0.01000000    0.25999999
   22.23861122   96.64440155    0.01000000    0.25999999
   22.24166679   97.97619629    0.01000000    0.25999999
   22.24500084   95.74909973    0.01000000    0.25999999
   22.24805641   92.86430359    0.01000000    0.25999999
   22.25138855   95.48590088    0.01000000    0.25999999
   22.25472260   91.16909790    0.01000000    0.25999999
   22.25777817   86.78910065    0.01000000    0.25999999
   22.26388931   86.78910065    0.01000000    0.25999999
   22.26805496   99.94819641    0.01000000    0.25999999
   22.27111053  102.24600220    0.01000000    0.25999999
   22.27444458  113.51699829    0.01000000    0.25999999
   22.27750015  142.11399841    0.01000000    0.25999999
   22.28083229  187.83900452    0.01000000    0.25999999
   22.28416634  265.01098633    0.01000000    0.25999999
   22.28722191  206.21600342    0.01000000    0.25999999
   22.29055595   98.81340027    0.01000000    0.25999999
   22.29388809   51.26499939    0.01000000    0.25999999
   22.29749870   -1.00000000    0.01000000    0.25999999
   22.30055428   -1.00000000    0.01000000    0.25999999
   22.31083298   -1.00000000    0.01000000    0.25999999
   22.31388855   -1.00000000    0.01000000    0.25999999
   22.31722260   -1.00000000    0.01000000    0.25999999
   22.32055664   -1.00000000    0.01000000    0.25999999
   22.32361221   -1.00000000    0.01000000    0.25999999
   22.32694626   -1.00000000    0.01000000    0.25999999
   22.33055687   -1.00000000    0.01000000    0.25999999
   22.33361244   -1.00000000    0.01000000    0.25999999
   22.33694458   -1.00000000    0.01000000    0.25999999
   22.34027863   -1.00000000    0.01000000    0.25999999
   22.34333420   -1.00000000    0.01000000    0.25999999
   22.35361099   -1.00000000    0.01000000    0.25999999
   22.35694504   -1.00000000    0.01000000    0.25999999
   22.36000061   -1.00000000    0.01000000    0.25999999
   22.36361122   -1.00000000    0.01000000    0.25999999
