    HOUR (UT)   FLARE FACTOR    SKY TESTER    SUN TESTER
   12.19694424   -1.00000000   -1.00000000   -1.00000000
   12.26277733  167.37399292    4.63999987    1.26999998
   12.26611137   -1.00000000    4.90999985    1.07000005
   12.26944447   75.70079803    4.90999985    0.94000000
   12.27250004  131.33200073    4.90999985    1.00000000
   12.27583313  238.14599609    4.90999985    1.19000006
   12.27888870  170.19500732    4.90999985    1.28999996
   12.28305531  170.19500732    4.90999985    1.44000006
   12.28722286  252.77499390    4.90999985    1.44000006
   12.29055595  255.83700562    4.90999985    1.50000000
   12.29388905  263.26400757    4.90999985    1.55999994
   12.29611111  383.55801392    4.90999985    1.58000004
   12.29750061  361.81500244    4.90999985    1.63000000
   12.30083370  451.43399048    4.90999985    1.64999998
   12.30277824  516.40100098    4.90999985    1.63000000
   12.30416679  548.72698975    4.90999985    1.61000001
   12.30555534  444.70999146    4.90999985    1.58000004
   12.30694485  275.13500977    4.90999985    1.55999994
   12.30694485  451.43399048    4.90999985    1.64999998
   12.30694485   75.70079803    4.90999985    0.94000000
   12.30722237  131.33200073    4.90999985    1.00000000
   12.30722237  238.14599609    4.90999985    1.19000006
   12.30722237  170.19500732    4.90999985    1.28999996
   12.30749989  252.77499390    4.90999985    1.44000006
   12.30749989  255.83700562    4.90999985    1.50000000
   12.30749989  263.26400757    4.90999985    1.55999994
   12.30777836  361.81500244    4.90999985    1.63000000
   12.30833340  357.48300171    4.90999985    1.51999998
   12.31166649  259.06399536    4.90999985    1.34000003
   12.31472206  524.79101563    4.90999985    1.30999994
   12.31694412  364.19699097    4.90999985    1.34000003
   12.31805515  406.55499268    4.90999985    1.44000006
   12.31944466  434.46301270    4.90999985    1.50000000
   12.32083321  467.83200073    4.90999985    1.55999994
   12.32222176  429.93200684    4.90999985    1.60000002
   12.32361126  411.65200806    4.90999985    1.64999998
   12.32499981  462.87500000    4.90999985    1.69000006
   12.32638836  391.89199829    4.90999985    1.71000004
   12.32777786  298.56500244    4.90999985    1.73000002
   12.32805538  357.48300171    4.90999985    1.51999998
   12.32805538  259.06399536    4.90999985    1.34000003
   12.32805538  524.79101563    4.90999985    1.30999994
   12.32861137  338.84899902    4.90999985    1.73000002
   12.33194447  473.87799072    4.90999985    1.66999996
   12.33388901  400.24700928    4.90999985    1.60000002
   12.33527756  422.21600342    4.90999985    1.55999994
   12.33666611  377.83898926    4.90999985    1.55999994
   12.33805561  353.91400146    4.90999985    1.60000002
   12.33944416  279.18600464    4.90999985    1.63000000
   12.33944416  338.84899902    4.90999985    1.73000002
   12.33972168  473.87799072    4.90999985    1.66999996
   12.34027767  378.95401001    4.90999985    1.63000000
   12.34361076  285.00000000    4.90999985    1.66999996
   12.34666634  365.25500488    4.90999985    1.75000000
   12.35000038  368.44900513    4.90999985    1.76999998
   12.35305595  318.36898804    4.90999985    1.78999996
   12.35638905  308.52801514    4.90999985    1.78999996
   12.36055565  308.52801514    4.90999985    1.80999994
   12.36472225  354.43200684    4.90999985    1.80999994
   12.36805534  245.85699463    4.90999985    1.78999996
   12.37111092  186.35400391    4.90999985    1.55999994
   12.37333393  209.44099426    4.90999985    1.26999998
   12.37500000   -1.00000000   -1.00000000   -1.00000000
   12.37805557  184.23300171    4.90999985    0.94000000
   12.38138866  247.06100464    4.90999985    1.00000000
   12.38472176  358.09899902    4.90999985    1.13000000
   12.38777733  275.95599365    4.90999985    1.50000000
   12.39111137  266.25100708    4.90999985    1.78999996
   12.39416695  236.55299377    4.90999985    1.85000002
   12.39750004  442.10598755    4.90999985    1.76999998
   12.39944458  307.75799561    4.90999985    1.73000002
   12.39972210   -1.00000000   -1.00000000   -1.00000000
   12.39972210  184.23300171    4.90999985    0.94000000
   12.39999962  247.06100464    4.90999985    1.00000000
   12.39999962  358.09899902    4.90999985    1.13000000
   12.39999962  275.95599365    4.90999985    1.50000000
   12.40027714  266.25100708    4.90999985    1.78999996
   12.40027714  236.55299377    4.90999985    1.85000002
   12.40027714  442.10598755    4.90999985    1.76999998
   12.40055561  186.35400391    4.90999985    1.55999994
   12.40472221  186.35400391    4.90999985    1.78999996
   12.40888882  323.17599487    4.90999985    1.88000000
   12.41222191  356.50799561    4.90999985    1.89999998
   12.41527748  291.42300415    4.90999985    1.89999998
   12.41861153  290.40499878    4.90999985    1.89999998
   12.42166710  274.54800415    4.90999985    1.91999996
   12.42500019  301.15701294    4.90999985    1.89999998
   12.42833328  284.28698730    4.90999985    1.91999996
   12.43138885  329.21398926    4.73999977    1.91999996
   12.43333340  268.49301147    4.51000023    1.91999996
   12.43500042  298.89700317    4.32999992    1.94000006
   12.43833351  261.57299805    4.30999994    1.94000006
   12.44138908  243.77200317    4.51000023    1.91999996
   12.44750023  243.77200317    4.90999985    1.80999994
   12.45166683  423.11401367    4.90999985    1.73000002
   12.45361137  226.01400757    4.90999985    1.69000006
   12.45388889  261.57299805    4.30999994    1.94000006
   12.45388889  243.77200317    4.51000023    1.91999996
   12.45388889  423.11401367    4.90999985    1.73000002
   12.45416641  290.40499878    4.90999985    1.89999998
   12.45416641  274.54800415    4.90999985    1.91999996
   12.45444393  301.15701294    4.90999985    1.89999998
   12.45444393  284.28698730    4.90999985    1.91999996
   12.45444393  329.21398926    4.73999977    1.91999996
   12.45472240  298.89700317    4.32999992    1.94000006
   12.45638847  224.39599609    4.90999985    1.73000002
   12.45944405  288.15701294    4.90999985    1.78999996
   12.46277714  317.41299438    4.90999985    1.85000002
   12.46611118  117.81199646    4.90999985    1.86000001
   12.46916580  247.00399780    4.90999985    1.71000004
   12.47444439  247.00399780    4.90999985    1.83000004
   12.47861099  320.51800537    4.90999985    1.83000004
   12.48194408  247.01199341    4.90999985    1.86000001
   12.48500061  290.94601440    4.90999985    1.80999994
   12.48750019  288.81698608    4.90999985    1.71000004
   12.48888874  272.00299072    4.90999985    1.66999996
   12.49222279  256.48800659    4.90999985    1.69000006
   12.49527836  263.73001099    4.90999985    1.85000002
   12.49861145  249.06199646    4.90999985    1.85000002
   12.50166702  220.21200562    4.90999985    1.96000004
   12.50500011  238.84599304    4.90999985    1.98000002
   12.50833321  223.37800598    4.90999985    1.96000004
   12.51138878  240.24299622    4.90999985    1.96000004
   12.51749992  240.24299622    4.90999985    1.98000002
   12.52138901  227.94700623    4.90999985    2.00000000
   12.52472210  217.53199768    4.90999985    2.00000000
   12.52805519  244.70500183    4.90999985    2.00000000
   12.53111076  216.98300171    4.90999985    2.00000000
   12.53444481  223.88200378    4.90999985    2.00000000
   12.53777790  225.38099670    4.90999985    2.00000000
   12.54111195  252.00300598    4.90999985    2.00000000
   12.54416752  216.79699707    4.59999990    2.00000000
   12.54750061  204.69999695    4.00000000    2.00000000
   12.55055618  210.51499939    3.55999994    2.00000000
   12.55388927  232.24499512    3.16000009    2.01999998
   12.55444431  216.96299744    3.16000009    2.01999998
   12.56027794  216.96299744    2.69000006    2.01999998
   12.56444454  216.80900574    2.73000002    2.01999998
   12.56750011  237.71200562    2.76999998    2.00000000
   12.57083321  241.60699463    2.82999992    2.01999998
   12.57416630  211.86000061    2.84999990    2.00000000
   12.57722187  207.91999817    2.82999992    2.00000000
   12.58055592  221.89799500    2.71000004    2.01999998
   12.58361053  214.27999878    2.51999998    2.01999998
   12.58694458  206.78100586    2.34999990    2.01999998
   12.58777714  209.10299683    2.30999994    2.01999998
   12.59055519  194.32200623    2.23000002    2.03999996
   12.59361076  199.16299438    2.17000008    2.03999996
   12.59694386  224.77699280    2.05999994    2.01999998
   12.60305595  224.77699280    1.69000006    2.03999996
   12.60722256  206.94200134    1.53999996    2.01999998
   12.61055565  216.13999939    1.44000006    2.01999998
   12.61361122  210.49000549    1.36000001    2.03999996
   12.61694431  195.46200562    1.33000004    2.03999996
   12.61999989  208.75900269    1.33000004    2.03999996
   12.62111092  204.01100159    1.33000004    2.03999996
   12.62388897  204.61399841    1.30999994    2.03999996
   12.62694454  223.72000122    1.30999994    2.03999996
   12.63027763  213.13400269    1.33000004    2.03999996
   12.63361073  201.91400146    1.41999996    2.03999996
   12.63666630  214.92999268    1.51999998    2.05999994
   12.64000034  219.54299927    1.71000004    2.05999994
   12.64583302  219.54299927    1.80999994    2.05999994
   12.64999962  210.89500427    2.28999996    2.05999994
   12.65333271  188.39799500    2.32999992    2.05999994
   12.65444374  212.71000671    2.32999992    2.05999994
   12.65694427  202.41099548    2.28999996    2.01999998
   12.65999985  199.30200195    2.26999998    2.05999994
   12.66333294  203.77400208    2.26999998    2.01999998
   12.66666698  201.52400208    2.36999989    1.94000006
   12.66972256  291.95300293    2.46000004    1.89999998
   12.67305565  216.45899963    2.59999990    1.89999998
   12.67611122  200.49800110    2.78999996    1.98000002
   12.67944431  197.24400330    3.00000000    2.07999992
   12.68277836  194.64199829    3.20000005    2.09999990
   12.68861103  194.64199829    3.48000002    2.09999990
   12.69277763  211.87399292    3.53999996    2.07999992
   12.69611073  195.28900146    3.45000005    2.07999992
   12.69944477  194.18400574    3.30999994    2.01999998
   12.70249939  199.13499451    3.18000007    2.01999998
   12.70583344  206.61500549    3.03999996    2.01999998
   12.70916653  189.05499268    2.94000006    2.01999998
   12.71222210  186.29400635    2.96000004    2.07999992
   12.71555519  188.85600281    3.11999989    2.09999990
   12.71888828  191.10400391    3.72000003    2.09999990
   12.72111034  183.86099243    4.21999979    2.11999989
   12.72249985  181.95899963    4.48999977    2.11999989
   12.72555542  187.63400269    4.90999985    2.09999990
   12.73166656  187.63400269    4.90999985    2.11999989
   12.73583317  189.65100098    4.90999985    2.11999989
   12.73888874  192.89799500    4.90999985    2.11999989
   12.74222279  204.51800537    4.90999985    2.07999992
   12.74555588  222.05400085    4.90999985    1.96000004
   12.74861145  249.17500305    4.90999985    1.76999998
   12.75194454  265.75799561    4.90999985    1.60000002
   12.75444412  214.59300232    4.90999985    1.69000006
   12.75555515  237.25000000    4.90999985    1.75000000
   12.75861073  273.58200073    4.90999985    1.78999996
   12.76194477  245.99299622    4.90999985    1.61000001
   12.76527786  213.32299805    4.90999985    1.66999996
   12.76833344  184.41499329    4.90999985    1.94000006
   12.77444458  184.41499329    4.90999985    1.76999998
   12.77861118   -1.00000000    4.90999985    1.41999996
   12.78194427   -1.00000000    4.90999985    0.92000002
   12.78500080   -1.00000000    4.90999985    0.41999999
   12.78861141   -1.00000000    4.90999985    0.31999999
   12.79194450   -1.00000000    4.90999985    0.30000001
   12.79527855   -1.00000000    4.90999985    0.46000001
   12.79833412   -1.00000000    4.90999985    0.61000001
   12.80166721  283.01400757    4.90999985    1.01999998
   12.80500031  202.80400085    4.90999985    1.73000002
   12.80805588  196.75700378    4.90999985    2.15000010
   12.81138897  197.11199951    4.90999985    2.17000008
   12.81722260  197.11199951    4.90999985    2.19000006
   12.82138920  181.94000244    4.90999985    1.98000002
   12.82472229   -1.00000000    4.90999985    1.55999994
   12.82777786  212.66799927    4.90999985    1.33000004
   12.83111095  195.46699524    4.90999985    1.80999994
   12.83444405  217.17500305    4.90999985    2.09999990
   12.83749962  214.62100220    4.90999985    2.09999990
   12.84083271  207.76100159    4.90999985    2.09999990
   12.84416676  206.67199707    4.90999985    2.13000011
   12.84722233  217.99200439    4.90999985    2.17000008
   12.85055637  214.18699646    4.90999985    2.15000010
   12.85361195  197.52999878    4.90999985    2.13000011
   12.85444450  197.33099365    4.90999985    2.13000011
   12.86000061  197.33099365    4.90999985    2.09999990
   12.86416721  203.33299255    4.90999985    2.09999990
   12.86750031  210.49800110    4.90999985    2.09999990
   12.87083340  209.27499390    4.90999985    2.09999990
   12.87388897  194.34300232    4.90999985    2.13000011
   12.87722206  195.05099487    4.90999985    2.15000010
   12.88055611  169.36700439    4.90999985    2.17000008
   12.88361073  158.67100525    4.90999985    2.00000000
   12.88694477   87.03790283    4.90999985    1.55999994
   12.88777733  129.34300232    4.90999985    1.46000004
   12.89055538  126.21299744    4.90999985    1.33000004
   12.89361095  207.04699707    4.90999985    1.30999994
   12.89694405  272.20599365    4.90999985    1.48000002
   12.90305519  272.20599365    4.90999985    1.78999996
   12.90722179  174.83900452    4.90999985    1.48000002
   12.91027737  292.47601318    4.90999985    1.50000000
   12.91361046  152.28700256    4.90999985    1.66999996
   12.91666698   -1.00000000    4.90999985    1.55999994
   12.92000008   -1.00000000    4.90999985    1.33000004
   12.92111111   68.74240112    4.90999985    1.16999996
   12.92361164  201.97399902    4.90999985    1.21000004
   12.92666721  234.58500671    4.90999985    1.69000006
   12.93000031  219.52600098    4.90999985    1.89999998
   12.93333340  219.72300720    4.90999985    2.00000000
   12.93638897  247.01400757    4.90999985    2.01999998
   12.93972206  223.38499451    4.90999985    2.01999998
   12.94583321  223.38499451    4.90999985    1.96000004
   12.94999981  243.58299255    4.90999985    1.94000006
   12.95305538  233.62100220    4.90999985    1.94000006
   12.95444393  226.78599548    4.90999985    1.94000006
   12.95694447  236.13200378    4.90999985    1.94000006
   12.96027756  237.91700745    4.90999985    1.91999996
   12.96333313  240.00399780    4.90999985    1.91999996
   12.96666622  254.31100464    4.90999985    1.86000001
   12.96972179  262.79098511    4.90999985    1.88000000
   12.97305489  242.09899902    4.90999985    1.89999998
   12.97638798  247.30499268    4.90999985    1.91999996
   12.97944355  231.86999512    4.90999985    1.94000006
   12.98277760  253.74000549    4.90999985    1.94000006
   12.98861122  253.74000549    4.90999985    1.88000000
   12.99277782  248.87600708    4.90999985    1.83000004
   12.99611092  283.67999268    4.90999985    1.78999996
   12.99916649  250.27000427    4.90999985    1.71000004
   13.00249958  273.60900879    4.90999985    1.75000000
   13.00583363  284.48999023    4.90999985    1.73000002
   13.00888920  296.78601074    4.90999985    1.80999994
   13.01222229  338.14498901    4.90999985    1.83000004
   13.01527786  266.20098877    4.90999985    1.78999996
   13.01861095  238.94299316    4.90999985    1.83000004
   13.02111053  238.65899658    4.90999985    1.88000000
   13.02222157  231.23800659    4.90999985    1.91999996
   13.02555561  227.13800049    4.90999985    1.96000004
   13.03138828  227.13800049    4.90999985    2.00000000
   13.03555584  227.60200500    4.90999985    2.00000000
   13.03888893  220.45100403    4.90999985    2.03999996
   13.04222298  241.05000305    4.90999985    1.98000002
   13.04527855  232.80299377    4.90999985    1.96000004
   13.04861164  221.72700500    4.90999985    2.00000000
   13.05166721  230.08799744    4.90999985    2.03999996
   13.05444431  211.33399963    4.90999985    2.05999994
   13.05555534  204.11900330    4.90999985    2.05999994
   13.05888939  215.78300476    4.90999985    2.03999996
   13.06194496  227.70799255    4.90999985    2.03999996
   13.06527805  225.91999817    4.90999985    2.07999992
   13.06833363  223.60800171    4.90999985    2.01999998
   13.07444477  223.60800171    4.90999985    1.96000004
   13.07861137  248.01899719    4.90999985    2.01999998
   13.08166695  212.26100159    4.90999985    1.98000002
   13.08500004  225.08500671    4.90999985    2.05999994
   13.08777714  268.57299805    4.90999985    2.01999998
   13.08861065  108.30599976    4.90999985    1.85000002
   13.09194374   -1.00000000    4.90999985    1.33000004
   13.09499931   -1.00000000    4.90999985    0.89999998
   13.09833336   -1.00000000    4.90999985    0.80000001
   13.10138893   -1.00000000    4.90999985    0.76999998
   13.10472298  111.68499756    4.90999985    1.23000002
   13.10805607  166.46099854    4.90999985    1.55999994
   13.11111164  242.90400696    4.90999985    1.61000001
   13.11722279  242.90400696    4.90999985    1.73000002
   13.12138939  234.75599670    4.90999985    1.94000006
   13.12444496  232.20199585    4.90999985    2.03999996
   13.12777805  219.55200195    4.90999985    2.05999994
   13.13111115  253.77000427    4.90999985    2.05999994
   13.13416672  219.46800232    4.90999985    2.07999992
   13.13749981  238.28199768    4.90999985    2.11999989
   13.14083290  209.87600708    4.90999985    2.00000000
   13.14388847  252.80099487    4.90999985    1.96000004
   13.14722252  247.91600037    4.90999985    1.98000002
   13.15027714  237.23699951    4.90999985    2.00000000
   13.15361118  225.03100586    4.90999985    2.07999992
   13.15444374  210.56199646    4.90999985    2.09999990
   13.15999985  210.56199646    4.90999985    2.11999989
   13.16416645  203.30599976    4.90999985    2.09999990
   13.16750050  214.07200623    4.90999985    2.09999990
   13.17055607  206.19500732    4.90999985    2.13000011
   13.17388916  216.35800171    4.90999985    2.13000011
   13.17722225  205.41000366    4.90999985    2.11999989
   13.18027782  193.64700317    4.90999985    2.15000010
   13.18361092  201.87199402    4.90999985    2.15000010
   13.18666649  194.34300232    4.90999985    2.09999990
   13.18777752  207.92700195    4.90999985    2.11999989
   13.19055557  206.35800171    4.90999985    2.13000011
   13.19388866  245.52600098    4.90999985    2.09999990
   13.19694424  209.14599609    4.90999985    1.89999998
   13.20277786  209.14599609    4.90999985    2.13000011
   13.20694447  201.08700562    4.90999985    2.15000010
   13.21027756  187.92500305    4.90999985    2.19000006
   13.21361065  194.42100525    4.90999985    2.19000006
   13.21666622  190.09100342    4.90999985    2.19000006
   13.21999931  190.07699585    4.90999985    2.17000008
   13.22111034  200.88699341    4.90999985    2.15000010
   13.22361088  196.91999817    4.90999985    2.07999992
   13.22694397  193.94299316    4.90999985    2.09999990
   13.22999954  226.56100464    4.90999985    1.96000004
   13.23333359  205.05999756    4.90999985    1.86000001
   13.23666668  194.65899658    4.90999985    2.05999994
   13.23972225  207.58700562    4.90999985    2.11999989
   13.24583340  207.58700562    4.90999985    1.89999998
   13.25000000  234.39300537    4.90999985    1.85000002
   13.25305557  219.75000000    4.90999985    2.00000000
   13.25444412  203.11599731    4.90999985    2.01999998
   13.25666714  207.57699585    4.90999985    2.05999994
   13.26000023  132.56199646    4.90999985    1.83000004
   13.26305580  230.35299683    4.90999985    1.39999998
   13.28277779  214.31700134    4.90999985    1.96000004
   13.28888893  214.31700134    4.90999985    2.07999992
   13.29305553  204.81700134    4.90999985    2.09999990
   13.29611111  218.42599487    4.90999985    2.00000000
   13.29944515  212.73699951    4.90999985    2.07999992
   13.30249977  196.70599365    4.90999985    2.09999990
   13.30583382  195.23199463    4.90999985    2.13000011
   13.30916691  193.20100403    4.90999985    2.19000006
   13.31222248  193.40499878    4.90999985    2.21000004
   13.31555557  202.44099426    4.90999985    2.17000008
   13.31888866  322.22000122    4.90999985    2.00000000
   13.32138920  148.97200012    4.90999985    1.61000001
   13.32222176  104.01699829    4.90999985    1.46000004
   13.32555580   -1.00000000    4.90999985    1.39999998
   13.33166695   -1.00000000    4.90999985    1.19000006
   13.33583260  278.81799316    4.90999985    1.69000006
   13.33888817  147.45300293    4.90999985    1.85000002
   13.34222221  136.47300720    4.90999985    1.53999996
   13.34555531  111.08200073    4.90999985    1.41999996
   13.34861088  132.66900635    4.90999985    1.39999998
   13.35194492  142.61999512    4.90999985    1.48000002
   13.35472298  120.39700317    4.90999985    1.46000004
   13.35555553  173.85600281    4.90999985    1.44000006
   13.35888958  261.62500000    4.90999985    1.63000000
   13.36222267  263.93399048    4.90999985    1.76999998
   13.36527824  229.11500549    4.90999985    1.96000004
   13.36861134  282.98400879    4.90999985    1.96000004
   13.37444496  282.98400879    4.90999985    2.00000000
   13.37861156  242.07800293    4.90999985    1.91999996
   13.38194466  255.72500610    4.90999985    1.94000006
   13.38500023  265.75000000    4.90999985    1.91999996
   13.38805580  252.69900513    4.90999985    1.94000006
   13.38861084  238.32000732    4.90999985    1.94000006
   13.39194393  285.93399048    4.90999985    1.91999996
   13.39527798  274.95901489    4.90999985    1.80999994
   13.39833355  248.17500305    4.90999985    1.80999994
   13.40166664   -1.00000000    4.90999985    1.58000004
   13.40499973   -1.00000000    4.90999985    0.89999998
   13.40805531  129.91900635    4.90999985    1.07000005
   13.41138840  137.83500671    4.90999985    1.48000002
   13.41722298  137.83500671    4.90999985    1.60000002
   13.42138958  141.77900696    4.90999985    1.25000000
   13.42472267   -1.00000000    4.90999985    1.55999994
   13.42805576   96.30220032    4.90999985    1.23000002
   13.43111134  199.19500732    4.90999985    1.46000004
   13.43444443  303.78601074    4.90999985    1.83000004
   13.43750000  268.81201172    4.90999985    1.78999996
   13.44083309  249.89999390    4.90999985    1.85000002
   13.44416714  257.66598511    4.90999985    1.86000001
   13.44722271  230.15899658    4.90999985    1.78999996
   13.45055580  251.21099854    4.90999985    1.96000004
   13.45388889  248.79400635    4.90999985    1.91999996
   13.45472240  296.37500000    4.90999985    1.94000006
   13.46027756  296.37500000    4.90999985    1.75000000
   13.46444416  253.20599365    4.90999985    1.91999996
   13.46749973  329.02200317    4.90999985    1.89999998
   13.47083282  139.57899475    4.90999985    1.64999998
   13.47388840  135.67300415    4.90999985    1.61000001
   13.47722149  241.05000305    4.90999985    1.46000004
   13.48055553  276.89401245    4.90999985    1.73000002
   13.48361111  271.95098877    4.90999985    1.85000002
   13.48694515  247.54100037    4.90999985    1.78999996
   13.48805618  217.18800354    4.90999985    1.78999996
   13.49083328  248.38800049    4.90999985    1.88000000
   13.49388885  245.51300049    4.90999985    1.91999996
   13.49722290  222.90800476    4.90999985    1.96000004
   13.50305557  222.90800476    4.90999985    1.86000001
   13.50722218  239.39500427    4.90999985    1.91999996
   13.51027775  253.13999939    4.90999985    1.94000006
   13.51361084  295.65600586    4.90999985    1.85000002
   13.51694393  152.97000122    4.90999985    1.78999996
   13.51999950  157.43499756    4.90999985    1.48000002
   13.52138901  239.77600098    4.90999985    1.36000001
   13.52388859  226.08500671    4.90999985    1.76999998
   13.52694416  217.75900269    4.90999985    2.00000000
   13.53027725  242.86500549    4.90999985    1.98000002
   13.53333378  215.03199768    4.90999985    1.91999996
   13.53666687  221.29499817    4.90999985    1.98000002
   13.54000092  220.62500000    4.90999985    1.94000006
   13.54583359  220.62500000    4.90999985    1.98000002
   13.55000019  236.80700684    4.90999985    1.98000002
   13.55333328  250.38800049    4.90999985    1.89999998
   13.55472279  266.94000244    4.90999985    1.85000002
   13.55694485  240.67799377    4.90999985    1.89999998
   13.56000042  271.92001343    4.90999985    1.88000000
   13.56333351  244.11999512    4.90999985    1.85000002
   13.56638908  230.26300049    4.90999985    1.89999998
   13.56972218  268.51000977    4.90999985    1.96000004
   13.57305527  225.44000244    4.90999985    1.85000002
   13.57611084  257.02200317    4.90999985    1.94000006
   13.57944393  235.11000061    4.90999985    1.91999996
   13.58277798  250.44299316    4.90999985    1.89999998
   13.58861065  250.44299316    4.90999985    1.83000004
   13.59277725  281.25601196    4.90999985    1.78999996
   13.59611034  317.70300293    4.90999985    1.83000004
   13.59944439  278.71301270    4.90999985    1.83000004
   13.60249996  249.53799438    4.90999985    1.89999998
   13.60611153  256.08200073    4.90999985    1.88000000
   13.60916710  288.10299683    4.90999985    1.86000001
   13.61250019  234.79200745    4.90999985    1.75000000
   13.61583328  292.62701416    4.90999985    1.75000000
   13.61944485  277.54901123    4.90999985    1.76999998
   13.62138939  302.43301392    4.90999985    1.85000002
   13.62305546  285.48599243    4.90999985    1.85000002
   13.62611103  233.05999756    4.90999985    1.78999996
   13.63166714  233.05999756    4.90999985    1.86000001
   13.63583279  238.06700134    4.90999985    1.94000006
   13.63888836  249.47399902    4.90999985    1.88000000
   13.64222240  265.25100708    4.90999985    1.88000000
   13.64527798  222.84599304    4.90999985    1.89999998
   13.64861107  236.00100708    4.90999985    2.01999998
   13.65194416  207.24600220    4.90999985    1.98000002
   13.65472221  198.73199463    4.90999985    2.09999990
   13.65555477  199.88400269    4.90999985    2.15000010
   13.65861034  191.68800354    4.90999985    2.13000011
   13.66194439  187.23100281    4.90999985    2.15000010
   13.66499996  182.57899475    4.90999985    2.21000004
   13.66833401  187.41200256    4.90999985    2.17000008
   13.67444515  187.41200256    4.90999985    2.30999994
   13.67861176  183.67900085    4.90999985    2.19000006
   13.68166733  186.18600464    4.90999985    2.21000004
   13.68500042  188.93200684    4.90999985    2.32999992
   13.68805599  201.24499512    4.90999985    2.26999998
   13.68888855  198.03399658    4.90999985    2.23000002
   13.69194412  194.27299500    4.90999985    2.23000002
   13.69527817  185.47399902    4.90999985    2.23000002
   13.69833374  182.37399292    4.90999985    2.32999992
   13.70166683  174.60099792    4.90999985    2.36999989
   13.70499992  184.97300720    4.90999985    2.39000010
   13.70805550  171.03100586    4.90999985    2.39000010
   13.71138859  226.55799866    4.90999985    2.15000010
   13.71722221  226.55799866    4.90999985    1.34000003
   13.72138882  332.49499512    4.90999985    1.78999996
   13.72472191  225.76300049    4.90999985    2.07999992
   13.72777748  282.23199463    4.90999985    2.21000004
   13.73111057  278.63000488    4.90999985    2.17000008
   13.73444462  268.48599243    4.90999985    2.15000010
   13.73750019  315.06100464    4.90999985    1.91999996
   13.74083328  361.53900146    4.90999985    1.75000000
   13.74416733  332.66198730    4.90999985    1.63000000
   13.74722290  232.95100403    4.90999985    1.76999998
   13.75055599  226.23699951    4.90999985    2.03999996
   13.75388908  231.16299438    4.90999985    1.98000002
   13.75472260  223.11799622    4.90999985    2.00000000
   13.76000023  223.11799622    4.90999985    2.40000010
   13.76416683  143.97300720    4.90999985    1.55999994
   13.76749992  280.68600464    4.90999985    1.61000001
   13.77083302  287.64898682    4.90999985    2.01999998
   13.77388859  272.83401489    4.90999985    1.83000004
   13.77722168  249.23399353    4.90999985    2.00000000
   13.78027725  266.63101196    4.90999985    2.00000000
   13.78361130  271.20401001    4.90999985    2.13000011
   13.78694534  238.58999634    4.90999985    2.23000002
   13.78805637  239.27999878    4.90999985    2.23000002
   13.79027843  229.13900757    4.90999985    2.32999992
   13.79361153  231.90699768    4.90999985    2.36999989
   13.79694462  205.07299805    4.90999985    2.34999990
   13.80277824  205.07299805    4.90999985    2.26999998
   13.80694485  243.31799316    4.90999985    2.32999992
   13.81027794  226.27799988    4.90999985    2.23000002
   13.81333351  253.16099548    4.90999985    2.25000000
   13.81666660  226.10400391    4.90999985    2.40000010
   13.81999969  227.79100037    4.63999987    2.32999992
   13.82138920  237.04100037    4.71999979    2.30999994
   13.82361126  209.60299683    4.90999985    2.39000010
   13.82694435  226.34399414    4.90999985    2.32999992
   13.83027744  251.44200134    4.90999985    2.25000000
   13.83333302  283.94601440    4.90999985    1.88000000
   13.83666611  232.07699585    4.90999985    2.03999996
   13.83972168  233.32099915    4.90999985    2.19000006
   13.84583282  233.32099915    4.90999985    1.86000001
   13.84972191  245.98300171    4.90999985    1.96000004
   13.85305595  192.87399292    4.90999985    2.01999998
   13.85472298  245.90800476    4.90999985    2.09999990
   13.85666752  241.76899719    4.90999985    2.00000000
   13.86000061  207.77999878    4.90999985    2.11999989
   13.86333370  241.71600342    4.90999985    2.01999998
   13.86638927  256.42300415    4.90999985    2.13000011
   13.86972237  201.88600159    4.90999985    2.09999990
   13.87305546  214.14100647    4.90999985    2.11999989
   13.87611103  224.42500305    4.90999985    2.11999989
   13.87944412  220.16999817    4.90999985    2.09999990
   13.88277817  215.50500488    4.90999985    2.15000010
   13.88861084  215.50500488    4.90999985    2.26999998
   13.89277744  238.47500610    4.90999985    2.19000006
   13.89611053  178.13699341    4.90999985    2.21000004
   13.89916611  234.16499329    4.90999985    2.23000002
   13.90249920  217.92700195    4.90999985    2.23000002
   13.90583324  177.60899353    4.90999985    2.23000002
   13.90888882  157.45300293    4.90999985    2.15000010
   13.91222191  248.27900696    4.90999985    1.46000004
   13.91527748  273.68301392    4.90999985    1.88000000
   13.91861153  216.07600403    4.90999985    2.05999994
   13.92138958  242.52299500    4.90999985    2.21000004
   13.92222214  203.36599731    4.90999985    2.26999998
   13.92527771  181.01199341    4.90999985    2.32999992
   13.93555546  255.57699585    4.90999985    0.75000000
   13.93861103  261.66500854    4.90999985    1.94000006
   13.94194412   -1.00000000    4.90999985    1.71000004
   13.94527817   -1.00000000    4.90999985    0.70999998
   13.94833374   -1.00000000    4.90999985    0.83999997
   13.95166683  253.91400146    4.90999985    0.69000000
   13.95472240  300.13400269    4.90999985    1.71000004
   13.95527744  157.50700378    4.90999985    1.89999998
   13.95833302  213.28799438    4.90999985    1.26999998
   13.96166611  171.43600464    4.90999985    1.85000002
   13.96472168  268.50799561    4.90999985    1.73000002
   13.96805477  210.96000671    4.90999985    1.83000004
   13.97444439  210.96000671    4.90999985    2.05999994
   13.97833252  228.27499390    4.90999985    2.01999998
   13.98166656  251.04299927    4.90999985    2.05999994
   13.98500061  197.06399536    4.90999985    2.13000011
   13.98805618  192.05700684    4.90999985    2.03999996
   13.98861122  204.67900085    4.90999985    2.03999996
   13.99166679  264.59500122    4.90999985    2.19000006
   13.99499989   74.74510193    4.90999985    1.55999994
   13.99805546  231.57200623    4.90999985    1.58000004
   14.00138855  225.21899414    4.90999985    1.60000002
   14.00472260  168.33700562    4.90999985    2.19000006
   14.00777817  209.31799316    4.90999985    2.28999996
   14.01111126  180.15499878    4.90999985    2.44000006
   14.01722240  180.15499878    4.90999985    2.36999989
   14.02138901  170.36399841    4.48999977    2.42000008
   14.02194405  182.03399658    4.48999977    2.42000008
   14.02499962  175.77600098    4.51000023    2.42000008
   14.02833271  178.73100281    4.90999985    2.46000004
   14.03138828  199.04699707    4.90999985    2.32999992
   14.03472233  203.96200562    4.90999985    2.25000000
   14.03805637  186.76199341    4.90999985    2.23000002
   14.04166698  191.76100159    4.90999985    2.25000000
   14.04472256  272.45300293    4.90999985    2.13000011
   14.04805565  258.99899292    4.90999985    1.80999994
   14.05111122  254.08900452    4.90999985    1.83000004
   14.05444431  273.00399780    4.90999985    1.63000000
   14.05527782  226.67799377    4.90999985    1.63000000
   14.06000042  226.67799377    4.90999985    1.89999998
   14.06416702  178.98300171    4.90999985    2.17000008
   14.06750011  184.32099915    4.90999985    2.34999990
   14.07055569  180.69500732    4.90999985    2.30999994
   14.07388878  166.69400024    4.90999985    2.42000008
   14.07694435  172.42100525    4.90999985    2.40000010
   14.08027744  186.95700073    4.90999985    2.39000010
   14.08361053  199.98399353    4.90999985    2.30999994
   14.08666611  173.15400696    4.90999985    2.32999992
   14.08861065  187.69299316    4.90999985    2.32999992
   14.09027767  177.81799316    4.90999985    2.34999990
   14.09361076  179.58299255    4.90999985    2.36999989
   14.09694386  181.61099243    4.90999985    2.32999992
   14.10277843  181.61099243    4.90999985    2.39000010
   14.10694504  188.73500061    4.90999985    2.32999992
   14.11027813  203.76499939    4.90999985    2.00000000
   14.11333370  198.57000732    4.90999985    2.17000008
   14.11666679   -1.00000000    4.90999985    2.00000000
   14.11999989  130.82800293    4.90999985    1.26999998
   14.12333393   -1.00000000    4.90999985    1.44000006
   14.12666702  286.75000000    4.90999985    1.33000004
   14.12972260  107.29399872    4.90999985    1.78999996
   14.13305569   36.46379852    4.90999985    1.39999998
   14.13638878  109.62599945    4.90999985    1.58000004
   14.13944435  188.77099609    4.90999985    1.66999996
   14.14583302  188.77099609    4.90999985    2.19000006
   14.14999962  224.51400757    4.90999985    2.21000004
   14.15305519  220.67199707    4.90999985    2.15000010
   14.15527725  181.24200439    4.90999985    2.17000008
   14.15666676  187.59100342    4.90999985    2.30999994
   14.15999985  178.92599487    4.90999985    2.39000010
   14.16333294  184.06599426    4.90999985    2.40000010
   14.16638851  182.17300415    4.90999985    2.40000010
   14.16972256  208.26600647    4.90999985    2.40000010
   14.17305565  228.69999695    4.90999985    2.11999989
   14.17611122  203.92100525    4.90999985    2.09999990
   14.17944431  183.10000610    4.90999985    2.19000006
   14.18249989  178.77999878    4.90999985    2.32999992
   14.18861103  178.77999878    4.90999985    2.07999992
   14.19277763  205.91900635    4.90999985    2.00000000
   14.19583321  206.11000061    4.90999985    2.09999990
   14.19916630  198.73599243    4.90999985    2.13000011
   14.20249939  226.17999268    4.90999985    2.19000006
   14.20555496  201.77999878    4.90999985    2.23000002
   14.20888901  203.85099792    4.90999985    2.23000002
   14.21194458  286.19601440    4.90999985    1.96000004
   14.21527767  277.18600464    4.90999985    1.71000004
   14.21861076  285.69299316    4.90999985    1.83000004
   14.22166634   56.66149902    4.90999985    1.78999996
   14.22222137   99.05259705    4.90999985    1.64999998
   14.22555542  144.07299805    4.90999985    1.53999996
   14.23138809  144.07299805    4.90999985    1.63000000
   14.23555565  214.87600708    4.90999985    2.00000000
   14.23861122  203.13200378    4.90999985    2.05999994
   14.24194431  294.76699829    4.90999985    1.98000002
   14.24527836  192.77699280    4.90999985    1.66999996
   14.24833393  298.34100342    4.90999985    1.71000004
   14.25166702  208.33299255    4.90999985    1.89999998
   14.25500011  186.35400391    4.90999985    2.13000011
   14.25555515  179.56399536    4.90999985    2.26999998
   14.25861073  170.88000488    4.90999985    2.46000004
   14.26166630  183.22000122    4.90999985    2.44000006
   14.26500034  168.79899597    4.48999977    2.48000002
   14.26833344  171.39399719    4.90999985    2.48000002
   14.27416611  171.39399719    4.90999985    2.40000010
   14.27833271  179.65100098    4.90999985    2.34999990
   14.29750061  183.84500122    3.91000009    2.39000010
   14.29833412  184.80499268    4.46999979    2.39000010
   14.30138874  175.70599365    4.90999985    2.46000004
   14.30472279  173.90400696    4.90999985    2.40000010
   14.30777836  182.83799744    4.90999985    2.42000008
   14.31111145  175.77999878    4.90999985    2.46000004
   14.31694412  175.77999878    2.93000007    2.50000000
   14.32111073  171.83599854    2.42000008    2.50000000
   14.32444477  164.74099731    3.41000009    2.48000002
   14.32777786  149.53199768    4.90999985    2.42000008
   14.33083344  185.17799377    4.90999985    2.15000010
   14.33138847  171.37500000    4.90999985    2.15000010
   14.33472157  188.16499329    4.90999985    2.30999994
   14.33777714  168.27999878    4.90999985    2.39000010
   14.34111118  172.67799377    4.90999985    2.30999994
   14.34444427  176.68499756    4.90999985    2.40000010
   14.34749985  170.42599487    4.80000019    2.44000006
   14.35083389  173.97200012    4.36999989    2.50000000
   14.35416698  168.73800659    4.90999985    2.48000002
   14.36000061  168.73800659    4.90999985    2.36999989
   14.36416721  174.70300293    4.90999985    2.44000006
   14.36722279  168.29299927    4.84999990    2.42000008
   14.37055588  170.11900330    4.26999998    2.50000000
   14.37361145  172.78199768    4.48999977    2.50000000
   14.37694454  194.10499573    4.61999989    2.42000008
   14.38027763  175.85600281    4.55999994    2.50000000
   14.38333321  172.59500122    4.46999979    2.48000002
   14.38666630  169.25900269    4.07999992    2.48000002
   14.39000034  176.66499329    4.28999996    2.48000002
   14.39305496  175.94099426    4.38999987    2.40000010
   14.39638901  173.91099548    4.86999989    2.48000002
   14.39750004  175.89100647    4.90999985    2.46000004
   14.40277767  175.89100647    4.90999985    2.40000010
   14.40694427  165.95500183    4.90999985    2.28999996
   14.40999985  170.77699280    4.90999985    2.30999994
   14.41333294  166.80999756    4.90999985    2.46000004
   14.41666698  167.94700623    4.48999977    2.48000002
   14.41972256  166.98300171    4.46999979    2.51999998
   14.42305565  175.00999451    4.61999989    2.44000006
   14.42638874  176.10000610    4.48999977    2.40000010
   14.42944431  167.96899414    3.95000005    2.48000002
   14.43083382  178.09300232    3.76999998    2.46000004
   14.43305588  176.55099487    3.70000005    2.51999998
   14.43638897  175.34399414    3.78999996    2.46000004
   14.43944454  171.75999451    4.76000023    2.42000008
   14.44555569  171.75999451    4.69999981    2.42000008
   14.44972229  166.65699768    4.90999985    2.44000006
   14.45305538  172.46200562    4.90999985    2.44000006
   14.45611095  174.89700317    4.90999985    2.46000004
   14.45944405  180.61199951    4.76000023    2.44000006
   14.46277714  170.97500610    4.36999989    2.46000004
   14.46416664  172.03700256    4.38999987    2.48000002
   14.46611118  175.79499817    4.55999994    2.48000002
   14.46944427  166.68400574    4.90999985    2.50000000
   14.47277737  166.63800049    4.90999985    2.48000002
   14.47583294  169.61900330    4.90999985    2.34999990
   14.47916603  177.46200562    4.90999985    2.30999994
   14.48222160  175.84399414    4.90999985    2.25000000
   14.48861122  175.84399414    4.90999985    2.39000010
   14.49277782  186.01899719    4.90999985    2.32999992
   14.49583340  190.18400574    4.90999985    2.23000002
   14.49750042  198.15499878    4.90999985    2.21000004
   14.49944496  188.84800720    4.90999985    2.25000000
   14.50277805  198.37399292    4.90999985    2.17000008
   14.50611115  188.59300232    4.90999985    2.28999996
   14.50916672  185.42900085    4.90999985    2.28999996
   14.51249981  189.32000732    4.90999985    2.34999990
   14.51555538  184.31799316    4.90999985    2.30999994
   14.51888847  198.08099365    4.90999985    2.34999990
   14.52222157  190.54899597    4.90999985    2.30999994
   14.52527714  182.52400208    4.90999985    2.36999989
   14.53138828  182.52400208    4.90999985    2.36999989
   14.53555584  182.22000122    4.90999985    2.34999990
   14.53861141  187.13000488    4.90999985    2.30999994
   14.54194450  199.82899475    4.90999985    2.32999992
   14.54527855  211.87600708    4.90999985    2.25000000
   14.54833412  211.62399292    4.90999985    2.28999996
   14.55166721  188.66999817    4.90999985    2.39000010
   14.55472279  208.24600220    4.90999985    2.25000000
   14.55805588  293.72299194    4.90999985    2.03999996
   14.56138897  201.27299500    4.90999985    1.91999996
   14.56416702  189.65699768    4.90999985    2.28999996
   14.56500053  192.81100464    4.90999985    2.32999992
   14.56833363  188.78500366    4.90999985    2.21000004
   14.57416630  188.78500366    4.90999985    2.30999994
   14.57833290  203.18600464    4.90999985    2.15000010
   14.58166695  221.09300232    4.90999985    2.11999989
   14.58472157  283.56399536    4.90999985    2.05999994
   14.58805561  321.30200195    4.90999985    2.03999996
   14.59111118  276.64001465    4.90999985    2.05999994
   14.59444427  222.32899475    4.90999985    2.03999996
   14.59749985  232.66099548    4.90999985    2.09999990
   14.59805489  214.22300720    4.90999985    2.09999990
   14.60138893  187.28500366    4.90999985    2.09999990
   14.60472298  189.25500488    4.90999985    2.30999994
   14.60777855  192.84899902    4.90999985    2.26999998
   14.61111164  210.20500183    4.90999985    2.30999994
   14.61694431  210.20500183    4.90999985    2.23000002
   14.62111092  237.52200317    4.90999985    2.05999994
   14.62500000  217.58299255    4.90999985    2.09999990
   14.62833309  191.01800537    4.90999985    2.23000002
   14.63083363  189.61599731    4.90999985    2.36999989
   14.63194466  194.42399597    4.90999985    2.36999989
   14.63527775  181.14500427    4.90999985    2.39000010
   14.63861084  187.32400513    4.90999985    2.36999989
   14.64166641  199.66900635    4.90999985    2.26999998
   14.64499950  198.67500305    4.90999985    2.28999996
   14.64805508  204.52900696    4.90999985    2.30999994
   14.65138817  205.51899719    4.90999985    2.23000002
   14.65472221  203.74400330    4.90999985    2.21000004
   14.65999985  203.74400330    4.90999985    2.40000010
   14.66416645  178.69999695    4.90999985    2.28999996
   14.66444397  175.33399963    4.90999985    2.28999996
   14.66777802  182.63000488    4.90999985    2.46000004
   14.67111111  185.69400024    4.90999985    2.39000010
   14.67416668  194.47200012    4.90999985    2.34999990
   14.67750072  174.23899841    4.90999985    2.32999992
   14.68055630  173.31900024    4.90999985    2.32999992
   14.68388939  188.44500732    4.90999985    2.28999996
   14.68722248  187.93099976    4.90999985    2.30999994
   14.69027805  183.40299988    4.90999985    2.36999989
   14.69361115  179.59300232    4.90999985    2.48000002
   14.69694424  177.69200134    4.90999985    2.46000004
   14.69750023  176.99000549    4.90999985    2.46000004
   14.70277786  176.99000549    4.90999985    2.48000002
   14.70694447  181.48500061    4.90999985    2.50000000
   14.71000004  175.10800171    4.90999985    2.42000008
   14.71333313  178.65299988    4.90999985    2.48000002
   14.71638870  171.64300537    4.90999985    2.46000004
   14.71972179  177.87899780    4.90999985    2.42000008
   14.72305489  177.76600647    4.90999985    2.36999989
   14.72611046  173.00000000    4.90999985    2.46000004
   14.72944355  183.38600159    4.90999985    2.39000010
   14.73083305  200.46499634    4.90999985    2.36999989
   14.73305511  190.44099426    4.90999985    2.23000002
   14.73638916  181.28100586    4.90999985    2.26999998
   14.73972225  188.20500183    4.90999985    2.40000010
   14.74555588  188.20500183    4.90999985    2.15000010
   14.74972248  188.61399841    4.90999985    2.11999989
   14.75277805  177.96299744    4.90999985    2.42000008
   14.75611115  178.06599426    4.90999985    2.44000006
   14.75944424  197.19299316    4.90999985    2.42000008
   14.76249981  236.99400330    4.90999985    2.15000010
   14.76416683  229.27299500    4.90999985    2.07999992
   14.76611137  205.11199951    4.90999985    1.98000002
   14.76944447  185.26800537    4.90999985    2.09999990
   14.77277756  167.12300110    4.90999985    2.42000008
   14.77583313  167.64999390    4.90999985    2.51999998
   14.77916622  175.84599304    4.55999994    2.48000002
   14.78249931  164.22999573    4.80999994    2.48000002
   14.78833389  164.22999573    4.90999985    2.39000010
   14.79250050  184.71299744    4.90999985    2.42000008
   14.79583359  172.88900757    4.90999985    2.42000008
   14.79750061  178.52400208    4.90999985    2.42000008
   14.79916668  185.51899719    4.90999985    2.34999990
   14.80249977  166.94400024    4.90999985    2.48000002
   14.80583382  162.51899719    4.90999985    2.46000004
   14.80888939  187.45199585    4.90999985    2.40000010
   14.81222248  180.48599243    4.90999985    2.39000010
   14.81555557  179.22900391    4.90999985    2.40000010
   14.81861115  187.43099976    4.90999985    2.39000010
   14.82194424  183.21899414    4.90999985    2.40000010
   14.82499981  175.16600037    4.90999985    2.42000008
   14.83138847  175.16600037    4.90999985    2.28999996
   14.83527756  321.18701172    4.90999985    2.01999998
   14.83861065  144.44400024    4.90999985    2.03999996
   14.84194374   -1.00000000    4.90999985    1.69000006
   14.84499931  157.13299561    4.90999985    1.26999998
   14.84833336   -1.00000000    4.90999985    1.60000002
   14.85166740   -1.00000000    4.90999985    1.34000003
   14.85472298   -1.00000000    4.90999985    1.30999994
   14.85805607   -1.00000000    4.90999985    1.23000002
   14.86111164   -1.00000000    4.90999985    1.19000006
   14.86416721  148.34899902    4.90999985    1.28999996
   14.86472225  222.41499329    4.90999985    1.33000004
   14.86805534  324.47198486    4.90999985    1.78999996
   14.87416649  324.47198486    4.90999985    2.25000000
   14.87833309  189.87199402    4.90999985    2.32999992
   14.88138866  188.38900757    4.90999985    2.28999996
   14.88472176  182.48599243    4.90999985    2.36999989
   14.88777733  180.43800354    4.90999985    2.40000010
   14.89111137  177.20399475    4.90999985    2.30999994
   14.89444447  171.48500061    4.90999985    2.40000010
   14.89750004  172.30999756    4.90999985    2.48000002
   14.89777756  177.56399536    4.90999985    2.48000002
   14.90111065  177.36000061    4.90999985    2.42000008
   14.90444374  179.00199890    4.90999985    2.46000004
   14.90749931  175.73800659    4.90999985    2.40000010
   14.91083336  179.48599243    4.90999985    2.34999990
   14.91694450  179.48599243    4.90999985    1.85000002
   14.92111111  188.38999939    4.90999985    2.19000006
   14.92416668  188.65800476    4.90999985    2.32999992
   14.92750072  177.81799316    4.90999985    2.48000002
   14.93083382  172.69900513    4.90999985    2.44000006
   14.93111134  169.87600708    4.90999985    2.44000006
   14.93444443  177.92599487    4.90999985    2.48000002
   14.93777752  176.16600037    4.34999990    2.51999998
   14.94083309  180.04100037    3.48000002    2.51999998
   14.94416714  189.49699402    2.73000002    2.53999996
   14.94750023  170.01600647    2.66000009    2.53999996
   14.95055580  184.57200623    2.69000006    2.53999996
   14.95388889  175.14700317    2.94000006    2.53999996
   14.95972157  175.14700317    4.90999985    2.51999998
   14.96388912  184.00900269    4.90999985    2.44000006
   14.96444416  209.65100098    4.90999985    2.39000010
   14.96777725  215.50100708    4.90999985    2.17000008
   14.97083282  188.41600037    4.90999985    2.26999998
   14.97416592  198.95199585    4.90999985    2.42000008
   14.97749996  235.61599731    4.90999985    2.25000000
   14.98055553  324.81698608    4.90999985    2.09999990
   14.98388958   -1.00000000    4.90999985    1.25000000
   14.98694515  197.33200073    4.90999985    1.13000000
   14.99027824  152.04800415    4.90999985    1.71000004
   14.99361134  348.67700195    4.90999985    1.51999998
   14.99666691  401.45098877    4.90999985    1.94000006
   14.99888897   -1.00000000    4.90999985    1.25000000
   14.99888897  197.33200073    4.90999985    1.13000000
   14.99888897  152.04800415    4.90999985    1.71000004
   14.99916649  348.67700195    4.90999985    1.51999998
   14.99916649  401.45098877    4.90999985    1.94000006
   14.99944496  188.41600037    4.90999985    2.26999998
   14.99944496  198.95199585    4.90999985    2.42000008
   14.99944496  235.61599731    4.90999985    2.25000000
   14.99972248  324.81698608    4.90999985    2.09999990
   15.00388908  324.81698608    4.90999985    1.55999994
   15.00805569  259.76400757    4.90999985    2.23000002
   15.01138878  246.47799683    4.90999985    2.05999994
   15.01444435  221.02000427    4.90999985    2.01999998
   15.01777744  247.88999939    4.90999985    2.23000002
   15.02083302  343.01199341    4.90999985    2.03999996
   15.02416611  327.95498657    4.90999985    1.85000002
   15.02750015  389.47399902    4.90999985    1.76999998
   15.03055573  228.42599487    4.90999985    1.89999998
   15.03249931  229.03300476    4.90999985    2.13000011
   15.03416729  218.98100281    4.90999985    2.21000004
   15.03750038  212.31599426    4.90999985    2.39000010
   15.04055595  242.47200012    4.90999985    2.39000010
   15.04666710  242.47200012    4.90999985    2.21000004
   15.05083370  278.84799194    4.90999985    2.13000011
   15.05388927  271.39401245    4.90999985    2.07999992
   15.05722237  238.34300232    4.90999985    2.17000008
   15.06055546  298.10900879    4.90999985    2.32999992
   15.06361103  317.79598999    4.90999985    2.01999998
   15.06583309  396.25000000    4.90999985    2.01999998
   15.06722260  461.06399536    4.90999985    1.98000002
   15.06916618  395.29199219    4.90999985    1.78999996
   15.07055569  327.14001465    4.90999985    1.78999996
   15.07055569  212.31599426    4.90999985    2.39000010
   15.07083321  242.47200012    4.90999985    2.39000010
   15.07083321  278.84799194    4.90999985    2.13000011
   15.07111073  271.39401245    4.90999985    2.07999992
   15.07111073  238.34300232    4.90999985    2.17000008
   15.07111073  298.10900879    4.90999985    2.32999992
   15.07138920  317.79598999    4.90999985    2.01999998
   15.07138920  461.06399536    4.90999985    1.98000002
   15.07138920  218.98100281    4.90999985    2.21000004
   15.07250023  270.09399414    4.90999985    1.96000004
   15.07583332  302.51098633    4.90999985    2.01999998
   15.07916641  348.19000244    4.90999985    2.03999996
   15.08222198   23.57019997    4.90999985    1.64999998
   15.08555508  264.58999634    4.90999985    1.44000006
   15.09138870  264.58999634    4.90999985    2.09999990
   15.09555531  255.58799744    4.90999985    2.00000000
   15.09861088  221.82200623    4.90999985    2.26999998
   15.10194492  227.70899963    4.90999985    2.46000004
   15.10444450  235.59899902    4.90999985    2.46000004
   15.10583401  215.63000488    4.90999985    2.39000010
   15.10888958  229.49499512    4.90999985    2.51999998
   15.11222267  238.28100586    4.90999985    2.46000004
   15.11555576  232.83200073    4.90999985    2.48000002
   15.11861134  248.08299255    4.90999985    2.46000004
   15.12194443  221.63800049    4.90999985    2.50000000
   15.12500000  222.27699280    4.90999985    2.40000010
   15.12833309  246.11999512    4.90999985    2.51999998
   15.13416672  246.11999512    4.90999985    2.48000002
   15.13833332  240.22999573    4.90999985    2.40000010
   15.14166641  258.67199707    4.90999985    2.55999994
   15.14472198  245.43400574    4.90999985    2.40000010
   15.14805508  257.75601196    4.90999985    2.51999998
   15.15138817  241.60400391    4.90999985    2.42000008
   15.15444374  230.59100342    4.88999987    2.53999996
   15.15777779  240.47599792    4.80000019    2.51999998
   15.16111088  255.08900452    4.90999985    2.50000000
   15.16416645  201.88900757    4.90999985    2.42000008
   15.16750050  231.40800476    4.90999985    2.51999998
   15.17083359  211.47399902    4.71999979    2.51999998
   15.17138958  223.43499756    4.71999979    2.51999998
   15.17722225  223.43499756    3.32999992    2.53999996
   15.18111134  224.56300354    3.45000005    2.50000000
   15.18444443  234.33599854    4.76000023    2.51999998
   15.18777752  236.73399353    4.01999998    2.51999998
   15.19083309  252.59300232    3.66000009    2.55999994
   15.19416714  258.38101196    3.68000007    2.55999994
   15.19750023  232.89399719    4.67999983    2.55999994
   15.20055580  265.76300049    4.90999985    2.51999998
   15.20388889  225.73800659    4.90999985    2.51999998
   15.20472240  245.77900696    4.90999985    2.51999998
   15.20749950  270.34799194    4.90999985    2.39000010
   15.21083355  275.06900024    4.90999985    2.30999994
   15.21388912  267.98098755    4.90999985    2.15000010
   15.21999931  267.98098755    4.90999985    2.51999998
   15.22416592  246.90100098    4.90999985    2.44000006
   15.22722149  312.23498535    4.90999985    2.50000000
   15.23055553  284.30599976    4.90999985    2.17000008
   15.23388958  240.13800049    4.90999985    2.23000002
   15.23694515  260.56698608    4.90999985    2.44000006
   15.23805618  260.15301514    4.90999985    2.44000006
   15.24055576  308.17498779    4.90999985    2.28999996
   15.24388885  266.74700928    4.90999985    2.17000008
   15.24694443  237.05700684    4.90999985    2.42000008
   15.25027752  229.96000671    4.90999985    2.42000008
   15.25361156  251.95100403    4.90999985    2.50000000
   15.25666714  240.14999390    4.86999989    2.53999996
   15.26277733  240.14999390    4.90999985    2.51999998
   15.26694393  266.96600342    4.90999985    2.48000002
   15.26999950  247.05400085    4.90999985    2.40000010
   15.27138901  278.41299438    4.90999985    2.34999990
   15.27361107  299.90301514    4.90999985    2.25000000
   15.27694416  259.74200439    4.90999985    2.13000011
   15.27999973  267.06298828    4.90999985    2.34999990
   15.28333378  251.98100281    4.90999985    2.30999994
   15.28666687  315.79299927    4.90999985    2.36999989
   15.28972244  255.92700195    4.90999985    2.28999996
   15.29305553  297.36099243    4.90999985    2.40000010
   15.29638958  239.77600098    4.90999985    2.36999989
   15.31833363  239.77600098    4.90999985    2.42000008
   15.32250023  255.90299988    4.90999985    2.42000008
   15.32583332  250.37500000    4.90999985    2.44000006
   15.32888889  246.96699524    4.90999985    2.34999990
   15.33222198  256.68099976    4.90999985    2.46000004
   15.33555508  243.58200073    4.90999985    2.44000006
   15.33861065  258.12399292    4.90999985    2.39000010
   15.34194374  278.59298706    4.90999985    2.36999989
   15.34527779  245.85699463    4.90999985    2.34999990
   15.34833336  270.17999268    4.90999985    2.32999992
   15.34916592  300.68798828    4.90999985    2.39000010
   15.35194492  267.18701172    4.90999985    2.39000010
   15.35500050  261.76998901    4.90999985    2.42000008
   15.36111164  261.76998901    4.90999985    2.48000002
   15.36527824  231.34800720    4.90999985    2.53999996
   15.36861134  228.13999939    4.90999985    2.53999996
   15.37166691  232.64799500    4.90999985    2.51999998
   15.37500000  229.01100159    4.88999987    2.53999996
   15.37833309  253.61199951    4.82999992    2.51999998
   15.38138866  244.90299988    4.48999977    2.53999996
   15.38249969  250.07299805    4.44999981    2.53999996
   15.38500023  250.83999634    4.42999983    2.53999996
   15.38805580  230.03500366    4.73999977    2.51999998
   15.39138889  256.23901367    4.90999985    2.53999996
   15.39472198  239.10400391    4.90999985    2.51999998
   15.39777756  248.00500488    4.90999985    2.50000000
   15.40416622  248.00500488    4.90999985    2.46000004
   15.40805531  242.91099548    4.90999985    2.40000010
   15.41138840  235.97799683    4.90999985    2.44000006
   15.41472149  241.43400574    4.90999985    2.46000004
   15.41611099  235.20799255    4.90999985    2.46000004
   15.41833401  246.23699951    4.90999985    2.50000000
   15.42138958  263.69000244    4.90999985    2.50000000
   15.51999950   -1.00000000   -1.00000000   -1.00000000
   15.71361065   -1.00000000   -1.00000000   -1.00000000
   16.02972221   -1.00000000   -1.00000000   -1.00000000
   16.07916832  113.12300110    4.90999985    2.39000010
   16.08250046  221.74699402    4.90999985    2.36999989
   16.08555603  207.57000732    4.90999985    2.34999990
   16.08889008  199.94700623    4.90999985    2.36999989
   16.09222221  197.34800720    4.90999985    2.34999990
   16.09527779  212.46000671    4.90999985    2.36999989
   16.09944534  212.46000671    4.90999985    2.40000010
   16.10361099  197.53999329    4.90999985    2.44000006
   16.10694504  198.73100281    4.90999985    2.46000004
   16.11000061  186.46099854    4.90999985    2.46000004
   16.11250114  194.58000183    4.90999985    2.50000000
   16.11388969  188.48500061    4.90999985    2.46000004
   16.11694527  187.66999817    4.90999985    2.40000010
   16.12027740  186.72300720    4.90999985    2.46000004
   16.12361145  197.13200378    4.90999985    2.44000006
   16.12666702  210.16700745    4.90999985    2.40000010
   16.13000107  193.66799927    4.90999985    2.36999989
   16.13333321  213.09199524    4.90999985    2.34999990
   16.13638878  228.39999390    4.90999985    2.21000004
   16.14222145  228.39999390    4.90999985    2.39000010
   16.14638901  201.20799255    4.90999985    2.25000000
   16.14972115  199.87399292    4.90999985    2.42000008
   16.15305519  199.85000610    4.90999985    2.44000006
   16.15611076  191.55799866    4.90999985    2.39000010
   16.15944481  201.50700378    4.90999985    2.36999989
   16.16250038  212.65299988    4.90999985    2.42000008
   16.16583252  203.74099731    4.90999985    2.39000010
   16.16916656  197.07699585    4.90999985    2.40000010
   16.17222214  199.61399841    4.90999985    2.42000008
   16.17555428  194.24299622    4.90999985    2.50000000
   16.17888832  194.50000000    4.90999985    2.42000008
   16.17944336  189.06300354    4.90999985    2.39000010
   16.18527603  189.06300354    4.90999985    2.44000006
   16.18944359  184.26100159    4.90999985    2.51999998
   16.19249916  185.63000488    4.90999985    2.51999998
   16.19583321  188.23800659    4.90999985    2.48000002
   16.19888878  195.40699768    4.90999985    2.42000008
   16.20222282  190.10000610    4.90999985    2.42000008
   16.20555687  181.20700073    4.90999985    2.51999998
   16.20861244  191.35400391    4.90999985    2.48000002
   16.21194458  180.66499329    4.90999985    2.51999998
   16.21277809  179.79100037    4.90999985    2.53999996
   16.21555710  206.38800049    4.90999985    2.48000002
   16.21888924  205.50199890    4.90999985    2.34999990
   16.22194481  305.80200195    4.90999985    2.11999989
   16.22805595  305.80200195    4.90999985    2.01999998
   16.23222351  261.61999512    4.90999985    1.69000006
   16.23527718  262.48199463    4.90999985    2.07999992
   16.23861122   -1.00000000    4.90999985    1.83000004
   16.24194527  233.74299622    4.90999985    1.73000002
   16.24500084  332.83999634    4.90999985    1.73000002
   16.24611092  335.10900879    4.90999985    1.69000006
   16.24861145  265.73199463    4.90999985    1.88000000
   16.25194359  255.80000305    4.90999985    1.85000002
   16.25499916  209.52499390    4.90999985    2.03999996
   16.25833321  226.57400513    4.90999985    2.21000004
   16.26166725  268.50799561    4.90999985    2.07999992
   16.26472282  272.75000000    4.90999985    2.05999994
   16.27083397  272.75000000    4.90999985    1.76999998
   16.27499962  343.98300171    4.90999985    1.71000004
   16.27833366  141.36799622    4.90999985    1.83000004
   16.27944374  148.91499329    4.90999985    1.71000004
   16.28194427  242.18600464    4.90999985    1.66999996
   16.28527641  204.08799744    4.90999985    1.55999994
   16.28833199   -1.00000000    4.90999985    1.63000000
   16.29166603  319.87799072    4.90999985    1.50000000
   16.29500008  316.41799927    4.90999985    2.03999996
   16.29805565  279.80899048    4.90999985    1.80999994
   16.30138779  227.41000366    4.90999985    1.94000006
   16.30472183   56.19039917    4.90999985    1.60000002
   16.30777740  130.08999634    4.90999985    1.38000000
   16.31361008  130.08999634    4.90999985    1.61000001
   16.31777954  210.35699463    4.90999985    2.15000010
   16.32111168  215.08700562    4.90999985    2.26999998
   16.32444572  140.88499451    4.90999985    1.83000004
   16.32750130  294.31201172    4.90999985    1.78999996
   16.33083344  234.82800293    4.90999985    1.98000002
   16.33388901  194.61399841    4.90999985    2.21000004
   16.33722305  212.45399475    4.90999985    2.40000010
   16.34055710  199.41099548    4.90999985    2.30999994
   16.34361267  193.55900574    4.90999985    2.30999994
   16.34611130  204.48399353    4.90999985    2.23000002
   16.34722328  182.68499756    4.90999985    2.23000002
   16.35055542  189.59599304    4.90999985    2.36999989
   16.35666656  189.59599304    4.90999985    2.15000010
   16.36083412  190.97399902    4.90999985    2.44000006
   16.36388969  217.78799438    4.90999985    2.39000010
   16.36722183  252.67700195    4.90999985    1.86000001
   16.37027740  209.33999634    4.90999985    1.80999994
   16.37361145  183.97900391    4.90999985    2.36999989
   16.37694550  177.70199585    4.90999985    2.55999994
   16.37944412  175.80799866    4.90999985    2.53999996
   16.38055611  216.91299438    4.90999985    2.46000004
   16.38388824  176.59300232    4.90999985    2.39000010
   16.38722229  181.07800293    4.90999985    2.50000000
   16.39027786  195.97000122    4.90999985    2.25000000
   16.39361191  185.08399963    4.90999985    2.48000002
   16.39944458  185.08399963    4.90999985    2.50000000
   16.40361023  170.54499817    4.90999985    2.55999994
   16.40666580  167.56100464    4.90999985    2.55999994
   16.40999985  176.11799622    4.90999985    2.55999994
   16.41277695  173.75700378    4.90999985    2.55999994
   16.41361046  169.03500366    4.90999985    2.55999994
   16.41694450  164.66999817    4.90999985    2.30999994
   16.42027664  173.22399902    4.90999985    2.53999996
   16.42333221  168.90299988    4.90999985    2.53999996
   16.42666626  173.66600037    4.90999985    2.53999996
   16.43000031  173.01100159    4.90999985    2.36999989
   16.43305397  183.72999573    4.90999985    2.46000004
   16.43638802  140.84399414    4.90999985    2.32999992
   16.44222069  140.84399414    4.90999985    2.30999994
   16.44638824  180.44500732    4.90999985    2.25000000
   16.44972038  170.29200745    4.90999985    2.39000010
   16.45277786  170.99699402    4.90999985    2.40000010
   16.45611191  176.25999451    4.90999985    2.44000006
   16.45944595  176.01899719    4.90999985    2.50000000
   16.46250153  176.86900330    4.90999985    2.48000002
   16.46583366  177.44599915    4.90999985    2.46000004
   16.46888924  168.97599792    4.90999985    2.40000010
   16.47222328  183.75500488    4.90999985    2.32999992
   16.47555542  182.95500183    4.90999985    2.42000008
   16.47861099  185.86700439    4.90999985    2.44000006
   16.47944450  195.27699280    4.90999985    2.44000006
   16.48500061  195.27699280    4.90999985    1.96000004
   16.48916626  171.80499268    4.90999985    1.71000004
   16.49250031  200.20799255    4.90999985    2.34999990
   16.49583435  226.20899963    4.90999985    2.23000002
   16.49888992  242.67900085    4.90999985    2.17000008
   16.50222206  267.02499390    4.90999985    1.98000002
   16.50527763  277.69500732    4.90999985    1.80999994
   16.50861168  266.20001221    4.90999985    1.83000004
   16.51194382  302.52999878    4.90999985    1.96000004
   16.51277733  282.55801392    4.90999985    1.94000006
   16.51527786  297.47399902    4.90999985    1.91999996
   16.51861000  198.55400085    4.90999985    1.80999994
   16.52194405  316.70001221    4.90999985    1.73000002
   16.52805519  316.70001221    4.90999985    1.96000004
   16.53222275  244.76300049    4.90999985    2.01999998
   16.53527641  204.47599792    4.90999985    2.09999990
   16.53861046  243.23399353    4.90999985    2.17000008
   16.54194450  250.00199890    4.90999985    1.98000002
   16.54500008  259.89801025    4.90999985    1.96000004
   16.54611015  254.24499512    4.90999985    1.98000002
   16.54861069  278.75601196    4.90999985    1.91999996
   16.55194283  292.00799561    4.90999985    2.00000000
   16.55527687  261.36300659    4.90999985    1.94000006
   16.55833244  261.73098755    4.90999985    1.94000006
   16.56166649  265.95401001    4.90999985    1.86000001
   16.56472206  219.31799316    4.90999985    1.94000006
   16.57083511  219.31799316    4.90999985    2.09999990
   16.57500076  298.75601196    4.90999985    1.86000001
   16.57805634  114.66500092    4.90999985    1.66999996
   16.58166695  135.31100464    4.90999985    1.38000000
   16.58500099  163.53500366    4.90999985    1.46000004
   16.58805656   -1.00000000    4.90999985    1.71000004
   16.59138870  173.85600281    4.90999985    1.48000002
   16.59472275  350.36999512    4.90999985    1.61000001
   16.59777832  180.18299866    4.90999985    1.66999996
   16.60111237  327.09799194    4.90999985    1.85000002
   16.60444450  357.02899170    4.90999985    2.01999998
   16.60750008  275.50799561    4.90999985    1.89999998
   16.61361122  275.50799561    4.90999985    2.05999994
   16.61777878  429.84600830    4.90999985    2.03999996
   16.61972237  261.09500122    4.90999985    1.98000002
   16.62000084  357.02899170    4.90999985    2.01999998
   16.62000084  275.50799561    4.90999985    1.89999998
   16.62027740  429.84600830    4.90999985    2.03999996
   16.62027740  163.53500366    4.90999985    1.46000004
   16.62027740   -1.00000000    4.90999985    1.71000004
   16.62055588  173.85600281    4.90999985    1.48000002
   16.62055588  350.36999512    4.90999985    1.61000001
   16.62055588  180.18299866    4.90999985    1.66999996
   16.62083435  327.09799194    4.90999985    1.85000002
   16.62249947  267.14599609    4.90999985    2.28999996
   16.62583351  276.99798584    4.90999985    2.21000004
   16.62888908  273.31900024    4.90999985    2.23000002
   16.63222313  261.26000977    4.90999985    2.23000002
   16.63527679  309.70098877    4.90999985    2.23000002
   16.64083290  309.70098877    4.90999985    2.19000006
   16.64500046  248.12300110    4.90999985    2.21000004
   16.64805603  239.03700256    4.90999985    2.23000002
   16.65138817  224.28900146    4.90999985    2.25000000
   16.65388870  295.69100952    4.90999985    2.21000004
   16.65499878  302.53298950    4.90999985    2.23000002
   16.65833282  260.53601074    4.90999985    2.21000004
   16.66138840  229.47599792    4.90999985    2.17000008
   16.66472244  232.47900391    4.90999985    2.23000002
   16.66805458  247.42500305    4.90999985    2.26999998
   16.67111015  243.03100586    4.90999985    2.26999998
   16.67444420  212.69400024    4.90999985    2.40000010
   16.67777634  270.84698486    4.90999985    2.40000010
   16.68361092  270.84698486    4.90999985    2.17000008
   16.68777657  260.77301025    4.90999985    1.71000004
   16.69083214  243.29200745    4.90999985    2.17000008
   16.69416618  297.01300049    4.90999985    2.15000010
   16.69749832  230.46899414    4.90999985    1.88000000
   16.70055580  276.31698608    4.90999985    2.15000010
   16.70388985  238.13099670    4.90999985    2.32999992
   16.70694542  203.02000427    4.90999985    2.23000002
   16.71027946  245.75700378    4.90999985    2.19000006
   16.71361160  379.07199097    4.90999985    2.05999994
   16.71666718   41.70309830    4.90999985    1.94000006
   16.72000122  263.99099731    4.90999985    1.46000004
   16.72055626  246.59899902    4.90999985    1.60000002
   16.72638893  246.59899902    4.90999985    2.40000010
   16.73055649  177.70199585    4.90999985    2.55999994
   16.73388863  207.07200623    4.90999985    2.57999992
   16.73694420  205.63900757    4.90999985    2.55999994
   16.74027824  196.09700012    4.90999985    2.48000002
   16.74333382  168.41700745    4.90999985    2.59999990
   16.74666786  230.50900269    4.90999985    2.23000002
   16.75000000  217.80400085    4.90999985    2.48000002
   16.75305557  197.44999695    4.90999985    2.53999996
   16.75388908  183.83999634    4.90999985    2.53999996
   16.75694466  191.95700073    4.90999985    2.51999998
   16.76000023  199.94400024    4.90999985    2.55999994
   16.76333427  195.71000671    4.90999985    2.59999990
   16.76916695  195.71000671    4.90999985    2.57999992
   16.77333260  196.78399658    4.90999985    2.46000004
   16.77666664  211.11700439    4.90999985    2.34999990
   16.77972221  195.21000671    4.90999985    2.46000004
   16.78305435  205.01699829    4.90999985    2.53999996
   16.78638840  256.74099731    4.90999985    2.39000010
   16.78722191  249.03900146    4.90999985    2.39000010
   16.78999901  186.61999512    4.90999985    2.13000011
   16.79305458  214.45599365    4.90999985    2.26999998
   16.79638863  195.78799438    4.90999985    2.53999996
   16.79944420  194.34599304    4.90999985    2.59999990
   16.80277634  245.90499878    4.90999985    2.36999989
   16.80611038  199.72000122    4.90999985    2.30999994
   16.81194305  199.72000122    4.90999985    2.48000002
   16.81611061  284.94799805    4.90999985    2.32999992
   16.81944466  330.84799194    4.90999985    1.94000006
   16.82055664  290.49499512    4.90999985    1.94000006
   16.82333374  280.23599243    4.90999985    1.71000004
   16.82638931  272.15701294    4.90999985    1.94000006
   16.82972336  262.64599609    4.90999985    1.98000002
   16.83277893  278.80899048    4.90999985    2.19000006
   16.83611107  226.59899902    4.90999985    2.15000010
   16.83944511  358.52700806    4.90999985    2.26999998
   16.84250069  332.25601196    4.90999985    1.71000004
   16.84583473  426.06100464    4.90999985    1.91999996
   16.84777832  357.68200684    4.90999985    1.86000001
   16.84916687  415.14700317    4.90999985    1.71000004
   16.85055542  355.64599609    4.90999985    1.86000001
   16.85194397  268.75201416    4.90999985    1.91999996
   16.85194397  278.80899048    4.90999985    2.19000006
   16.85222244  226.59899902    4.90999985    2.15000010
   16.85222244  358.52700806    4.90999985    2.26999998
   16.85222244  332.25601196    4.90999985    1.71000004
   16.85250092  426.06100464    4.90999985    1.91999996
   16.85250092  330.84799194    4.90999985    1.94000006
   16.85250092  280.23599243    4.90999985    1.71000004
   16.85277748  272.15701294    4.90999985    1.94000006
   16.85277748  262.64599609    4.90999985    1.98000002
   16.85333443  155.90299988    4.90999985    2.13000011
   16.85666656  395.50399780    4.90999985    2.01999998
   16.86000061  204.81100464    4.90999985    2.26999998
   16.86305618  216.03599548    4.90999985    2.44000006
   16.86638832  206.33299255    4.90999985    2.30999994
   16.87277794  206.33299255    4.90999985    2.07999992
   16.87694550  211.36099243    4.90999985    2.42000008
   16.88000107  235.37199402    4.90999985    2.32999992
   16.88333321  267.10900879    4.90999985    2.13000011
   16.88583374  278.01501465    4.90999985    2.15000010
   16.88722229  237.04200745    4.90999985    2.05999994
   16.89027786  404.89498901    4.90999985    2.19000006
   16.89222145  148.41299438    4.90999985    1.83000004
   16.89249992  395.50399780    4.90999985    2.01999998
   16.89249992  204.81100464    4.90999985    2.26999998
   16.89277840  216.03599548    4.90999985    2.44000006
   16.89277840  206.33299255    4.90999985    2.30999994
   16.89277840  211.36099243    4.90999985    2.42000008
   16.89305496  235.37199402    4.90999985    2.32999992
   16.89305496  267.10900879    4.90999985    2.13000011
   16.89305496  237.04200745    4.90999985    2.05999994
   16.89500046  314.35000610    4.90999985    1.75000000
   16.89833260  157.65199280    4.90999985    1.98000002
   16.90166664  295.51599121    4.90999985    1.94000006
   16.90472221  223.91600037    4.90999985    2.01999998
   16.90805435  246.17199707    4.90999985    2.21000004
   16.91305542  246.17199707    4.90999985    2.17000008
   16.91722107  365.82501221    4.90999985    2.15000010
   16.92055511  332.45498657    4.90999985    1.71000004
   16.92388916  239.88299561    4.90999985    1.85000002
   16.92611122  260.82299805    4.90999985    1.75000000
   16.92749977   46.97499847    4.90999985    1.69000006
   16.93083191  138.28500366    4.90999985    1.61000001
   16.93388748  285.45300293    4.90999985    1.61000001
   16.93722153  321.18798828    4.90999985    2.17000008
   16.94055557  320.75299072    4.90999985    2.00000000
   16.94361115  357.93798828    4.90999985    1.83000004
   16.94694328  355.60800171    4.90999985    1.98000002
   16.95027924  252.42100525    4.90999985    1.71000004
   16.95611191  252.42100525    4.90999985    1.98000002
   16.96027946  315.60900879    4.90999985    2.13000011
   16.96333504  209.02699280    4.90999985    2.00000000
   16.96666718  160.29400635    4.90999985    1.76999998
   16.97000122   -1.00000000    4.90999985    1.75000000
   16.97305679  332.21798706    4.90999985    1.23000002
   16.97638893  349.91299438    4.90999985    2.15000010
   16.97972298  237.36000061    4.90999985    2.03999996
   16.98277855  213.11399841    4.90999985    2.32999992
   16.98611069  231.49899292    4.90999985    2.39000010
   16.98944473  260.75399780    4.90999985    2.25000000
   16.99250031  296.00000000    4.90999985    2.15000010
   16.99305534  283.97299194    4.90999985    2.17000008
   16.99888992  283.97299194    4.90999985    2.26999998
   17.00305557  216.40800476    4.90999985    2.23000002
   17.00638962  230.15400696    4.90999985    2.25000000
   17.00944519  273.36499023    4.90999985    2.21000004
   17.01277733  247.25399780    4.90999985    2.03999996
   17.01583290  254.79699707    4.90999985    2.15000010
   17.01916695  375.91198730    4.90999985    2.05999994
   17.02249908  125.06300354    4.90999985    1.78999996
   17.02555466  159.63499451    4.90999985    1.78999996
   17.02638817  135.73500061    4.90999985    1.76999998
   17.02944374  162.87800598    4.90999985    1.69000006
   17.03249931   79.61019897    4.90999985    1.44000006
   17.03583336  190.13900757    4.90999985    1.39999998
   17.04166603  190.13900757    4.90999985    1.85000002
   17.04583359  132.77400208    4.90999985    1.76999998
   17.04916573  288.72698975    4.90999985    1.69000006
   17.05222130  264.96099854    4.90999985    1.85000002
   17.05555534  268.46099854    4.90999985    1.91999996
   17.05888748  251.67599487    4.90999985    2.07999992
   17.05972099  259.25100708    4.90999985    2.09999990
   17.06250000  312.77499390    4.90999985    2.07999992
   17.06555557  273.18701172    4.90999985    2.01999998
   17.06888962  342.77099609    4.90999985    1.91999996
   17.07222366  319.81100464    4.90999985    1.86000001
   17.07527924  283.01199341    4.90999985    2.01999998
   17.07861137  216.91900635    4.90999985    2.05999994
   17.10000038  216.91900635    4.90999985    2.13000011
   17.10416794  221.35000610    4.90999985    2.13000011
   17.10722351  221.77600098    4.90999985    2.19000006
   17.11055565  207.35600281    4.90999985    2.23000002
   17.11388969  221.68600464    4.90999985    2.19000006
   17.11694527  195.47799683    4.90999985    2.21000004
   17.12027740  196.32600403    4.90999985    2.19000006
   17.12333298  214.19000244    4.90999985    2.25000000
   17.12666702  211.69900513    4.90999985    2.21000004
   17.13000107  236.54699707    4.90999985    2.17000008
   17.13083267  256.68600464    4.90999985    2.15000010
   17.13333321  316.98400879    4.90999985    2.09999990
   17.13666725  295.16198730    4.90999985    1.94000006
   17.14277840  295.16198730    4.90999985    1.96000004
   17.14694405  216.38499451    4.90999985    2.13000011
   17.14999962  227.94599915    4.90999985    2.25000000
   17.15333366  196.63000488    4.90999985    2.21000004
   17.15638924  192.44200134    4.90999985    2.28999996
   17.15972137  202.28300476    4.90999985    2.32999992
   17.16305542  190.38200378    4.90999985    2.28999996
   17.16416550  186.74200439    4.90999985    2.32999992
   17.16638756  192.92199707    4.90999985    2.36999989
   17.16972160  180.89399719    4.90999985    2.34999990
   17.17305565  188.59899902    4.90999985    2.40000010
   17.17611122  191.30499268    4.90999985    2.39000010
   17.17944336  201.68299866    4.90999985    2.28999996
   17.18555450  201.68299866    4.90999985    2.28999996
   17.18972206  217.08500671    4.90999985    2.15000010
   17.19277763  199.82699585    4.90999985    2.15000010
   17.19610977  216.84599304    4.90999985    2.23000002
   17.19749832  229.97700500    4.90999985    2.19000006
   17.19972038  221.25599670    4.90999985    2.09999990
   17.20305634  220.49400330    4.90999985    2.15000010
   17.20611191  223.32699585    4.90999985    2.19000006
   17.20944595  201.56399536    4.90999985    2.21000004
   17.21250153  202.48699951    4.90999985    2.25000000
   17.21583366  194.09800720    4.90999985    2.28999996
   17.21916771  195.40800476    4.90999985    2.32999992
   17.22222328  196.66900635    4.90999985    2.32999992
   17.22833443  196.66900635    4.90999985    2.30999994
   17.23250008  209.09599304    4.90999985    2.23000002
   17.23583412  224.45700073    4.90999985    2.19000006
   17.23888969  208.41099548    4.90999985    2.07999992
   17.24222183  201.76699829    4.90999985    2.15000010
   17.24527740  188.37500000    4.90999985    2.19000006
   17.24861145  197.96200562    4.90999985    2.17000008
   17.25194359  213.11199951    4.90999985    2.23000002
   17.25499916  192.64100647    4.90999985    2.23000002
   17.25833321  210.21400452    4.90999985    2.25000000
   17.26166725  224.31900024    4.90999985    2.11999989
   17.26416588  228.83299255    4.90999985    2.11999989
   17.26527786  212.88200378    4.90999985    2.07999992
   17.27138901  212.88200378    4.90999985    2.26999998
   17.27527809  186.06300354    4.90999985    2.40000010
   17.27861023  179.25599670    4.90999985    2.40000010
   17.28194427  175.02999878    4.90999985    2.44000006
   17.28499985  183.57899475    4.90999985    2.44000006
   17.28833199  179.29899597    4.90999985    2.42000008
   17.29166603  179.84100342    4.90999985    2.42000008
   17.29472160  176.31100464    4.90999985    2.42000008
   17.29749870  186.67100525    4.90999985    2.39000010
   17.29833221  184.32000732    4.90999985    2.36999989
   17.30166626  185.80099487    4.90999985    2.30999994
   17.30472183  184.16400146    4.90999985    2.36999989
   17.30805397  188.75700378    4.90999985    2.34999990
   17.31416512  188.75700378    4.90999985    2.39000010
   17.31833458  170.88600159    4.90999985    2.44000006
   17.32139015  167.31500244    4.90999985    2.50000000
   17.32472229  169.04400635    4.90999985    2.48000002
   17.32805634  172.93899536    4.90999985    2.48000002
   17.33111191  170.46499634    4.90999985    2.50000000
   17.33166695  176.19000244    4.90999985    2.51999998
   17.33500099  170.63299561    4.90999985    2.46000004
   17.33805656  172.76800537    4.90999985    2.39000010
   17.34138870  192.39799500    4.90999985    2.39000010
   17.34472275  203.56599426    4.90999985    2.17000008
   17.34777832  189.69200134    4.90999985    2.15000010
   17.35111237  185.25000000    4.90999985    2.30999994
   17.35694504  185.25000000    4.90999985    2.26999998
   17.36111069  169.40199280    4.90999985    2.46000004
   17.36444473  170.83200073    4.90999985    2.48000002
   17.36472321  170.37300110    4.90999985    2.50000000
   17.36805534  170.09199524    4.90999985    2.50000000
   17.37111092  163.03799438    4.90999985    2.48000002
   17.37444496  172.92799377    4.90999985    2.48000002
   17.37777710  169.37399292    4.90999985    2.48000002
   17.38083267  201.48199463    4.90999985    2.42000008
   17.38416672  208.62899780    4.90999985    2.36999989
   17.38750076  251.37699890    4.90999985    2.36999989
   17.39055634  208.18400574    4.90999985    2.40000010
   17.39388847  193.54600525    4.90999985    2.42000008
   17.39972115  193.54600525    4.90999985    2.34999990
   17.40388870  190.92900085    4.90999985    2.39000010
   17.40722275  194.12399292    4.90999985    2.28999996
   17.41027832  180.51600647    4.90999985    2.32999992
   17.41361046  176.50399780    4.90999985    2.40000010
   17.41694450  177.33900452    4.90999985    2.40000010
   17.42027664  177.77299500    4.90999985    2.40000010
   17.42333221  189.18499756    4.90999985    2.30999994
   17.42666626  194.90699768    4.90999985    2.28999996
   17.42972183  182.13699341    4.90999985    2.26999998
   17.43111038  189.30200195    4.90999985    2.25000000
   17.43333244  195.22500610    4.90999985    2.30999994
   17.43666649  202.74299622    4.90999985    2.17000008
   17.44277763  202.74299622    4.90999985    2.15000010
   17.44666672  206.85200500    4.90999985    2.21000004
   17.45000076  218.35600281    4.90999985    2.19000006
   17.45333481  208.40600586    4.90999985    2.11999989
   17.45639038  229.21099854    4.90999985    2.07999992
   17.45972252  218.44500732    4.90999985    2.05999994
   17.46305656  198.36799622    4.90999985    2.09999990
   17.46444511  194.61900330    4.90999985    2.15000010
   17.46666718  195.53100586    4.90999985    2.17000008
   17.47000122  198.28599548    4.90999985    2.19000006
   17.47305679  201.54600525    4.90999985    2.25000000
   17.47638893  201.40400696    4.90999985    2.21000004
   17.47972298  223.76899719    4.90999985    2.15000010
   17.48555565  223.76899719    4.90999985    2.00000000
   17.48972321  305.33700562    4.90999985    1.96000004
   17.49277878  306.27099609    4.90999985    1.91999996
   17.49611092  143.94900513    4.90999985    1.76999998
   17.49805641  320.22799683    4.90999985    1.73000002
   17.49972153  281.85101318    4.90999985    1.83000004
   17.50305557  258.93899536    4.90999985    1.96000004
   17.50611115  241.39300537    4.90999985    2.03999996
   17.50944519  271.07998657    4.90999985    2.03999996
   17.51277733  268.36199951    4.90999985    1.94000006
   17.51583290  265.91198730    4.90999985    1.96000004
   17.51916695  221.43699646    4.90999985    2.05999994
   17.52222252  203.37500000    4.90999985    2.15000010
   17.52833366  203.37500000    4.90999985    2.23000002
   17.53249931  184.84500122    4.90999985    2.25000000
   17.53583336  173.41600037    4.90999985    2.32999992
   17.53888893  192.99200439    4.90999985    2.25000000
   17.54222107  200.39799500    4.90999985    2.23000002
   17.54527664  186.54299927    4.90999985    2.25000000
   17.54861069  179.15499878    4.90999985    2.25000000
   17.55194283  186.59899902    4.90999985    2.25000000
   17.55499840  179.09700012    4.90999985    2.28999996
   17.55833244  186.16499329    4.90999985    2.30999994
   17.56166649  209.86099243    4.90999985    2.26999998
   17.56472206  189.50300598    4.90999985    2.21000004
   17.56527710  183.65600586    4.90999985    2.21000004
   17.57111168  183.65600586    4.90999985    2.28999996
   17.57527924  182.22900391    4.90999985    2.23000002
   17.57861137  184.86799622    4.90999985    2.25000000
   17.58166695  178.82200623    4.90999985    2.26999998
   17.58500099  190.27900696    4.90999985    2.25000000
   17.58833313  185.04299927    4.90999985    2.25000000
   17.59138870  179.13299561    4.90999985    2.25000000
   17.59472275  184.70500183    4.90999985    2.26999998
   17.59805679  187.27099609    4.90999985    2.25000000
   17.59833336  181.56700134    4.90999985    2.25000000
   17.60166740  178.78999329    4.90999985    2.28999996
   17.60472298  180.84199524    4.90999985    2.28999996
   17.60805511  187.34399414    4.90999985    2.32999992
   17.61416626  187.34399414    4.90999985    2.32999992
   17.61805534  179.32400513    4.90999985    2.36999989
   17.62138939  176.33000183    4.90999985    2.30999994
   17.62472153  184.21899414    4.90999985    2.28999996
   17.62777710  189.02000427    4.90999985    2.28999996
   17.63111115  202.44400024    4.90999985    2.25000000
   17.63166618  204.81799316    4.90999985    2.25000000
   17.63500023  200.73699951    4.90999985    2.11999989
   17.63805580  194.40899658    4.90999985    2.23000002
   17.64138794  188.44299316    4.90999985    2.26999998
   17.64444351  180.81100464    4.90999985    2.23000002
   17.64777756  205.95899963    4.90999985    2.17000008
   17.65111160  191.70500183    4.90999985    2.17000008
   17.65694427  191.70500183    4.90999985    2.32999992
   17.66110992  191.38900757    4.90999985    2.36999989
   17.66416550  242.77999878    4.90999985    2.26999998
   17.66499901  216.47500610    4.90999985    2.26999998
   17.66805458  380.61199951    4.90999985    2.15000010
   17.67111015  466.55801392    4.90999985    2.05999994
   17.67333221  473.03201294    4.90999985    2.01999998
   17.67444420  376.59201050    4.90999985    1.98000002
   17.67583275  539.24499512    4.90999985    2.00000000
   17.67722130  554.42199707    4.90999985    1.94000006
   17.67860985  509.56100464    4.90999985    1.91999996
   17.68000031  455.86401367    4.90999985    1.85000002
   17.68138885  249.59899902    4.90999985    1.89999998
   17.68166542  180.81100464    4.90999985    2.23000002
   17.68166542  205.95899963    4.90999985    2.17000008
   17.68166542  191.70500183    4.90999985    2.17000008
   17.68194389  191.38900757    4.90999985    2.36999989
   17.68194389  242.77999878    4.90999985    2.26999998
   17.68222237  380.61199951    4.90999985    2.15000010
   17.68222237  466.55801392    4.90999985    2.05999994
   17.68222237  194.40899658    4.90999985    2.23000002
   17.68249893  188.44299316    4.90999985    2.26999998
   17.68305397  313.46899414    4.90999985    1.98000002
   17.68610954  426.00000000    4.90999985    1.94000006
   17.68833160  431.93600464    4.90999985    2.00000000
   17.68944359  397.82998657    4.90999985    2.03999996
   17.69083214  329.70098877    4.90999985    2.01999998
   17.69111061  313.46899414    4.90999985    1.98000002
   17.69111061  426.00000000    4.90999985    1.94000006
   17.69166565  363.00399780    4.90999985    2.05999994
   17.69499969  337.19900513    4.90999985    2.07999992
   17.69805527  365.66000366    4.90999985    2.01999998
   17.70138931  345.46600342    4.90999985    2.03999996
   17.70472336  336.69000244    4.90999985    2.07999992
   17.70777893  375.20498657    4.90999985    2.01999998
   17.71194458  375.20498657    4.90999985    2.03999996
   17.71611214  252.81599426    4.90999985    2.21000004
   17.71944427  288.73800659    4.90999985    2.15000010
   17.72249985  296.05700684    4.90999985    2.21000004
   17.72472191  409.50399780    4.90999985    2.13000011
   17.72611237  390.30801392    4.90999985    2.05999994
   17.72944450  500.64898682    4.90999985    1.91999996
   17.73139000  414.29098511    4.90999985    1.88000000
   17.73277855  426.08300781    4.90999985    1.91999996
   17.73416710  356.25799561    4.90999985    2.00000000
   17.73555565  335.78201294    4.90999985    2.07999992
   17.73555565  390.30801392    4.90999985    2.05999994
   17.73555565  500.64898682    4.90999985    1.91999996
   17.73583412  365.66000366    4.90999985    2.01999998
   17.73583412  345.46600342    4.90999985    2.03999996
   17.73583412  336.69000244    4.90999985    2.07999992
   17.73611069  375.20498657    4.90999985    2.01999998
   17.73611069  252.81599426    4.90999985    2.21000004
   17.73638916  288.73800659    4.90999985    2.15000010
   17.73638916  296.05700684    4.90999985    2.21000004
   17.73694420  328.23300171    4.90999985    2.09999990
   17.74027824  286.89801025    4.90999985    2.07999992
   17.74333382  276.85000610    4.90999985    2.15000010
   17.74666786  299.38198853    4.90999985    2.21000004
   17.74972153  276.25000000    4.90999985    2.21000004
   17.75638962  276.25000000    4.90999985    2.25000000
   17.76027870  299.73999023    4.90999985    2.26999998
   17.76361084  281.18399048    4.90999985    2.19000006
   17.76694489  318.25100708    4.90999985    2.19000006
   17.76944351  274.77700806    4.90999985    2.19000006
   17.77055550  309.67800903    4.90999985    2.17000008
   17.77388954  248.91600037    4.90999985    2.23000002
   17.77694511  284.22698975    4.90999985    2.25000000
   17.78027725  241.55299377    4.90999985    2.25000000
   17.78361130  295.37799072    4.90999985    2.23000002
   17.78666687  259.27398682    4.90999985    2.21000004
   17.78999901  264.81500244    4.90999985    2.25000000
   17.79333305  244.38999939    4.90999985    2.25000000
   17.79916573  244.38999939    4.90999985    2.21000004
   17.80333328  307.57299805    4.90999985    2.09999990
   17.80638885  369.78100586    4.90999985    2.01999998
   17.80972099  383.08599854    4.90999985    1.94000006
   17.81305504  329.51699829    4.90999985    2.01999998
   17.81611061  296.54998779    4.90999985    2.03999996
   17.81944466  343.82199097    4.90999985    2.05999994
   17.82277870  279.53201294    4.90999985    2.07999992
   17.82583427  244.66400146    4.90999985    2.15000010
   17.82916832  273.15100098    4.90999985    2.15000010
   17.83222389  261.22500610    4.90999985    2.13000011
   17.83555603  238.22999573    4.90999985    2.17000008
   17.83611107  292.54699707    4.90999985    2.17000008
   17.84194565  292.54699707    4.90999985    2.05999994
   17.84611130  291.21701050    4.90999985    2.11999989
   17.84944534  253.90199280    4.90999985    2.11999989
   17.85250092  226.74899292    4.90999985    2.19000006
   17.85583305  317.70599365    4.90999985    2.15000010
   17.85888863  239.78199768    4.90999985    2.11999989
   17.86222267  249.02099609    4.90999985    2.13000011
   17.86555672  260.94601440    4.90999985    2.13000011
   17.86861038  218.17500305    4.90999985    2.15000010
   17.86944389  242.80499268    4.90999985    2.15000010
   17.87249947  299.45199585    4.90999985    2.07999992
   17.87555504  242.47300720    4.90999985    1.98000002
   17.87888908  251.98699951    4.90999985    2.11999989
   17.88472176  251.98699951    4.90999985    2.28999996
   17.88888931  177.50500488    4.90999985    2.32999992
   17.89222145  200.55900574    4.90999985    2.34999990
   17.89527702  187.93800354    4.90999985    2.34999990
   17.89861107  185.38600159    4.90999985    2.32999992
   17.90194321  205.50100708    4.90999985    2.32999992
   17.90277672  206.41700745    4.90999985    2.34999990
   17.90555573  182.57899475    4.90999985    2.30999994
   17.90861130  185.28199768    4.90999985    2.32999992
   17.91194344  217.88200378    4.90999985    2.30999994
   17.91527748  212.58200073    4.90999985    2.30999994
   17.91833305  199.43800354    4.90999985    2.30999994
   17.92166519  210.55999756    4.90999985    2.23000002
   17.92777634  210.55999756    4.90999985    2.23000002
   17.93166542  177.74099731    4.90999985    2.25000000
   17.93499947  181.46200562    4.90999985    2.32999992
   17.93610954  173.30599976    4.90999985    2.32999992
   17.93861008  192.80099487    4.90999985    2.30999994
   17.94166565  186.70799255    4.90999985    2.26999998
   17.94499969  176.33500671    4.90999985    2.32999992
   17.94833183  169.86900330    4.90999985    2.34999990
   17.95138931  171.01199341    4.90999985    2.36999989
   17.95472336  180.53500366    4.90999985    2.39000010
   17.95777893  184.55200195    4.90999985    2.36999989
   17.96111107  192.78599548    4.90999985    2.34999990
   17.96444511  186.47799683    4.90999985    2.23000002
   17.97055626  186.47799683    4.90999985    2.11999989
   17.97472191  211.77999878    4.90999985    2.15000010
   17.97777748  187.50100708    4.90999985    2.21000004
   17.98111153  180.38800049    4.90999985    2.30999994
   17.98444557  180.54699707    4.90999985    2.28999996
   17.98777771  175.57499695    4.90999985    2.32999992
   17.99083328  194.10400391    4.90999985    2.25000000
   17.99416733  179.66700745    4.90999985    2.30999994
   17.99722290  188.82600403    4.90999985    2.26999998
   18.00055504  180.70899963    4.90999985    2.28999996
   18.00277710  190.50100708    4.90999985    2.28999996
   18.00416756  179.22300720    4.90999985    2.25000000
   18.00722313  192.27699280    4.90999985    2.25000000
   18.01333427  192.27699280    4.90999985    2.28999996
   18.01749992  180.51600647    4.90999985    2.30999994
   18.02083397  178.67799377    4.90999985    2.30999994
   18.02388954  172.82000732    4.90999985    2.28999996
   18.02722168  173.62300110    4.90999985    2.30999994
   18.03055573  170.89999390    4.90999985    2.30999994
   18.03361130  165.68600464    4.90999985    2.30999994
   18.03610992  167.82200623    4.90999985    2.34999990
   18.03750038  171.79800415    4.90999985    2.34999990
   18.04055595  181.58000183    4.90999985    2.30999994
   18.04388809  171.33999634    4.90999985    2.28999996
   18.04722214  181.16799927    4.90999985    2.30999994
   18.05027771  175.47999573    4.90999985    2.26999998
   18.05611038  175.47999573    4.90999985    2.25000000
   18.06027794  198.57299805    4.90999985    2.26999998
   18.06361008  205.42599487    4.90999985    2.17000008
   18.06694603  208.09100342    4.90999985    2.09999990
   18.06944466  198.33700562    4.90999985    2.09999990
   18.07055664  204.61999512    4.90999985    2.09999990
   18.07361221  213.05599976    4.90999985    2.05999994
   18.07694626  223.01800537    4.90999985    2.07999992
   18.08027840  207.95799255    4.90999985    2.09999990
   18.08333397  203.70799255    4.90999985    2.15000010
   18.08666801  232.49299622    4.90999985    2.11999989
   18.09000015  211.12800598    4.90999985    2.03999996
   18.09305573  177.15699768    4.90999985    2.21000004
   18.11333466   98.81610107    4.90999985    2.23000002
   18.11416626  125.48500061    4.90999985    2.23000002
   18.11722183  209.78100586    4.90999985    2.21000004
   18.12055588  206.44799805    4.90999985    2.17000008
   18.12388992  216.12300110    4.90999985    2.15000010
   18.12694550  216.40800476    4.90999985    2.13000011
   18.13027763  228.44000244    4.90999985    2.13000011
   18.13361168  224.77400208    4.90999985    2.21000004
   18.13666725  250.50599670    4.90999985    2.09999990
   18.14194489  250.50599670    4.90999985    2.07999992
   18.14611053  225.23199463    4.90999985    2.03999996
   18.14666748  219.00399780    4.90999985    2.03999996
   18.14944458  191.92999268    4.90999985    2.17000008
   18.15277672  205.64100647    4.90999985    2.19000006
   18.15611076  206.64199829    4.90999985    2.17000008
   18.15916634  204.86999512    4.90999985    2.17000008
   18.16250038  210.61199951    4.90999985    2.25000000
   18.16583252  200.98399353    4.90999985    2.23000002
   18.16888809  197.22900391    4.90999985    2.23000002
   18.17222214  206.42900085    4.90999985    2.17000008
   18.17555428  189.46800232    4.90999985    2.19000006
   18.17860985  194.42300415    4.90999985    2.21000004
   18.18000031  195.50300598    4.90999985    2.19000006
   18.18472099  195.50300598    4.90999985    2.25000000
   18.18888855  179.70399475    4.90999985    2.26999998
   18.19222069  207.92500305    4.90999985    2.26999998
   18.19527626  210.09899902    4.90999985    2.25000000
   18.19861031  197.67300415    4.90999985    2.23000002
   18.20166779  186.19500732    4.90999985    2.21000004
   18.20499992  202.46000671    4.90999985    2.25000000
   18.20833397  175.98899841    4.90999985    2.25000000
   18.21138954  179.48199463    4.90999985    2.26999998
   18.21333504  183.77000427    4.90999985    2.26999998
   18.21500015  196.70599365    4.90999985    2.25000000
   18.21833420  192.02299500    4.90999985    2.19000006
   18.22166634  183.03999329    4.90999985    2.25000000
   18.22750092  183.03999329    4.90999985    2.23000002
   18.23166656  196.31900024    4.90999985    2.21000004
   18.23500061  207.30499268    4.90999985    2.19000006
   18.23805618  198.52299500    4.90999985    2.21000004
   18.24138832  206.65899658    4.90999985    2.17000008
   18.24472237  201.21499634    4.90999985    2.15000010
   18.24666786  263.70800781    4.90999985    2.19000006
   18.24833298  263.10900879    4.90999985    2.00000000
   18.25138855  204.05999756    4.90999985    2.01999998
   18.25472260  193.55499268    4.90999985    2.23000002
   18.25805473  229.89900208    4.90999985    2.26999998
   18.26111031  208.61799622    4.90999985    2.30999994
   18.26444435  227.27999878    4.90999985    2.30999994
   18.27055550  227.27999878    4.90999985    2.32999992
   18.27472115  215.21899414    4.90999985    2.32999992
   18.27777672  212.50300598    4.90999985    2.30999994
   18.28000069  199.68099976    4.90999985    2.32999992
   18.28166580  199.31399536    4.90999985    2.30999994
   18.28472137  236.25199890    4.90999985    2.28999996
   18.28805542  209.04600525    4.90999985    2.28999996
   18.29111099  207.76199341    4.90999985    2.26999998
   18.29444313  209.75500488    4.90999985    2.26999998
   18.29777718  243.46499634    4.90999985    2.25000000
   18.30083275  265.32501221    4.90999985    2.26999998
   18.30416679  214.53599548    4.90999985    2.17000008
   18.30749893  230.10800171    4.90999985    2.23000002
   18.31333351  230.10800171    4.90999985    2.28999996
   18.31750107  239.88400269    4.90999985    2.25000000
   18.32055664  238.16900635    4.90999985    2.25000000
   18.32389069  219.02299500    4.90999985    2.26999998
   18.32722282  257.24798584    4.90999985    2.23000002
   18.33027840  231.30499268    4.90999985    2.21000004
   18.33361244  239.94099426    4.90999985    2.26999998
   18.33694458  226.20300293    4.90999985    2.26999998
   18.34000015  245.66000366    4.90999985    2.25000000
   18.34333420  280.89099121    4.90999985    2.17000008
   18.34638977  247.03199768    4.90999985    2.15000010
   18.34694481  294.33300781    4.90999985    2.11999989
   18.35027885  262.75299072    4.90999985    2.19000006
   18.35611153  262.75299072    4.90999985    2.13000011
   18.36027908  277.67498779    4.90999985    2.19000006
   18.36361122  269.57800293    4.90999985    2.17000008
   18.36666679  265.53601074    4.90999985    2.11999989
   18.37000084  326.79299927    4.90999985    2.01999998
   18.37333298  263.01998901    4.90999985    2.01999998
   18.37638855  231.32699585    4.90999985    2.17000008
   18.37972260  227.94200134    4.90999985    2.21000004
   18.38027763  236.19200134    4.90999985    2.23000002
   18.38333321  255.20399475    4.90999985    2.17000008
   18.38666725  250.92799377    4.90999985    2.17000008
   18.38972282  245.11199951    4.90999985    2.23000002
   18.39305496  215.52600098    4.90999985    2.25000000
   18.39888954  215.52600098    4.90999985    2.23000002
   18.40305519  226.20599365    4.90999985    2.32999992
   18.40638924  228.42199707    4.90999985    2.28999996
   18.40944481  224.56799316    4.90999985    2.32999992
   18.41277695  220.96800232    4.90999985    2.32999992
   18.41361046  245.23899841    4.90999985    2.23000002
   18.41638756  220.28199768    4.90999985    2.28999996
   18.41972160  221.80900574    4.90999985    2.25000000
   18.42277718  216.68200684    4.90999985    2.34999990
   18.42611122  221.31500244    4.90999985    2.36999989
   18.42944336  229.62600708    4.90999985    2.39000010
   18.43249893  236.73699951    4.90999985    2.40000010
   18.43583298  236.31900024    4.90999985    2.32999992
   18.44194412  236.31900024    4.90999985    2.34999990
   18.44583321  208.66600037    4.90999985    2.30999994
   18.44694328  229.14599609    4.90999985    2.30999994
   18.44944382  230.27299500    4.90999985    2.26999998
   18.45277786  207.70799255    4.90999985    2.23000002
   18.45583344  246.97700500    4.90999985    2.25000000
   18.45916748  211.27900696    4.90999985    2.21000004
   18.46250153  219.96699524    4.90999985    2.28999996
   18.46555710  201.80799866    4.90999985    2.34999990
   18.46888924  217.84899902    4.90999985    2.34999990
   18.47194481  216.01199341    4.90999985    2.26999998
   18.47527885  252.07800293    4.90999985    2.26999998
   18.47861099  220.24400330    4.90999985    2.26999998
   18.48027802  234.58700562    4.90999985    2.26999998
   18.48472214  234.58700562    4.90999985    2.28999996
   18.48888969  227.67799377    4.90999985    2.30999994
   18.49194527  208.74899292    4.90999985    2.30999994
   18.49527740  201.21400452    4.90999985    2.36999989
   18.49861145  219.05799866    4.90999985    2.30999994
   18.50194359  227.66799927    4.90999985    2.30999994
   18.50499916  232.99099731    4.90999985    2.36999989
   18.50833321  224.34300232    4.90999985    2.34999990
   18.51166725  243.75799561    4.90999985    2.23000002
   18.51361084  204.64500427    4.90999985    2.19000006
   18.51527786  211.30599976    4.90999985    2.30999994
   18.51861000  211.62600708    4.90999985    2.30999994
   18.52166557  238.81700134    4.90999985    2.36999989
   18.52750015  238.81700134    4.90999985    2.28999996
   18.53166580  189.08000183    4.90999985    2.32999992
   18.53499985  187.56399536    4.90999985    2.39000010
   18.53805542  207.20599365    4.90999985    2.39000010
   18.54138756  221.63900757    4.90999985    2.30999994
   18.54472160  255.56300354    4.90999985    2.28999996
   18.54694366  259.82199097    4.90999985    2.15000010
   18.54833221  292.83401489    4.90999985    2.01999998
   18.55166626  317.83999634    4.90999985    2.09999990
   18.55472183  354.20300293    4.90999985    1.96000004
   18.55805397  286.61499023    4.90999985    1.98000002
   18.56138802  281.77099609    4.90999985    2.01999998
   18.56444359  289.53201294    4.90999985    2.13000011
   18.57083511  289.53201294    4.90999985    1.96000004
   18.57500076  297.21701050    4.90999985    2.03999996
   18.57805634  270.61801147    4.90999985    2.07999992
   18.58055687  234.28399658    4.90999985    2.09999990
   18.58166695  202.80999756    4.90999985    2.15000010
   18.58500099  242.07499695    4.90999985    2.19000006
   18.58833313  235.66700745    4.90999985    2.15000010
   18.59138870  198.42700195    4.90999985    2.25000000
   18.59472275  245.26800537    4.90999985    2.15000010
   18.59805679  253.90800476    4.90999985    2.07999992
   18.60111237  240.69000244    4.90999985    2.11999989
   18.60444450  287.51998901    4.90999985    2.11999989
   18.60750008  190.00199890    4.90999985    2.05999994
   18.61333466  190.00199890    4.90999985    2.28999996
   18.61750031  212.45500183    4.90999985    2.28999996
   18.62055588  224.31500244    4.90999985    2.28999996
   18.62388992  276.84799194    4.90999985    2.17000008
   18.62694550  265.13699341    4.90999985    2.09999990
   18.63027763  257.63101196    4.90999985    2.03999996
   18.63361168  269.13900757    4.90999985    2.05999994
   18.63666725  245.71800232    4.90999985    2.01999998
   18.63999939  221.23199463    4.90999985    2.05999994
   18.64333344  223.66400146    4.90999985    2.13000011
   18.64638901  228.10200500    4.90999985    2.11999989
   18.64833260  192.39300537    4.90999985    2.15000010
   18.65027809  204.10099792    4.90999985    2.17000008
   18.65611076  204.10099792    4.90999985    2.11999989
   18.66027832  249.73399353    4.90999985    2.00000000
   18.66333389  244.11500549    4.90999985    2.05999994
   18.66666603  268.05599976    4.90999985    2.13000011
   18.67000008  300.11401367    4.90999985    2.05999994
   18.67333221  286.40798950    4.90999985    2.03999996
   18.67638779  240.88699341    4.90999985    1.96000004
   18.67972183  269.67800903    4.90999985    2.01999998
   18.68166542  259.20599365    4.90999985    2.09999990
   18.68333244  258.00500488    4.90999985    2.11999989
   18.68638802  323.62799072    4.90999985    2.01999998
   18.68972206  347.56500244    4.90999985    2.00000000
   18.69277763  337.41699219    4.90999985    1.94000006
   18.69888878  337.41699219    4.90999985    2.23000002
   18.70305634  241.02499390    4.90999985    2.07999992
   18.70639038  250.45199585    4.90999985    2.05999994
   18.70944595  247.57899475    4.90999985    2.09999990
   18.71277809  236.70100403    4.90999985    2.15000010
   18.71527863  255.80400085    4.90999985    2.15000010
   18.71638870  241.32200623    4.90999985    2.17000008
   18.71972275  280.16299438    4.90999985    2.23000002
   18.72305679  284.35400391    4.90999985    1.94000006
   18.72611237  443.82299805    4.90999985    1.80999994
   18.72833443  164.33299255    4.90999985    1.76999998
   18.72833443  337.41699219    4.90999985    1.94000006
   18.72833443  241.02499390    4.90999985    2.07999992
   18.72861099  250.45199585    4.90999985    2.05999994
   18.72861099  247.57899475    4.90999985    2.09999990
   18.72861099  236.70100403    4.90999985    2.15000010
   18.72888947  241.32200623    4.90999985    2.17000008
   18.72888947  280.16299438    4.90999985    2.23000002
   18.72916794  284.35400391    4.90999985    1.94000006
   18.72916794  443.82299805    4.90999985    1.80999994
   18.73083305  322.02600098    4.90999985    1.63000000
   18.73416710  381.67999268    4.90999985    1.76999998
   18.73722267  370.12298584    4.90999985    1.91999996
   18.74055672  300.34298706    4.90999985    1.96000004
   18.74361229  253.33500671    4.90999985    2.05999994
   18.74916649  253.33500671    4.90999985    2.17000008
   18.75305557  248.03100586    4.90999985    2.30999994
   18.75638962  220.93299866    4.90999985    2.30999994
   18.75972176  221.28599548    4.90999985    2.32999992
   18.76222229  229.54200745    4.90999985    2.30999994
   18.76333427  214.14599609    4.90999985    2.32999992
   18.76666641  249.64599609    4.90999985    2.25000000
   18.76972198  253.62199402    4.90999985    2.13000011
   18.77305603  290.23999023    4.90999985    2.15000010
   18.77638817  371.55398560    4.90999985    2.05999994
   18.77944374  325.66400146    4.90999985    1.86000001
   18.78277779  333.04000854    4.90999985    1.91999996
   18.78610992  446.58898926    4.90999985    1.98000002
   18.78805542  371.60400391    4.90999985    1.86000001
   18.78944397  360.60400391    4.90999985    1.86000001
   18.79083252  272.74099731    4.90999985    1.98000002
   18.79083252  249.64599609    4.90999985    2.25000000
   18.79083252  253.62199402    4.90999985    2.13000011
   18.79111099  290.23999023    4.90999985    2.15000010
   18.79111099  371.55398560    4.90999985    2.05999994
   18.79111099  325.66400146    4.90999985    1.86000001
   18.79138756  333.04000854    4.90999985    1.91999996
   18.79138756  446.58898926    4.90999985    1.98000002
   18.79166603  221.28599548    4.90999985    2.32999992
   18.79166603  214.14599609    4.90999985    2.32999992
   18.79222107  451.52600098    4.90999985    2.01999998
   18.79416656  415.60000610    4.90999985    1.91999996
   18.79555511  421.20800781    4.90999985    1.86000001
   18.79694366  328.57199097    4.90999985    1.88000000
   18.79694366  451.52600098    4.90999985    2.01999998
   18.79749870  337.00299072    4.90999985    1.88000000
   18.80083275  312.51501465    4.90999985    2.05999994
   18.80416679  432.52600098    4.90999985    1.94000006
   18.80611038  457.53201294    4.90999985    1.88000000
   18.80749893  467.27301025    4.90999985    1.85000002
   18.80888748  421.94000244    4.90999985    1.78999996
   18.81027794  269.19198608    4.90999985    1.76999998
   18.81027794  337.00299072    4.90999985    1.88000000
   18.81027794  312.51501465    4.90999985    2.05999994
   18.81055450  432.52600098    4.90999985    1.94000006
   18.81110954  296.65499878    4.90999985    1.76999998
   18.81444359  381.39498901    4.90999985    1.75000000
   18.81750107  391.70800781    4.90999985    1.78999996
   18.82083511  320.15798950    4.90999985    1.91999996
   18.82389069  256.04199219    4.90999985    2.01999998
   18.82722282  279.04901123    4.90999985    1.88000000
   18.83139038  279.04901123    4.90999985    2.05999994
   18.83555603  317.52099609    4.90999985    1.98000002
   18.83889008  336.97399902    4.90999985    1.91999996
   18.84194565  287.07400513    4.90999985    2.00000000
   18.84416771  254.33500671    4.90999985    2.11999989
   18.84555626  246.18400574    4.90999985    2.13000011
   18.84916687  278.36599731    4.90999985    2.09999990
   18.85250092  245.35699463    4.90999985    2.09999990
   18.85555649  233.11199951    4.90999985    2.15000010
   18.85888863  266.41101074    4.90999985    2.15000010
   18.86222267  240.30599976    4.90999985    2.17000008
   18.86527824  231.48399353    4.90999985    2.21000004
   18.86861038  242.92199707    4.90999985    2.19000006
   18.87416649  242.92199707    4.90999985    2.11999989
   18.87833405  411.85699463    4.90999985    2.01999998
   18.88055611  371.09100342    4.90999985    1.98000002
   18.88166618  442.72399902    4.90999985    2.00000000
   18.88305473  381.37899780    4.90999985    1.96000004
   18.88444519  436.20800781    4.90999985    1.88000000
   18.88583374  454.89599609    4.90999985    1.88000000
   18.88722229  408.04501343    4.90999985    1.85000002
   18.88861084  426.60598755    4.90999985    1.80999994
   18.89027786  404.16400146    4.90999985    1.80999994
   18.89138794  428.44198608    4.90999985    1.78999996
   18.89277840  477.96499634    4.90999985    1.76999998
   18.89416695  218.59500122    4.90999985    1.80999994
   18.89444351  246.18400574    4.90999985    2.13000011
   18.89444351  278.36599731    4.90999985    2.09999990
   18.89444351  245.35699463    4.90999985    2.09999990
   18.89472198  233.11199951    4.90999985    2.15000010
   18.89472198  266.41101074    4.90999985    2.15000010
   18.89472198  240.30599976    4.90999985    2.17000008
   18.89500046  231.48399353    4.90999985    2.21000004
   18.89500046  242.92199707    4.90999985    2.19000006
   18.89527702  411.85699463    4.90999985    2.01999998
   18.89583397  159.70399475    4.90999985    1.75000000
   18.89888954  311.99200439    4.90999985    1.55999994
   18.90222168  148.54899597    4.90999985    1.73000002
   18.90527725  146.71299744    4.90999985    1.64999998
   18.90861130  160.56900024    4.90999985    1.53999996
   18.91499901  160.56900024    4.90999985    1.51999998
   18.91916656  142.67199707    4.90999985    1.53999996
   18.92249870  147.25599670    4.90999985    1.55999994
   18.92555428  142.29200745    4.90999985    1.53999996
   18.92805481  163.52999878    4.90999985    1.53999996
   18.92944336  126.30100250    4.90999985    1.48000002
   18.93277740  155.08000183    4.90999985    1.53999996
   18.93583298  157.73199463    4.90999985    1.60000002
   18.93916512  437.61499023    4.90999985    1.73000002
   18.94111061  401.86401367    4.90999985    1.80999994
   18.94249916  418.69799805    4.90999985    1.85000002
   18.94388771  472.54598999    4.90999985    1.80999994
   18.94527626  165.62500000    4.90999985    1.83000004
   18.94527626  155.08000183    4.90999985    1.53999996
   18.94555473  157.73199463    4.90999985    1.60000002
   18.94555473  437.61499023    4.90999985    1.73000002
   18.94555473  146.71299744    4.90999985    1.64999998
   18.94583321  160.56900024    4.90999985    1.53999996
   18.94583321  142.67199707    4.90999985    1.53999996
   18.94583321  147.25599670    4.90999985    1.55999994
   18.94610977  142.29200745    4.90999985    1.53999996
   18.94610977  126.30100250    4.90999985    1.48000002
   18.94666672  208.89599609    4.90999985    1.75000000
   18.95000076  440.13299561    4.90999985    1.71000004
   18.95194435  418.52499390    4.90999985    1.14999998
   18.95333481  423.98999023    4.90999985    1.76999998
   18.95472336  332.88101196    4.90999985    1.80999994
   18.95472336  208.89599609    4.90999985    1.75000000
   18.95499992  440.13299561    4.90999985    1.71000004
   18.95555687  355.64700317    4.90999985    1.80999994
   18.95861244  388.53601074    4.90999985    1.76999998
   18.96194458  337.96099854    4.90999985    1.83000004
   18.96527863  334.36700439    4.90999985    1.78999996
   18.96833420  287.75201416    4.90999985    1.94000006
   18.97166634  266.70800781    4.90999985    1.98000002
   18.97583389  266.70800781    4.90999985    1.98000002
   18.98000145  339.74499512    4.90999985    1.86000001
   18.98305511  424.80801392    4.90999985    1.86000001
   18.98527718  384.89498901    4.90999985    1.86000001
   18.98638916  365.19299316    4.90999985    1.76999998
   18.98777771  307.83300781    4.90999985    1.75000000
   18.98805618  355.64700317    4.90999985    1.80999994
   18.98805618  388.53601074    4.90999985    1.76999998
   18.98805618  337.96099854    4.90999985    1.83000004
   18.98833275  334.36700439    4.90999985    1.78999996
   18.98833275  287.75201416    4.90999985    1.94000006
   18.98833275  266.70800781    4.90999985    1.98000002
   18.98861122  339.74499512    4.90999985    1.86000001
   18.98861122  424.80801392    4.90999985    1.86000001
   18.98916626  267.56298828    4.90999985    1.78999996
   18.99250031  233.12699890    4.90999985    2.03999996
   18.99583435  249.63099670    4.90999985    2.03999996
   18.99888992  242.54800415    4.90999985    2.11999989
   19.00222206  233.75500488    4.90999985    2.05999994
   19.00861168  233.75500488    4.90999985    2.03999996
   19.01277733  215.95599365    4.90999985    2.17000008
   19.01611137  263.24899292    4.90999985    2.15000010
   19.01916695  285.44000244    4.90999985    2.15000010
   19.02166557  318.42599487    4.90999985    2.15000010
   19.02305603  292.89099121    4.90999985    2.09999990
   19.02638817  350.52499390    4.90999985    2.09999990
   19.02944374  448.70999146    4.90999985    2.11999989
   19.03166580  424.03399658    4.90999985    2.03999996
   19.03277779  431.27999878    4.90999985    2.11999989
   19.03416634  386.53900146    4.90999985    2.13000011
   19.03555489  409.74499512    4.90999985    1.96000004
   19.03694344  348.18600464    4.90999985    2.01999998
   19.03722191  350.52499390    4.90999985    2.09999990
   19.03722191  448.70999146    4.90999985    2.11999989
   19.03722191  249.63099670    4.90999985    2.03999996
   19.03750038  242.54800415    4.90999985    2.11999989
   19.03750038  233.75500488    4.90999985    2.05999994
   19.03750038  215.95599365    4.90999985    2.17000008
   19.03777695  263.24899292    4.90999985    2.15000010
   19.03777695  285.44000244    4.90999985    2.15000010
   19.03777695  292.89099121    4.90999985    2.09999990
   19.03861046  365.68499756    4.90999985    2.15000010
   19.04166603  272.65701294    4.90999985    2.19000006
   19.04500008  285.32501221    4.90999985    2.19000006
   19.04805565  321.23300171    4.90999985    2.07999992
   19.05138779  344.70999146    4.90999985    2.21000004
   19.05777740  344.70999146    4.90999985    2.03999996
   19.06194305  508.10598755    4.90999985    1.85000002
   19.06388855  487.93798828    4.90999985    1.80999994
   19.06527710  394.17001343    4.90999985    1.83000004
   19.06666756  486.72299194    4.90999985    1.89999998
   19.06805611  450.53698730    4.90999985    1.83000004
   19.06944466  484.44900513    4.90999985    1.80999994
   19.07083511  490.04800415    4.90999985    1.78999996
   19.07222366  471.27200317    4.90999985    1.85000002
   19.07361221  501.77398682    4.90999985    1.88000000
   19.07500076  502.32901001    4.90999985    1.88000000
   19.07666779  516.07800293    4.90999985    1.86000001
   19.07777786  506.40798950    4.90999985    1.86000001
   19.07916832   95.93669891    4.90999985    1.76999998
   19.07916832  365.68499756    4.90999985    2.15000010
   19.07944489  272.65701294    4.90999985    2.19000006
   19.07944489  285.32501221    4.90999985    2.19000006
   19.07972336  321.23300171    4.90999985    2.07999992
   19.07972336  344.70999146    4.90999985    2.21000004
   19.07972336  508.10598755    4.90999985    1.85000002
   19.08027840  265.63598633    4.90999985    1.60000002
   19.08361244  494.94799805    4.90999985    1.63000000
   19.08555603  490.02099609    4.90999985    1.88000000
   19.08694458  500.20401001    4.90999985    1.96000004
   19.08833313  457.99499512    4.90999985    1.89999998
   19.08972359  374.94198608    4.90999985    1.91999996
   19.09111214  368.45800781    4.90999985    2.09999990
   19.09250069  350.22100830    4.90999985    2.13000011
   19.09388924  167.74099731    4.90999985    1.98000002
   19.09388924  265.63598633    4.90999985    1.60000002
   19.09416771  494.94799805    4.90999985    1.63000000
   19.09472275   48.08000183    4.90999985    1.98000002
   19.09805679  192.06100464    4.90999985    1.28999996
   19.10111237   72.73549652    4.90999985    1.48000002
   19.10444450   83.16139984    4.90999985    1.50000000
   19.10750008  500.36599731    4.90999985    1.58000004
   19.10972214  489.61499023    4.90999985    1.85000002
   19.11083412  555.55401611    4.90999985    1.91999996
   19.11222267  528.83502197    4.90999985    1.86000001
   19.11361122  414.53900146    4.90999985    1.76999998
   19.11499977  346.31201172    4.90999985    1.86000001
   19.11527824   48.08000183    4.90999985    1.98000002
   19.11527824  192.06100464    4.90999985    1.28999996
   19.11555672   72.73549652    4.90999985    1.48000002
   19.11555672   83.16139984    4.90999985    1.50000000
   19.11555672  500.36599731    4.90999985    1.58000004
   19.11611176  188.08599854    4.90999985    1.91999996
   19.11944389  205.81500244    4.90999985    1.61000001
   19.12277794  204.59500122    4.90999985    1.69000006
   19.12583351  184.97300720    4.90999985    1.60000002
   19.12916756  225.54800415    4.90999985    1.61000001
   19.13583374  225.54800415    4.90999985    1.75000000
   19.13999939  250.28100586    4.90999985    1.88000000
   19.14333344  237.83900452    4.90999985    1.69000006
   19.14666748  429.81900024    4.90999985    1.76999998
   19.14861107  303.40798950    4.90999985    1.80999994
   19.14861107  188.08599854    4.90999985    1.91999996
   19.14888954  205.81500244    4.90999985    1.61000001
   19.14888954  204.59500122    4.90999985    1.69000006
   19.14888954  184.97300720    4.90999985    1.60000002
   19.14916611  225.54800415    4.90999985    1.61000001
   19.14916611  250.28100586    4.90999985    1.88000000
   19.14944458  237.83900452    4.90999985    1.69000006
   19.14944458  429.81900024    4.90999985    1.76999998
   19.15111160  233.16700745    4.90999985    1.78999996
   19.15444374  495.97799683    4.90999985    1.69000006
   19.15638924  482.53601074    4.90999985    1.94000006
   19.15777779  443.57800293    4.90999985    1.96000004
   19.15916634  575.25598145    4.90999985    1.98000002
   19.16055489  559.44702148    4.90999985    1.94000006
   19.16194344  439.17700195    4.90999985    1.88000000
   19.16333389   69.37120056    4.90999985    1.83000004
   19.16333389  233.16700745    4.90999985    1.78999996
   19.16333389  495.97799683    4.90999985    1.69000006
   19.16388893   59.72439957    4.90999985    1.80999994
   19.16722107   75.48819733    4.90999985    1.48000002
   19.17055511  193.94299316    4.90999985    1.38000000
   19.17361069  184.59700012    4.90999985    1.60000002
   19.17694473   79.44239807    4.90999985    1.51999998
   19.18027687  590.65002441    4.90999985    1.41999996
   19.18222237  527.40502930    4.90999985    1.80999994
   19.18361092  517.03698730    4.90999985    1.94000006
   19.18499947  492.39001465    4.90999985    1.91999996
   19.18638802  523.66601563    4.90999985    1.89999998
   19.18777657  201.63999939    4.90999985    1.85000002
   19.18777657   59.72439957    4.90999985    1.80999994
   19.18777657   75.48819733    4.90999985    1.48000002
   19.18805504  193.94299316    4.90999985    1.38000000
   19.18805504  184.59700012    4.90999985    1.60000002
   19.18805504   79.44239807    4.90999985    1.51999998
   19.18833160  590.65002441    4.90999985    1.41999996
   19.18888855  207.40600586    4.90999985    1.78999996
   19.19222069  168.85200500    4.90999985    1.63000000
   19.19527626  217.87100220    4.90999985    1.60000002
   19.19861031  131.11199951    4.90999985    1.66999996
   19.20166779  277.13699341    4.90999985    1.53999996
   19.20861244  277.13699341    4.90999985    1.86000001
   19.21250153  347.10501099    4.90999985    2.01999998
   19.21583366  365.18399048    4.90999985    2.01999998
   19.21916771  294.25000000    4.90999985    2.09999990
   19.22166634  300.25900269    4.90999985    2.15000010
   19.22277832  515.51599121    4.90999985    2.11999989
   19.22500038  546.05401611    4.90999985    1.85000002
   19.22611237  379.07299805    4.90999985    1.86000001
   19.22750092  336.48901367    4.90999985    1.89999998
   19.22777748  207.40600586    4.90999985    1.78999996
   19.22777748  168.85200500    4.90999985    1.63000000
   19.22777748  217.87100220    4.90999985    1.60000002
   19.22805595  131.11199951    4.90999985    1.66999996
   19.22805595  277.13699341    4.90999985    1.53999996
   19.22805595  347.10501099    4.90999985    2.01999998
   19.22833443  365.18399048    4.90999985    2.01999998
   19.22833443  294.25000000    4.90999985    2.09999990
   19.22861099  515.51599121    4.90999985    2.11999989
   19.22916794  335.17999268    4.90999985    2.09999990
   19.23222351  304.76098633    4.90999985    2.11999989
   19.23555565  414.85400391    4.90999985    2.11999989
   19.23750114  505.69500732    4.90999985    1.91999996
   19.23888969  514.74102783    4.90999985    1.85000002
   19.24027824  499.76998901    4.90999985    1.75000000
   19.24166679  544.69799805    4.90999985    1.78999996
   19.24305534  553.11102295    4.90999985    1.86000001
   19.24444389  536.16998291    4.90999985    1.85000002
   19.24583435  462.65600586    4.90999985    1.80999994
   19.24722290  505.54000854    4.90999985    1.80999994
   19.24861145  410.24099731    4.90999985    1.78999996
   19.25000000  451.41799927    4.90999985    1.88000000
   19.25138855  489.31900024    4.90999985    1.94000006
   19.25277710  481.57800293    4.90999985    1.94000006
   19.25416756  463.64401245    4.90999985    1.88000000
   19.25555611  481.56900024    4.90999985    1.86000001
   19.25694466  473.52398682    4.90999985    1.91999996
   19.25833321  545.99902344    4.90999985    1.94000006
   19.25972176  536.45001221    4.90999985    1.83000004
   19.26111031  474.00399780    4.90999985    1.80999994
   19.26250076  357.41101074    4.90999985    1.86000001
   19.26388931  349.27999878    4.90999985    2.05999994
   19.26388931  335.17999268    4.90999985    2.09999990
   19.26416588  304.76098633    4.90999985    2.11999989
   19.26416588  414.85400391    4.90999985    2.11999989
   19.26472282  374.29998779    4.90999985    2.05999994
   19.26805496  329.73599243    4.90999985    2.09999990
   19.27111053  377.26199341    4.90999985    2.01999998
   19.27444458  319.40399170    4.90999985    1.98000002
   19.27750015  402.87399292    4.90999985    1.71000004
   19.27972221  140.95100403    4.90999985    1.69000006
   19.27972221  374.29998779    4.90999985    2.05999994
   19.28000069  329.73599243    4.90999985    2.09999990
   19.28000069  377.26199341    4.90999985    2.01999998
   19.28000069  319.40399170    4.90999985    1.98000002
   19.28027725  402.87399292    4.90999985    1.71000004
   19.30138779  402.87399292    4.90999985    2.01999998
   19.30555534  430.84100342    4.90999985    2.01999998
   19.30749893  462.83700562    4.90999985    1.91999996
   19.30888748  551.75598145    4.90999985    1.88000000
   19.31027794  467.85699463    4.90999985    1.88000000
   19.31166649  491.43798828    4.90999985    1.86000001
   19.31305504  227.61500549    4.90999985    1.85000002
   19.31305504  430.84100342    4.90999985    2.01999998
   19.31361008  193.75300598    4.90999985    1.76999998
   19.31694603   98.15110016    4.90999985    1.53999996
   19.32027817  173.23300171    4.90999985    1.61000001
   19.32333374   80.27510071    4.90999985    1.66999996
   19.32666779   68.81529999    4.90999985    1.41999996
   19.32972336   -1.00000000    4.90999985    1.21000004
   19.33805656   76.22869873    4.90999985    1.16999996
   19.34138870   52.41579819    4.90999985    1.46000004
   19.34444427   -1.00000000    4.90999985    1.33000004
   19.34805679   -1.00000000    4.90999985    1.16999996
   19.35138893  198.19500732    4.90999985    1.26999998
   19.35444450  618.21997070    4.90999985    1.73000002
   19.35666656   97.08460236    4.90999985    1.86000001
   19.35666656   -1.00000000    4.90999985    1.16999996
   19.35694504  198.19500732    4.90999985    1.26999998
   19.35694504  618.21997070    4.90999985    1.73000002
   19.35694504   80.27510071    4.90999985    1.66999996
   19.35722351   68.81529999    4.90999985    1.41999996
   19.35722351   -1.00000000    4.90999985    1.21000004
   19.35722351   76.22869873    4.90999985    1.16999996
   19.35750008   52.41579819    4.90999985    1.46000004
   19.35750008   -1.00000000    4.90999985    1.33000004
   19.35944557   78.05879974    4.90999985    1.48000002
   19.36277771  130.00900269    4.90999985    1.41999996
   19.36611176  119.80100250    4.90999985    1.50000000
   19.36916733  242.21800232    4.90999985    1.66999996
   19.37249947  660.89801025    4.90999985    1.73000002
   19.37444496  448.97299194    4.90999985    1.88000000
   19.37583351   62.52479935    4.90999985    1.76999998
   19.37583351   78.05879974    4.90999985    1.48000002
   19.37611198  130.00900269    4.90999985    1.41999996
   19.37611198  119.80100250    4.90999985    1.50000000
   19.37611198  242.21800232    4.90999985    1.66999996
   19.37638855  660.89801025    4.90999985    1.73000002
   19.37722206   99.18090057    4.90999985    1.75000000
   19.38027763  201.77600098    4.90999985    1.61000001
   19.38361168  605.94201660    4.90999985    1.86000001
   19.38555527  179.12800598    4.90999985    1.80999994
   19.38583374   99.18090057    4.90999985    1.75000000
   19.38583374  201.77600098    4.90999985    1.61000001
   19.38583374  605.94201660    4.90999985    1.86000001
   19.38750076  473.51000977    4.90999985    1.78999996
   19.38972282  556.78802490    4.90999985    1.76999998
   19.39111137  210.06100464    4.90999985    1.85000002
   19.39111137  473.51000977    4.90999985    1.78999996
   19.39222145  453.45098877    4.90999985    1.86000001
   19.39416695  179.19900513    4.90999985    1.76999998
   19.39638901  295.69699097    4.90999985    1.66999996
   19.39944458  568.15502930    4.90999985    1.76999998
   19.40166664  526.58001709    4.90999985    1.89999998
   19.40277672  355.65200806    4.90999985    1.91999996
   19.40416718  118.12500000    4.90999985    1.86000001
   19.40444374  295.69699097    4.90999985    1.66999996
   19.40444374  568.15502930    4.90999985    1.76999998
   19.40499878  149.94500732    4.90999985    1.71000004
   19.40833282  150.91700745    4.90999985    1.48000002
   19.41138840  227.62699890    4.90999985    1.61000001
   19.41472244  549.42999268    4.90999985    1.73000002
   19.41666603  508.06698608    4.90999985    1.83000004
   19.41805458  553.15899658    4.90999985    1.73000002
   19.41944313  560.10601807    4.90999985    1.78999996
   19.42083359  433.96099854    4.90999985    1.80999994
   19.42222214  418.80300903    4.90999985    1.76999998
   19.42361069  224.84899902    4.90999985    1.78999996
   19.42361069  149.94500732    4.90999985    1.71000004
   19.42388916  150.91700745    4.90999985    1.48000002
   19.42388916  227.62699890    4.90999985    1.61000001
   19.42388916  549.42999268    4.90999985    1.73000002
   19.42444420  244.70700073    4.90999985    1.73000002
   19.42777634  562.61798096    4.90999985    1.69000006
   19.43000031  343.06201172    4.90999985    1.73000002
   19.43000031  244.70700073    4.90999985    1.73000002
   19.43000031  562.61798096    4.90999985    1.69000006
   19.43166542  493.39099121    4.90999985    2.09999990
   19.43388748  476.54400635    4.90999985    1.80999994
   19.43499947  559.27801514    4.90999985    1.71000004
   19.43638802  567.82299805    4.90999985    1.78999996
   19.43777657  426.73098755    4.90999985    1.85000002
   19.43916512  369.36599731    4.90999985    1.89999998
   19.44055557  375.97900391    4.90999985    2.03999996
   19.44194412  474.94799805    4.90999985    2.01999998
   19.44333267  526.54400635    4.90999985    1.98000002
   19.44472122  553.70397949    4.90999985    1.85000002
   19.44610977  505.24700928    4.90999985    1.78999996
   19.44749832  330.97000122    4.90999985    1.86000001
   19.44777679  493.39099121    4.90999985    2.09999990
   19.44833183  310.63598633    4.90999985    1.91999996
   19.45166779  321.18499756    4.90999985    2.25000000
   19.45472336  330.77499390    4.90999985    2.15000010
   19.45805550  312.75399780    4.90999985    1.94000006
   19.46111107  126.99299622    4.90999985    1.76999998
   19.46444511   -1.00000000    4.90999985    1.30999994
   19.46861076   -1.00000000    4.90999985    1.03999996
   19.47277832   69.99479675    4.90999985    0.01000000
   19.47611237   61.52500153    4.90999985    1.38000000
   19.47916794   52.40280151    4.90999985    1.25000000
   19.48139000  180.03300476    4.90999985    1.33000004
   19.48277855   68.94689941    4.90999985    1.36000001
   19.48611069  138.69900513    4.90999985    1.26999998
   19.48916626  367.48901367    4.90999985    1.73000002
   19.49250031  189.81399536    4.90999985    1.88000000
   19.49583435   -1.00000000    4.90999985    1.69000006
   19.49888992   -1.00000000    4.90999985    1.23000002
   19.50222206   -1.00000000    4.90999985    1.28999996
   19.50527763   -1.00000000    4.90999985    0.94000000
   19.51138878   -1.00000000    4.90999985    1.44000006
   19.51555634  236.35699463    4.90999985    1.73000002
   19.51888847   -1.00000000    4.90999985    1.30999994
   19.52194405   -1.00000000    4.90999985    0.81999999
   19.52527809   -1.00000000    4.90999985    0.92000002
   19.52861023  228.27200317    4.90999985    1.39999998
   19.53166580  570.14697266    4.90999985    1.69000006
   19.53361130  380.93899536    4.90999985    1.78999996
   19.53499985  371.64401245    4.90999985    2.00000000
   19.53638840  346.07901001    4.90999985    2.11999989
   19.53666687   -1.00000000    4.90999985    1.30999994
   19.53666687   -1.00000000    4.90999985    0.81999999
   19.53666687   -1.00000000    4.90999985    0.92000002
   19.53694344  228.27200317    4.90999985    1.39999998
   19.53694344  570.14697266    4.90999985    1.69000006
   19.53694344   -1.00000000    4.90999985    1.23000002
   19.53722191   -1.00000000    4.90999985    1.28999996
   19.53722191   -1.00000000    4.90999985    0.94000000
   19.53722191  236.35699463    4.90999985    1.73000002
   19.53805542  471.31500244    4.90999985    2.13000011
   19.53999901  166.03700256    4.90999985    1.86000001
   19.54194450  427.39498901    4.90999985    1.69000006
   19.54388809  342.26998901    4.90999985    1.88000000
   19.54611015  321.58999634    4.90999985    2.00000000
   19.54916573  393.98999023    4.90999985    2.01999998
   19.55249977  377.04199219    4.90999985    1.69000006
   19.55583191  199.55799866    4.90999985    1.76999998
   19.55888748   62.96799850    4.90999985    1.44000006
   19.56499863   62.96799850    4.90999985    0.88000000
   19.56888962  363.83499146    4.90999985    1.33000004
   19.57222366  116.87599945    4.90999985    1.66999996
   19.57555580   -1.00000000    4.90999985    1.39999998
   19.57805634  120.45700073    4.90999985    1.26999998
   19.57916832  282.87600708    4.90999985    1.39999998
   19.58250046  408.07800293    4.90999985    1.85000002
   19.58444595  402.03601074    4.90999985    1.91999996
   19.58583450  206.00199890    4.90999985    1.83000004
   19.58583450  408.07800293    4.90999985    1.85000002
   19.58611107  393.98999023    4.90999985    2.01999998
   19.58611107  377.04199219    4.90999985    1.69000006
   19.58611107  199.55799866    4.90999985    1.76999998
   19.58638954   62.96799850    4.90999985    1.44000006
   19.58638954  363.83499146    4.90999985    1.33000004
   19.58638954  116.87599945    4.90999985    1.66999996
   19.58666801   -1.00000000    4.90999985    1.39999998
   19.58666801  282.87600708    4.90999985    1.39999998
   19.58750153  214.59300232    4.90999985    1.66999996
   19.59083366  564.12799072    4.90999985    1.63000000
   19.59277916  201.31799316    4.90999985    1.85000002
   19.59305573  214.59300232    4.90999985    1.66999996
   19.59305573  564.12799072    4.90999985    1.63000000
   19.59472275  210.46600342    4.90999985    1.58000004
   19.59805679  476.87799072    4.90999985    1.75000000
   19.60000038  430.76098633    4.90999985    1.94000006
   19.60138893  445.97000122    4.90999985    1.96000004
   19.60277748  536.85400391    4.90999985    1.94000006
   19.60416794  509.50799561    4.90999985    1.88000000
   19.60555649   82.99620056    4.90999985    1.91999996
   19.60555649  210.46600342    4.90999985    1.58000004
   19.60555649  476.87799072    4.90999985    1.75000000
   19.60611153  235.94700623    4.90999985    1.63000000
   19.60944557  325.52700806    4.90999985    1.71000004
   19.61277771  240.39100647    4.90999985    1.66999996
   19.61583328  371.73300171    4.90999985    1.80999994
   19.61916733  275.73699951    4.90999985    2.05999994
   19.62249947  372.03900146    4.90999985    2.23000002
   19.62666702  372.03900146    4.90999985    1.50000000
   19.63083267   -1.00000000    4.90999985    0.98000002
   19.63388824  386.67199707    4.90999985    1.38000000
   19.63722229  216.67900085    4.90999985    1.78999996
   19.63944435  201.37399292    4.90999985    1.61000001
   19.64083290   -1.00000000    4.90999985    1.76999998
   19.64416695   -1.00000000    4.90999985    1.11000001
   19.64749908  128.43499756    4.90999985    1.11000001
   19.65055466   98.14420319    4.90999985    1.61000001
   19.65388870   -1.00000000    4.90999985    1.51999998
   19.65694427  161.86999512    4.90999985    1.36000001
   19.66027832   -1.00000000    4.90999985    1.64999998
   19.66361046   -1.00000000    4.90999985    1.23000002
   19.67333221   -1.00000000    4.90999985    0.80000001
   19.67666626   -1.00000000    4.90999985    0.98000002
   19.68000031   -1.00000000    4.90999985    0.98000002
   19.68305397   -1.00000000    4.90999985    0.94000000
   19.68638802   -1.00000000    4.90999985    1.01999998
   19.68972206   -1.00000000    4.90999985    1.09000003
   19.69277763   -1.00000000    4.90999985    0.92000002
   19.69610977   59.79499817    4.90999985    1.21000004
   19.69916534   -1.00000000    4.90999985    1.44000006
   19.70250130   -1.00000000    4.90999985    1.28999996
   19.70583344   -1.00000000    4.90999985    1.16999996
   19.71638870   -1.00000000    4.90999985    0.94000000
   19.71944427   56.07789993    4.90999985    1.26999998
   19.72277832   66.30229950    4.90999985    1.38000000
   19.72583389   -1.00000000    4.90999985    1.41999996
   19.72916794   -1.00000000    4.90999985    1.01999998
   19.73250008   -1.00000000    4.90999985    1.21000004
   19.73555565   -1.00000000    4.90999985    1.14999998
   19.73888969   -1.00000000    4.90999985    1.25000000
   19.74250031   -1.00000000    4.90999985    1.16999996
   19.74555588   -1.00000000    4.90999985    1.23000002
   19.74888992   -1.00000000    4.90999985    0.70999998
   19.75916672   -1.00000000    4.90999985    1.16999996
   19.76222229   -1.00000000    4.90999985    0.61000001
   19.76555634   -1.00000000    4.90999985    0.58999997
   19.76888847   -1.00000000    4.90999985    1.05999994
   19.77194405   -1.00000000    4.90999985    1.41999996
   19.77555466   -1.00000000    4.90999985    1.69000006
   19.77861023   -1.00000000    4.90999985    1.75000000
