    HOUR (UT)   FLARE FACTOR    SKY TESTER    SUN TESTER
   11.85000038   -1.00000000   -1.00000000   -1.00000000
   11.89027786  103.68900299    4.90999985    2.34999990
   11.89527798   97.97650146    4.90999985    2.32999992
   11.89999962  104.75399780    4.90999985    2.34999990
   11.90305519  108.09999847    4.90999985    2.32999992
   11.90638828  102.03900146    4.90999985    2.34999990
   11.90972137  102.40100098    4.90999985    2.34999990
   11.91277695   94.42050171    4.90999985    2.34999990
   11.91611099   94.31990051    4.90999985    2.34999990
   11.91916656  105.72799683    4.90999985    2.34999990
   11.92250061   99.84770203    4.90999985    2.36999989
   11.92361164  106.13899994    4.90999985    2.34999990
   11.92611122   99.53410339    4.90999985    2.36999989
   11.92944431  104.13999939    4.90999985    2.36999989
   11.93277836   98.65100098    4.90999985    2.34999990
   11.93583298  106.55699921    4.90999985    2.36999989
   11.93916702  111.48699951    4.90999985    2.36999989
   11.94250011   98.91329956    4.90999985    2.36999989
   11.94555569  103.88200378    4.90999985    2.36999989
   11.94888878  113.08000183    4.90999985    2.36999989
   11.95194435  100.51699829    4.90999985    2.36999989
   11.95527744  116.06099701    4.90999985    2.36999989
   11.95694447  118.95999908    4.90999985    2.36999989
   11.95916653  109.07199860    4.90999985    2.36999989
   11.96222210  117.93099976    4.90999985    2.36999989
   11.96555519  124.01499939    4.90999985    2.36999989
   11.96861076  145.28100586    4.90999985    2.36999989
   11.97194386  126.48999786    4.90999985    2.36999989
   11.97527695  127.18399811    4.90999985    2.36999989
   11.97833252  136.86399841    4.90999985    2.36999989
   11.98166656  133.73699951    4.90999985    2.36999989
   11.98472214  118.29299927    4.90999985    2.36999989
   11.98805618  138.44999695    4.90999985    2.39000010
   11.99027824  135.03799438    4.90999985    2.39000010
   11.99166679  134.16799927    4.90999985    2.40000010
   11.99499989  129.10600281    4.90999985    2.36999989
   11.99833393  130.57000732    4.90999985    2.40000010
   12.00138855  125.46700287    4.90999985    2.39000010
   12.00472260  129.29899597    4.90999985    2.39000010
   12.00805569  123.90200043    4.90999985    2.40000010
   12.01111126  124.61499786    4.90999985    2.39000010
   12.01444435  124.69100189    4.90999985    2.39000010
   12.01749992  129.51400757    4.90999985    2.39000010
   12.02083302  118.59400177    4.90999985    2.39000010
   12.02361107  122.97899628    4.90999985    2.39000010
   12.02444458  125.94999695    4.90999985    2.39000010
   12.02777767  124.40100098    4.90999985    2.39000010
   12.03111076  132.18499756    4.90999985    2.40000010
   12.03416729  124.63400269    4.90999985    2.40000010
   12.03750038  118.05000305    4.90999985    2.40000010
   12.04083347  118.31199646    4.90999985    2.40000010
   12.04388905  117.48899841    4.90999985    2.40000010
   12.04722309  120.78099823    4.90999985    2.40000010
   12.05055618  124.49800110    4.90999985    2.40000010
   12.05361176  118.00900269    4.90999985    2.39000010
   12.05694485  118.35299683    4.90999985    2.40000010
   12.05722237  106.08599854    4.90999985    2.40000010
   12.06055546  107.85900116    4.90999985    2.40000010
   12.06388950  111.16699982    4.90999985    2.40000010
   12.06694412  124.55400085    4.90999985    2.40000010
   12.07027817  116.75700378    4.90999985    2.40000010
   12.07361126  108.83300018    4.90999985    2.40000010
   12.07666683   97.17620087    4.90999985    2.42000008
   12.07999992  110.78500366    4.90999985    2.40000010
   12.08305550   99.88150024    4.90999985    2.40000010
   12.08638859  112.02100372    4.90999985    2.42000008
   12.08972168  103.55400085    4.90999985    2.42000008
   12.09027767  100.89399719    4.90999985    2.42000008
   12.09305477  107.79599762    4.90999985    2.40000010
   12.09638882   96.50379944    4.90999985    2.40000010
   12.09972191   97.08769989    4.90999985    2.42000008
   12.10277843   96.50879669    4.90999985    2.42000008
   12.10611153   95.33989716    4.90999985    2.42000008
   12.10944462   96.37439728    4.90999985    2.44000006
   12.11250019   99.30599976    4.90999985    2.42000008
   12.11583328   98.41539764    4.90999985    2.42000008
   12.11888885   93.15869904    4.90999985    2.42000008
   12.12222195  107.19300079    4.90999985    2.42000008
   12.12361145  102.81500244    4.90999985    2.42000008
   12.12583351  112.63500214    4.90999985    2.42000008
   12.12916660  100.08799744    4.90999985    2.42000008
   12.13249969   93.80390167    4.90999985    2.42000008
   12.13555527   96.53589630    4.90999985    2.42000008
   12.13888836   99.12670135    4.90999985    2.42000008
   12.14222240   93.44360352    4.90999985    2.44000006
   12.14527798  105.39199829    4.90999985    2.44000006
   12.14861107   99.13050079    4.90999985    2.44000006
   12.15166664  102.41899872    4.90999985    2.44000006
   12.15499973   98.55740356    4.90999985    2.42000008
   12.15694427   99.62419891    4.90999985    2.42000008
   12.15861034  114.03099823    4.90999985    2.44000006
   12.16194439   99.80919647    4.90999985    2.44000006
   12.16527748   93.77050018    4.90999985    2.46000004
   12.16833401  103.43699646    4.90999985    2.44000006
   12.17166710   96.43090057    4.90999985    2.44000006
   12.17500019  104.53299713    4.90999985    2.44000006
   12.17805576  101.08499908    4.90999985    2.46000004
   12.18138885  100.97599792    4.90999985    2.46000004
   12.18444443  108.65599823    4.90999985    2.44000006
   12.18777752  104.95500183    4.90999985    2.44000006
   12.19027805  108.71399689    4.90999985    2.44000006
   12.19166660  105.69400024    4.90999985    2.44000006
   12.19472218  101.31700134    4.90999985    2.44000006
   12.19805527  102.43199921    4.90999985    2.44000006
   12.20138836   97.23220062    4.90999985    2.46000004
   12.20444393  101.94699860    4.90999985    2.46000004
   12.20777798  104.06400299    4.90999985    2.46000004
   12.21111107  100.57199860    4.90999985    2.46000004
   12.21416664  107.06199646    4.90999985    2.46000004
   12.21749973   95.88749695    4.90999985    2.46000004
   12.22055531   95.77010345    4.90999985    2.46000004
   12.22388840   98.22239685    4.90999985    2.46000004
   12.22472191   97.42880249    4.90999985    2.46000004
   12.22777748   94.50550079    4.90999985    2.46000004
   12.23111057   98.21089935    4.90999985    2.46000004
   12.23444462   95.16310120    4.90999985    2.46000004
   12.23750019   91.87190247    4.90999985    2.46000004
   12.24083328  109.18099976    4.90999985    2.46000004
   12.24388885  106.81999969    4.90999985    2.46000004
   12.24722290   93.51599884    4.90999985    2.46000004
   12.25055599  101.79599762    4.90999985    2.46000004
   12.25361156   96.23789978    4.90999985    2.46000004
   12.25694466   92.79070282    4.90999985    2.46000004
   12.25749969  108.58699799    4.90999985    2.46000004
   12.26055527   97.44779968    4.90999985    2.48000002
   12.26388931   95.45320129    4.90999985    2.46000004
   12.26694393  105.55799866    4.90999985    2.46000004
   12.27027798   93.31109619    4.90999985    2.46000004
   12.27361107  102.54499817    4.90999985    2.46000004
   12.27666664   97.10729980    4.90999985    2.46000004
   12.27999973   93.68280029    4.90999985    2.48000002
   12.28333378   96.07319641    4.90999985    2.46000004
   12.28638935  103.25599670    4.90999985    2.46000004
   12.28972244   99.36650085    4.90999985    2.48000002
   12.29027843  103.97899628    4.90999985    2.48000002
   12.29333401  110.78099823    4.90999985    2.48000002
   12.29638958  102.66100311    4.90999985    2.48000002
   12.29972267  103.82599640    4.90999985    2.48000002
   12.30277824  104.82599640    4.90999985    2.48000002
   12.30611134   98.07910156    4.90999985    2.48000002
   12.30944443  104.55899811    4.90999985    2.46000004
   12.31250000  101.04699707    4.90999985    2.48000002
   12.31583309  101.80400085    4.90999985    2.48000002
   12.31916618   92.59380341    4.90999985    2.48000002
   12.32222176  112.87799835    4.90999985    2.48000002
   12.32361126  100.17700195    4.90999985    2.48000002
   12.32611084   94.68879700    4.90999985    2.48000002
   12.32916641   99.16120148    4.90999985    2.48000002
   12.33249950  101.14099884    4.90999985    2.48000002
   12.33583260  108.78099823    4.90999985    2.48000002
   12.33888817  103.05699921    4.90999985    2.48000002
   12.34222221  100.87899780    4.90999985    2.48000002
   12.34527779   98.46700287    4.90999985    2.48000002
   12.34861088   95.06749725    4.90999985    2.48000002
   12.35194492   97.07910156    4.90999985    2.48000002
   12.35500050   97.26809692    4.90999985    2.48000002
   12.35694504   98.36239624    4.90999985    2.48000002
   12.35888958  101.05100250    4.90999985    2.48000002
   12.36194515  104.95600128    4.90999985    2.50000000
   12.36527824   95.74379730    4.90999985    2.48000002
   12.36861134   97.03189850    4.90999985    2.48000002
   12.37166691  100.05200195    4.90999985    2.50000000
   12.37500000   97.50450134    4.90999985    2.48000002
   12.37833309  101.78099823    4.90999985    2.48000002
   12.38138866   98.45379639    4.90999985    2.50000000
   12.38472176   99.71269989    4.90999985    2.50000000
   12.38777733  100.23999786    4.90999985    2.50000000
   12.39027786   97.09010315    4.90999985    2.48000002
   12.39166641  101.76499939    4.90999985    2.50000000
   12.39472198   95.77590179    4.90999985    2.50000000
   12.39805508  100.66000366    4.90999985    2.50000000
   12.40138817  109.11399841    4.90999985    2.51999998
   12.40444374   93.89369965    4.90999985    2.50000000
   12.40777779   98.13040161    4.90999985    2.50000000
   12.41083336   99.68470001    4.90999985    2.50000000
   12.41416645  100.19899750    4.90999985    2.50000000
   12.41750050  106.08300018    4.90999985    2.50000000
   12.42055607  103.50499725    4.90999985    2.50000000
   12.42361164  101.37100220    4.90999985    2.50000000
   12.42444515  105.31099701    4.90999985    2.50000000
   12.42750072   89.66059875    4.90999985    2.50000000
   12.43083382  105.87200165    4.90999985    2.50000000
   12.43416691   99.35220337    4.90999985    2.50000000
   12.43722248   99.88839722    4.90999985    2.51999998
   12.44055557   99.17790222    4.90999985    2.51999998
   12.44361115  100.12500000    4.90999985    2.50000000
   12.44694424  101.72899628    4.90999985    2.51999998
   12.45027733  100.14299774    4.90999985    2.51999998
   12.45333290   97.55490112    4.90999985    2.50000000
   12.45666695   96.05410004    4.90999985    2.50000000
   12.45722198   98.95570374    4.90999985    2.50000000
   12.46027756   95.81379700    4.90999985    2.51999998
   12.46361065  103.68099976    4.90999985    2.50000000
   12.46694374  100.15200043    4.90999985    2.50000000
   12.46999931  108.80999756    4.90999985    2.51999998
   12.47333336   98.86299896    4.90999985    2.51999998
   12.47666645   98.02790070    4.90999985    2.51999998
   12.47972202  103.86000061    4.90999985    2.51999998
   12.48305511  100.62500000    4.90999985    2.51999998
   12.48611164  113.57700348    4.90999985    2.50000000
   12.48944473  120.50199890    4.90999985    2.50000000
   12.49055576  103.80599976    4.90999985    2.51999998
   12.49333382   97.24939728    4.90999985    2.51999998
   12.49638939  105.85399628    4.90999985    2.51999998
   12.49972248  109.02700043    4.90999985    2.51999998
   12.50277805  106.24900055    4.90999985    2.51999998
   12.50611115   96.01270294    4.90999985    2.51999998
   12.50944424   99.18319702    4.90999985    2.51999998
   12.51249981   95.80449677    4.90999985    2.53999996
   12.51583290  120.11699677    4.90999985    2.51999998
   12.51916599   98.76190186    4.90999985    2.51999998
   12.52222157  103.26300049    4.90999985    2.53999996
   12.52388859  101.30599976    4.90999985    2.53999996
   12.52611065  106.01999664    4.90999985    2.53999996
   12.52916622  102.08200073    4.90999985    2.53999996
   12.53249931  103.56800079    4.90999985    2.53999996
   12.53555584   95.62740326    4.90999985    2.53999996
   12.53888893  100.65299988    4.90999985    2.53999996
   12.54222298   98.87010193    4.90999985    2.53999996
   12.54527855  102.41500092    4.90999985    2.53999996
   12.54861164  102.32700348    4.90999985    2.53999996
   12.55194473   99.32160187    4.90999985    2.53999996
   12.55500031   99.09490204    4.90999985    2.53999996
   12.55722237  108.73999786    4.90999985    2.53999996
   12.55888939   98.98870087    4.90999985    2.53999996
   12.56194496   94.63700104    4.90999985    2.53999996
   12.56527805   99.08519745    4.90999985    2.53999996
   12.56833363   94.45410156    4.90999985    2.53999996
   12.57166672   95.57499695    4.90999985    2.53999996
   12.57499981   95.34609985    4.90999985    2.53999996
   12.57805538  101.51599884    4.90999985    2.53999996
   12.58138847   99.87809753    4.90999985    2.55999994
   12.58472157   91.55709839    4.90999985    2.53999996
   12.58777714  102.76300049    4.90999985    2.55999994
   12.59055519   97.42720032    4.90999985    2.55999994
   12.59166622  105.47200012    4.90999985    2.55999994
   12.59472179   96.29900360    4.90999985    2.55999994
   12.59805489   91.23120117    4.90999985    2.55999994
   12.60111141   91.26270294    4.90999985    2.55999994
   12.60444450   99.74669647    4.90999985    2.55999994
   12.60777855  102.76399994    4.90999985    2.55999994
   12.61083412  102.20700073    4.90999985    2.55999994
   12.61416721   94.69490051    4.90999985    2.55999994
   12.61750031   98.71369934    4.90999985    2.55999994
   12.62055588   97.94989777    4.90999985    2.55999994
   12.62388897   99.23500061    4.90999985    2.55999994
   12.62444496   97.11969757    4.90999985    2.55999994
   12.62750053   93.03710175    4.90999985    2.55999994
   12.63083363   94.90940094    4.90999985    2.55999994
   12.63388920  100.47499847    4.90999985    2.55999994
   12.63722229   95.66130066    4.90999985    2.55999994
   12.64055538  100.50399780    4.90999985    2.55999994
   12.64361095   97.38770294    4.90999985    2.55999994
   12.64694405  103.23000336    4.90999985    2.55999994
   12.65027714  101.44899750    4.90999985    2.55999994
   12.65333271  101.62000275    4.90999985    2.55999994
   12.65666676   96.96630096    4.90999985    2.55999994
   12.65722179  105.29199982    4.90999985    2.55999994
   12.66027737  103.96399689    4.90999985    2.55999994
   12.66333294  110.11499786    4.90999985    2.55999994
   12.66666698  100.58699799    4.90999985    2.55999994
   12.66972256   98.63130188    4.90999985    2.55999994
   12.67305565   90.20719910    4.90999985    2.55999994
   12.67638874   99.94699860    4.90999985    2.55999994
   12.67944431   98.43820190    4.90999985    2.57999992
   12.80388927   -1.00000000   -1.00000000   -1.00000000
   12.90444374   -1.00000000   -1.00000000   -1.00000000
   13.01000023   -1.00000000   -1.00000000   -1.00000000
   13.12111092   -1.00000000   -1.00000000   -1.00000000
   13.21888828   -1.00000000   -1.00000000   -1.00000000
   13.39888859   -1.00000000   -1.00000000   -1.00000000
   13.49916649   -1.00000000   -1.00000000   -1.00000000
   13.61055565   -1.00000000   -1.00000000   -1.00000000
   13.71388912   -1.00000000   -1.00000000   -1.00000000
   13.74611092   75.45010376    4.90999985    2.69000006
   13.74944496  103.42600250    4.90999985    2.71000004
   13.75249958   95.59149933    4.90999985    2.69000006
   13.75583363   88.87950134    4.90999985    2.71000004
   13.75888920   94.32530212    4.90999985    2.71000004
   13.76222229   99.38719940    4.90999985    2.71000004
   13.76638889   99.38719940    4.90999985    2.69000006
   13.77055550   90.76069641    4.90999985    2.69000006
   13.77361107   95.30419922    4.90999985    2.69000006
   13.77694416  101.20899963    4.90999985    2.69000006
   13.77944374  102.98300171    4.90999985    2.69000006
   13.78055573  100.51100159    4.90999985    2.71000004
   13.78388977   97.83039856    4.90999985    2.69000006
   13.78694534   96.50869751    4.90999985    2.69000006
   13.79027843   93.97789764    4.90999985    2.69000006
   13.79361153   90.66010284    4.90999985    2.67000008
   13.79666710   90.02690125    4.90999985    2.69000006
   13.80000019   91.36730194    4.90999985    2.71000004
   13.80333328   90.02610016    4.90999985    2.71000004
   13.80916691   90.02610016    4.90999985    2.69000006
   13.81333351   91.44029999    4.90999985    2.71000004
   13.81666660   90.11509705    4.90999985    2.69000006
   13.81972218   89.80919647    4.90999985    2.71000004
   13.82305527   91.29010010    4.90999985    2.71000004
   13.82638836   87.36060333    4.90999985    2.71000004
   13.82944393   97.06990051    4.90999985    2.71000004
   13.83277798   86.91040039    4.90999985    2.71000004
   13.83583260   89.32330322    4.90999985    2.71000004
   13.83916664   90.67189789    4.90999985    2.69000006
   13.84249973   90.64710236    4.90999985    2.71000004
   13.84555531   91.18229675    4.90999985    2.69000006
   13.84611034   90.02490234    4.90999985    2.69000006
   13.85194492   90.02490234    4.90999985    2.71000004
   13.85611153   89.32379913    4.90999985    2.71000004
   13.85944462  107.65899658    4.90999985    2.71000004
   13.86277771   89.76969910    4.90999985    2.71000004
   13.86583328  100.90799713    4.90999985    2.71000004
   13.86916637   91.36959839    4.90999985    2.71000004
   13.87222195   88.02429962    4.90999985    2.71000004
   13.87555599   88.67990112    4.90999985    2.71000004
   13.87888908   87.63939667    4.90999985    2.71000004
   13.87944412   94.22049713    4.90999985    2.69000006
   13.88249969   89.73349762    4.90999985    2.69000006
   13.88583279   94.60269928    4.90999985    2.71000004
   13.88888836   93.75820160    4.90999985    2.71000004
   13.89499950   93.75820160    4.90999985    2.69000006
   13.89916611   94.20839691    4.90999985    2.71000004
   13.90222168   88.70410156    4.90999985    2.73000002
   13.90555477   90.74859619    4.90999985    2.69000006
   13.90861034   91.88610077    4.90999985    2.71000004
   13.91194439   91.08239746    4.90999985    2.71000004
   13.91277695   87.25599670    4.90999985    2.71000004
   13.91555500   86.26029968    4.90999985    2.71000004
   13.91888905   87.10559845    4.90999985    2.71000004
   13.92194462   91.59130096    4.90999985    2.71000004
   13.92527771   86.94159698    4.90999985    2.71000004
   13.92833328   91.90160370    4.90999985    2.71000004
   13.93166733  100.01599884    4.90999985    2.71000004
   13.93777752  100.01599884    4.90999985    2.71000004
   13.94194412   97.23169708    4.90999985    2.69000006
   13.94499969   84.58200073    4.90999985    2.71000004
   13.94611073   92.94190216    4.90999985    2.71000004
   13.94888878   91.79060364    4.90999985    2.71000004
   13.95222187   89.63230133    4.90999985    2.71000004
   13.95527744   91.09190369    4.90999985    2.71000004
   13.95861053   89.55879974    4.90999985    2.71000004
   13.96166611   93.91760254    4.90999985    2.71000004
   13.96500015   92.80729675    4.90999985    2.71000004
   13.96833324   94.66490173    4.90999985    2.71000004
   13.97138882   91.69619751    4.90999985    2.71000004
   13.97472191   96.12310028    4.90999985    2.71000004
   13.98055553   96.12310028    4.90999985    2.71000004
   13.98472214   92.31759644    4.90999985    2.71000004
   13.98805618   82.20860291    4.90999985    2.71000004
   13.99111176   90.48280334    4.90999985    2.71000004
   13.99444485   95.07369995    4.90999985    2.71000004
   13.99777794   91.52300262    4.90999985    2.71000004
   14.00083351   89.96829987    4.90999985    2.71000004
   14.00416660   87.77909851    4.90999985    2.71000004
   14.00749969   88.16970062    4.90999985    2.71000004
   14.01055527   92.48059845    4.90999985    2.71000004
   14.01277733   90.62190247    4.90999985    2.71000004
   14.01416683   86.47039795    4.90999985    2.71000004
   14.01749992   84.42430115    4.90999985    2.71000004
   14.02333355   84.42430115    4.90999985    2.73000002
   14.02750015   88.13439941    4.90999985    2.71000004
   14.03083324   90.75479889    4.90999985    2.71000004
   14.03416729  102.79699707    4.90999985    2.73000002
   14.03722286   90.17459869    4.90999985    2.71000004
   14.04055595   85.03420258    4.90999985    2.71000004
   14.04361153   82.75099945    4.90999985    2.71000004
   14.04611111   88.73970032    4.90999985    2.71000004
   14.04750061   87.63379669    4.90999985    2.71000004
   14.05083370   87.84519958    4.90999985    2.71000004
   14.05388927   89.69709778    4.90999985    2.71000004
   14.05722237   98.16670227    4.90999985    2.71000004
   14.06027794   91.60119629    4.90999985    2.73000002
   14.06638908   91.60119629    4.90999985    2.71000004
   14.07055569   92.99379730    4.90999985    2.71000004
   14.07361126   93.71420288    4.90999985    2.71000004
   14.07694435   90.14499664    4.90999985    2.73000002
   14.07944393   96.49459839    4.90999985    2.71000004
   14.08055592   90.92400360    4.90999985    2.73000002
   14.08388901   87.53549957    4.90999985    2.71000004
   14.08694458   89.11759949    4.90999985    2.73000002
   14.09027767   88.44429779    4.90999985    2.71000004
   14.09361076   91.79109955    4.90999985    2.73000002
   14.09666634   86.22810364    4.90999985    2.73000002
   14.10000038   91.60310364    4.90999985    2.73000002
   14.10333347   87.90019989    4.90999985    2.71000004
   14.10916710   87.90019989    4.90999985    2.71000004
   14.11333370   84.44249725    4.90999985    2.73000002
   14.11638927   94.79209900    4.90999985    2.71000004
   14.11972237   87.63839722    4.90999985    2.73000002
   14.12305546   83.18550110    4.90999985    2.73000002
   14.12611103   85.91210175    4.90999985    2.73000002
   14.12944412   87.90930176    4.90999985    2.73000002
   14.13277817   95.70010376    4.90999985    2.71000004
   14.13583279   86.38880157    4.90999985    2.73000002
   14.13916683   86.58930206    4.90999985    2.73000002
   14.14222240   84.91560364    4.90999985    2.73000002
   14.14555550   84.38009644    4.90999985    2.71000004
   14.14611053   82.88079834    4.90999985    2.73000002
   14.15194416   82.88079834    4.90999985    2.71000004
   14.15611076   90.24410248    4.90999985    2.73000002
   14.15944386   91.56880188    4.90999985    2.73000002
   14.16249943   89.32740021    4.90999985    2.73000002
   14.16583252   94.31890106    4.90999985    2.73000002
   14.16916656   86.47579956    4.90999985    2.73000002
   14.17222214   87.28040314    4.90999985    2.73000002
   14.17555618   89.13520050    4.90999985    2.73000002
   14.17888927   86.39350128    4.90999985    2.73000002
   14.17944431   97.02690125    4.90999985    2.73000002
   14.18249989   96.19599915    4.90999985    2.73000002
   14.18583298   87.51660156    4.90999985    2.71000004
   14.18888855   93.45010376    4.90999985    2.73000002
   14.19472218   93.45010376    4.90999985    2.73000002
   14.19888878   87.95870209    4.90999985    2.73000002
   14.20222187   87.09609985    4.90999985    2.73000002
   14.20555496   88.56870270    4.90999985    2.75000000
   14.20861053   83.42120361    4.90999985    2.73000002
   14.21194458   83.28019714    4.90999985    2.73000002
   14.21277714   87.07969666    4.90999985    2.73000002
   14.21555519   85.34210205    4.90999985    2.73000002
   14.21888828   88.23699951    4.90999985    2.73000002
   14.22194386   84.12989807    4.90999985    2.75000000
   14.22527695   86.36940002    4.90999985    2.75000000
   14.22861099   88.28279877    4.90999985    2.73000002
   14.23166656   86.31980133    4.90999985    2.73000002
   14.23777771   86.31980133    4.90999985    2.75000000
   14.24194431   85.53659821    4.90999985    2.73000002
   14.24499989   87.43270111    4.90999985    2.73000002
   14.24611092   85.26499939    4.90999985    2.75000000
   14.24861145   81.11280060    4.90999985    2.73000002
   14.25194454   86.20700073    4.90999985    2.73000002
   14.25500011   81.85410309    4.90999985    2.73000002
   14.25833321   81.54530334    4.90999985    2.73000002
   14.26166630   82.97760010    4.90999985    2.73000002
   14.26472187   86.35169983    4.90999985    2.71000004
   14.26805496   91.77539825    4.90999985    2.73000002
   14.27111053   82.88760376    4.90999985    2.73000002
   14.27444458   82.15239716    4.90999985    2.73000002
   14.28055573   82.15239716    4.90999985    2.73000002
   14.28472233   89.35150146    4.90999985    2.75000000
   14.28777790   85.51830292    4.90999985    2.75000000
   14.29111195   90.61319733    4.90999985    2.73000002
   14.29444504   87.12270355    4.90999985    2.73000002
   14.29750061   87.15419769    4.90999985    2.73000002
   14.30083370   86.08190155    4.90999985    2.73000002
   14.30416679   87.39270020    4.90999985    2.73000002
   14.30722237   86.16880035    4.90999985    2.73000002
   14.31055546   93.21189880    4.90999985    2.75000000
   14.31277752   89.18379974    4.90999985    2.73000002
   14.31416702   93.50460052    4.90999985    2.75000000
   14.31750011   83.89409637    4.90999985    2.75000000
   14.32333374   83.89409637    4.90999985    2.75000000
   14.32750034   86.54609680    4.90999985    2.75000000
   14.33083344   87.75740051    4.90999985    2.73000002
   14.33388901   79.85510254    4.90999985    2.75000000
   14.33722210   86.88179779    4.90999985    2.73000002
   14.34027767   86.05249786    4.90999985    2.73000002
   14.34361076   83.82170105    4.90999985    2.71000004
   14.34611034   87.37149811    4.90999985    2.75000000
   14.34722233   89.29959869    4.90999985    2.75000000
   14.35055637   91.18199921    4.90999985    2.75000000
   14.35361195   91.56800079    4.90999985    2.75000000
   14.35694504   85.71350098    4.90999985    2.75000000
   14.36027813   85.32959747    4.90999985    2.73000002
   14.36611176   85.32959747    4.90999985    2.75000000
   14.37027836   84.66999817    4.90999985    2.73000002
   14.37361145   90.27989960    4.90999985    2.73000002
   14.37666702   87.04429626    4.90999985    2.73000002
   14.37944412   89.80840302    4.90999985    2.75000000
   14.38027763   86.52130127    4.90999985    2.75000000
   14.38361073   83.69149780    4.90999985    2.73000002
   14.38666630   88.24109650    4.90999985    2.75000000
   14.39000034   88.63089752    4.90999985    2.75000000
   14.39333344   90.89669800    4.90999985    2.75000000
   14.39638901   83.76349640    4.90999985    2.73000002
   14.39972210   86.55380249    4.90999985    2.73000002
   14.40277767   89.02870178    4.90999985    2.75000000
   14.40916634   89.02870178    4.90999985    2.75000000
   14.41305542   81.65940094    4.90999985    2.75000000
   14.41638851   81.45999908    4.90999985    2.75000000
   14.41972256   86.53659821    4.90999985    2.75000000
   14.42277813   82.92369843    4.90999985    2.75000000
   14.42611122   88.24790192    4.90999985    2.75000000
   14.42944431   84.39450073    4.90999985    2.75000000
   14.43249989   86.68270111    4.90999985    2.75000000
   14.43583298   82.61009979    4.90999985    2.75000000
   14.43916702   83.94689941    4.90999985    2.75000000
   14.44222260   93.28179932    4.90999985    2.75000000
   14.44555569   86.21029663    4.90999985    2.75000000
   14.44611073   85.35289764    4.90999985    2.75000000
   14.45194435   85.35289764    4.90999985    2.76999998
   14.45611095   90.09539795    4.90999985    2.75000000
   14.45916653   88.34140015    4.90999985    2.75000000
   14.46249962   81.56150055    4.90999985    2.75000000
   14.46583271   80.20030212    4.90999985    2.75000000
   14.46888828   90.00050354    4.90999985    2.75000000
   14.47222137   86.82939911    4.90999985    2.75000000
   14.47555542   86.86969757    4.90999985    2.75000000
   14.47861099   88.72779846    4.90999985    2.75000000
   14.47944355   84.29820251    4.90999985    2.75000000
   14.48222160   85.85679626    4.90999985    2.75000000
   14.48555565   88.29270172    4.90999985    2.75000000
   14.48861122   90.22029877    4.90999985    2.75000000
   14.49472237   90.22029877    4.90999985    2.75000000
   14.49888897   89.60179901    4.90999985    2.75000000
   14.50222206   90.43650055    4.90999985    2.75000000
   14.50527763   84.52819824    4.90999985    2.75000000
   14.50861073   89.18879700    4.90999985    2.75000000
   14.51194477   88.46009827    4.90999985    2.75000000
   14.51305580   84.23590088    4.90999985    2.75000000
   14.51527786   89.18329620    4.90999985    2.75000000
   14.51861095   88.79509735    4.90999985    2.75000000
   14.52166653   91.05439758    4.90999985    2.75000000
   14.52499962   88.34609985    4.90999985    2.75000000
   14.52833271   88.06349945    4.90999985    2.75000000
   14.53138828   89.44609833    4.90999985    2.75000000
   14.53750038   89.44609833    4.90999985    2.75000000
   14.54166698   84.88390350    4.90999985    2.75000000
   14.54500008   85.53040314    4.90999985    2.75000000
   14.54638958   85.14669800    4.90999985    2.76999998
   14.54861164   83.81210327    4.90999985    2.75000000
   14.55194473   82.45349884    4.90999985    2.75000000
   14.55500031   84.72910309    4.90999985    2.75000000
   14.55833340   84.35330200    4.90999985    2.75000000
   14.56166649   84.81900024    4.90999985    2.75000000
   14.56472206   84.51499939    4.90999985    2.76999998
   14.56805515   86.91100311    4.90999985    2.76999998
   14.57138920   88.75630188    4.90999985    2.78999996
   14.57444477   83.79380035    4.90999985    2.76999998
   14.58055592   83.79380035    4.90999985    2.76999998
   14.58444405   88.68019867    4.90999985    2.76999998
   14.58777714   82.28700256    4.90999985    2.76999998
   14.59111118   87.45379639    4.90999985    2.76999998
   14.59416676   84.59410095    4.90999985    2.76999998
   14.59749985   83.78440094    4.90999985    2.76999998
   14.60083389   83.57379913    4.90999985    2.76999998
   14.60388947   88.17880249    4.90999985    2.75000000
   14.60722256   84.90560150    4.90999985    2.75000000
   14.61027813   87.21949768    4.90999985    2.75000000
   14.61305618   82.19090271    4.90999985    2.75000000
   14.61388969   83.46810150    4.90999985    2.75000000
   14.61722279   86.57039642    4.90999985    2.76999998
   14.62333393   86.57039642    4.90999985    2.75000000
   14.62750053   92.34739685    4.90999985    2.76999998
   14.63055611   86.28079987    4.90999985    2.76999998
   14.63388920   87.07640076    4.90999985    2.75000000
   14.63722229   89.07610321    4.90999985    2.76999998
   14.64027786   86.61660004    4.90999985    2.76999998
   14.64361095   86.59770203    4.90999985    2.75000000
   14.64638901   95.19149780    4.90999985    2.76999998
   14.64722252   94.98100281    4.90999985    2.75000000
   14.65055561   93.39920044    4.90999985    2.75000000
   14.65388870   83.65039825    4.90999985    2.75000000
   14.65694427   88.23310089    4.90999985    2.76999998
   14.66027737   82.84760284    4.90999985    2.75000000
   14.66611099   82.84760284    4.90999985    2.75000000
   14.67027855   84.48870087    4.90999985    2.75000000
   14.67361164   84.94200134    4.90999985    2.75000000
   14.67666721   88.44409943    4.90999985    2.75000000
   14.67972279   83.56230164    4.90999985    2.75000000
   14.68027782   84.94480133    4.90999985    2.75000000
   14.68361092   84.54060364    4.90999985    2.76999998
   14.68694496   83.13040161    4.90999985    2.75000000
   14.69000053   83.53160095    4.90999985    2.76999998
   14.69333363   85.78119659    4.90999985    2.76999998
   14.69638920   83.69730377    4.90999985    2.76999998
   14.69972229   85.14980316    4.90999985    2.76999998
   14.70305538   82.59470367    4.90999985    2.76999998
   14.70888901   82.59470367    4.90999985    2.76999998
   14.71305561   83.29920197    4.90999985    2.76999998
   14.71638870   81.49790192    4.90999985    2.76999998
   14.71944427   90.41790009    4.90999985    2.76999998
   14.72277737   80.24490356    4.90999985    2.78999996
   14.72611046   90.43830109    4.90999985    2.76999998
   14.72916603   87.83249664    4.90999985    2.75000000
   14.73249912   86.24120331    4.90999985    2.76999998
   14.73583317   85.55419922    4.90999985    2.76999998
   14.73888874   83.72200012    4.90999985    2.76999998
   14.74222279   88.23970032    4.90999985    2.76999998
   14.74527836   85.91339874    4.90999985    2.76999998
   14.74638939   80.58090210    4.90999985    2.76999998
   14.76694393   80.58090210    4.90999985    2.76999998
   14.77111053   85.78500366    4.90999985    2.76999998
   14.77444458   89.36319733    4.90999985    2.78999996
   14.77750015   99.21980286    4.90999985    2.76999998
   14.77972221   83.53179932    4.90999985    2.78999996
   14.78111076   85.65309906    4.90999985    2.78999996
   14.78444481   79.81809998    4.90999985    2.76999998
   14.78777790   86.43430328    4.90999985    2.78999996
   14.79083347   86.17310333    4.90999985    2.78999996
   14.79416752   88.00499725    4.90999985    2.76999998
   14.79722309   88.12969971    4.90999985    2.76999998
   14.80055618   88.02660370    4.90999985    2.75000000
   14.80388927   91.71450043    4.90999985    2.76999998
   14.80972195   91.71450043    4.90999985    2.76999998
   14.81388950   91.01090240    4.90999985    2.76999998
   14.81722260   86.39089966    4.90999985    2.76999998
   14.82027817   94.93890381    4.90999985    2.78999996
   14.82361126   84.14559937    4.90999985    2.78999996
   14.82694435   89.39589691    4.90999985    2.76999998
   14.82999992   84.46569824    4.90999985    2.76999998
   14.83333302   85.81800079    4.90999985    2.76999998
   14.83638859   85.06809998    4.90999985    2.76999998
   14.83972168   86.19879913    4.90999985    2.76999998
   14.84305477   82.47409821    4.90999985    2.76999998
   14.84611034   81.35260010    4.90999985    2.76999998
   14.84666634   86.81349945    4.90999985    2.76999998
   14.85249996   86.81349945    4.90999985    2.76999998
   14.85666752   95.84470367    4.90999985    2.76999998
   14.86000061   88.04280090    4.90999985    2.76999998
   14.86305618   89.65270233    4.90999985    2.76999998
   14.86638927   90.69860077    4.90999985    2.78999996
   14.86972237   84.85369873    4.90999985    2.78999996
   14.87277794   84.15070343    4.90999985    2.78999996
   14.87611103   83.16269684    4.90999985    2.78999996
   14.87944412   79.33509827    4.90999985    2.76999998
   14.88000011   84.24369812    4.90999985    2.76999998
   14.88305569   84.62249756    4.90999985    2.76999998
   14.88638878   84.97750092    4.90999985    2.78999996
   14.88944435   85.79060364    4.90999985    2.76999998
   14.89555550   85.79060364    4.90999985    2.76999998
   14.89944458   86.00180054    4.90999985    2.76999998
   14.90277767   86.01979828    4.90999985    2.78999996
   14.90611076   82.19329834    4.90999985    2.78999996
   14.90916634   86.60970306    4.90999985    2.78999996
   14.91249943   90.31710052    4.90999985    2.76999998
   14.91333294   87.49810028    4.90999985    2.76999998
   14.91611099   82.57279968    4.90999985    2.76999998
   14.91944504   85.07350159    4.90999985    2.76999998
   14.92250061   88.68379974    4.90999985    2.76999998
   14.92583370   81.93879700    4.90999985    2.76999998
   14.92888927   89.74520111    4.90999985    2.76999998
   14.93222237   82.74600220    4.90999985    2.78999996
   14.93833351   82.74600220    4.90999985    2.78999996
   14.94250011   81.83260345    4.90999985    2.78999996
   14.94555569   82.08080292    4.90999985    2.78999996
   14.94666672   83.27919769    4.90999985    2.76999998
   14.94916630   86.20420074    4.90999985    2.78999996
   14.95249939   85.55480194    4.90999985    2.78999996
   14.95555496   84.40059662    4.90999985    2.78999996
   14.95888901   87.30780029    4.90999985    2.78999996
   14.96194458   86.51889801    4.90999985    2.78999996
   14.96527767   84.95670319    4.90999985    2.78999996
   14.96861076   85.12529755    4.90999985    2.76999998
   14.97166634   80.78970337    4.90999985    2.76999998
   14.97499943   87.87709808    4.90999985    2.76999998
   14.98111057   87.87709808    4.90999985    2.76999998
   14.98527813   85.62419891    4.90999985    2.76999998
   14.98861122   84.87429810    4.90999985    2.78999996
   14.99166679   86.89440155    4.90999985    2.78999996
   14.99499989   85.16950226    4.90999985    2.78999996
   14.99805546   80.65619659    4.90999985    2.76999998
   15.00138855   84.45339966    4.90999985    2.78999996
   15.00472260   89.92579651    4.90999985    2.78999996
   15.00777817   87.30690002    4.90999985    2.76999998
   15.01111126   84.83280182    4.90999985    2.78999996
   15.01333332   83.70149994    4.90999985    2.78999996
   15.01472187   85.01460266    4.90999985    2.78999996
   15.01805496   85.54090118    4.90999985    2.78999996
   15.02388859   85.54090118    4.90999985    2.78999996
   15.02805519   84.40339661    4.90999985    2.78999996
   15.03138828   86.83640289    4.90999985    2.76999998
   15.03444481   89.50229645    4.90999985    2.78999996
   15.03777790   88.73229980    4.90999985    2.78999996
   15.04111195   90.80339813    4.90999985    2.78999996
   15.04416752   81.51599884    4.90999985    2.78999996
   15.04666710   85.09490204    4.90999985    2.78999996
   15.04777813   94.54820251    4.90999985    2.78999996
   15.05111122   90.84750366    4.90999985    2.76999998
   15.05416679   83.38929749    4.90999985    2.78999996
   15.05749989   86.32820129    4.90999985    2.78999996
   15.06055546   84.93890381    4.90999985    2.78999996
   15.06694412   84.93890381    4.90999985    2.78999996
   15.07083321   89.97730255    4.90999985    2.78999996
   15.07416630   86.10910034    4.90999985    2.78999996
   15.07750034   92.48010254    4.90999985    2.76999998
   15.07999992   82.33419800    4.90999985    2.78999996
   15.08111095   82.50569916    4.90999985    2.78999996
   15.08444405   85.29959869    4.90999985    2.76999998
   15.08749962   86.55090332    4.90999985    2.78999996
   15.09083271   86.12280273    4.90999985    2.78999996
   15.09388828   86.13480377    4.90999985    2.78999996
   15.09722233   85.26719666    4.90999985    2.78999996
   15.10055637   83.79450226    4.90999985    2.78999996
   15.10388947   87.71029663    4.90999985    2.80999994
   15.10972214   87.71029663    4.90999985    2.78999996
   15.11388969   87.57730103    4.90999985    2.78999996
   15.11694431   88.65360260    4.90999985    2.78999996
   15.12027836   86.22450256    4.90999985    2.78999996
   15.12361145   87.46679688    4.90999985    2.78999996
   15.12666702   86.47419739    4.90999985    2.78999996
   15.13000011   88.43289948    4.90999985    2.78999996
   15.13305569   95.26580048    4.90999985    2.78999996
   15.13638878   87.36029816    4.90999985    2.78999996
   15.13972187   82.51429749    4.90999985    2.78999996
   15.14277744   80.80480194    4.90999985    2.78999996
   15.14611053   87.71569824    4.90999985    2.78999996
   15.14666653   82.91280365    4.90999985    2.80999994
   15.15249920   82.91280365    4.90999985    2.78999996
   15.15666676   80.68270111    4.90999985    2.78999996
   15.15999985   87.25000000    4.90999985    2.78999996
   15.16305542   82.99359894    4.90999985    2.78999996
   15.16638851   86.77050018    4.90999985    2.78999996
   15.16944504   89.31289673    4.90999985    2.78999996
   15.17277813   84.85679626    4.90999985    2.78999996
   15.17611122   86.29149628    4.90999985    2.78999996
   15.17916679   86.28299713    4.90999985    2.78999996
   15.18000031   90.78700256    4.90999985    2.78999996
   15.18277836   79.94290161    4.90999985    2.78999996
   15.18611145   93.06159973    4.90999985    2.78999996
   15.18916702   81.82350159    4.90999985    2.78999996
   15.19527817   81.82350159    4.90999985    2.80999994
   15.19944477   85.44460297    4.90999985    2.78999996
   15.20277786   83.67919922    4.90999985    2.78999996
   15.20583344   85.25969696    4.90999985    2.78999996
   15.20916653   87.88800049    4.90999985    2.78999996
   15.21249962   85.27670288    4.90999985    2.78999996
   15.21333313   85.68800354    4.90999985    2.78999996
   15.21611118   85.78070068    4.90999985    2.78999996
   15.21944427   85.24530029    4.90999985    2.78999996
   15.22249985   86.54570007    4.90999985    2.78999996
   15.22583294   91.35729980    4.90999985    2.78999996
   15.22916603   85.84410095    4.90999985    2.78999996
   15.23222160   85.52429962    4.90999985    2.82999992
   15.23833370   85.52429962    4.90999985    2.78999996
   15.24222279   85.54799652    4.90999985    2.78999996
   15.24555588   85.90180206    4.90999985    2.80999994
   15.24666691   85.27929688    4.90999985    2.78999996
   15.24916649   88.31040192    4.90999985    2.78999996
   15.25249958   86.54920197    4.90999985    2.80999994
   15.25555515   85.96730042    4.90999985    2.80999994
   15.25888920   85.43579865    4.90999985    2.78999996
   15.26222229   84.27890015    4.90999985    2.80999994
   15.26527786   87.80470276    4.90999985    2.78999996
   15.26861095   85.81539917    4.90999985    2.78999996
   15.27194405   87.04039764    4.90999985    2.78999996
   15.27499962   79.37819672    4.90999985    2.78999996
   15.28111076   79.37819672    4.90999985    2.78999996
   15.28527832   86.00309753    4.90999985    2.78999996
   15.28833389   86.64790344    4.90999985    2.78999996
   15.29166698   83.49990082    4.90999985    2.78999996
   15.29500008   85.40270233    4.90999985    2.78999996
   15.29805565   81.58679962    4.90999985    2.80999994
   15.30138874   87.43720245    4.90999985    2.80999994
   15.30444431   85.41130066    4.90999985    2.80999994
   15.30777836   84.25920105    4.90999985    2.78999996
   15.31111145   83.33190155    4.90999985    2.80999994
   15.31333351   82.56909943    4.90999985    2.80999994
   15.31472206   87.92569733    4.90999985    2.78999996
   15.31805515   82.02480316    4.90999985    2.78999996
   15.32388878   82.02480316    4.90999985    2.78999996
   15.32805538   82.58820343    4.90999985    2.80999994
   15.33138847   80.40899658    4.90999985    2.80999994
   15.33444405   80.76760101    4.90999985    2.78999996
   15.33777714   82.20130157    4.90999985    2.78999996
   15.34083271   85.51670074    4.90999985    2.78999996
   15.34416676   83.33529663    4.90999985    2.78999996
   15.34666634   86.81520081    4.90999985    2.78999996
   15.34777737   80.20369720    4.90999985    2.80999994
   15.35111141   82.96739960    4.90999985    2.80999994
   15.35444450   81.21219635    4.90999985    2.80999994
   15.35750008   82.93309784    4.90999985    2.80999994
   15.36083412   79.67710114    4.90999985    2.78999996
   15.36666679   79.67710114    4.90999985    2.80999994
   15.37083340   80.69909668    4.90999985    2.80999994
   15.37416649   82.25260162    4.90999985    2.80999994
   15.37722206   84.54380035    4.90999985    2.80999994
   15.38000011   81.80010223    4.90999985    2.80999994
   15.38083363   81.95230103    4.90999985    2.78999996
   15.38416672   85.83119965    4.90999985    2.80999994
   15.38722229   80.19709778    4.90999985    2.80999994
   15.39055538   81.14949799    4.90999985    2.80999994
   15.39388847   82.78780365    4.90999985    2.80999994
   15.39694405   80.35089874    4.90999985    2.78999996
   15.40055561   82.32830048    4.90999985    2.78999996
   15.40388870   85.37969971    4.90999985    2.80999994
   15.40972137   85.37969971    4.90999985    2.80999994
   15.41361046   86.89009857    4.90999985    2.80999994
   15.41694450   81.82959747    4.90999985    2.80999994
   15.42027855   83.62779999    4.90999985    2.82999992
   15.42333412   86.22280121    4.90999985    2.80999994
   15.42666721   84.21130371    4.90999985    2.82999992
   15.43000031   86.01529694    4.90999985    2.78999996
   15.43305588   89.02819824    4.90999985    2.80999994
   15.43638897   82.93689728    4.90999985    2.80999994
   15.43944454   84.79280090    4.90999985    2.80999994
   15.44277763   82.56269836    4.90999985    2.80999994
   15.44611073   84.44760132    4.90999985    2.80999994
   15.44694424   81.49620056    4.90999985    2.80999994
   15.45249939   81.49620056    4.90999985    2.80999994
   15.45666695   87.41259766    4.90999985    2.80999994
   15.45972157   87.35399628    4.90999985    2.80999994
   15.46305561   81.75409698    4.90999985    2.80999994
   15.46638870   88.43949890    4.90999985    2.80999994
   15.46944427   87.44000244    4.90999985    2.80999994
   15.47277737   91.43440247    4.90999985    2.80999994
   15.47583294   84.20300293    4.90999985    2.80999994
   15.47916603   87.47820282    4.90999985    2.80999994
   15.48027706   87.51840210    4.90999985    2.80999994
   15.48277760   82.95300293    4.90999985    2.80999994
   15.48611164   83.72820282    4.90999985    2.78999996
   15.48916721   87.13980103    4.90999985    2.80999994
   15.49527836   87.13980103    4.90999985    2.78999996
   15.49944496   84.56300354    4.90999985    2.78999996
   15.50277805   83.26750183    4.90999985    2.80999994
   15.50583363   81.44360352    4.90999985    2.80999994
   15.50916672   86.74870300    4.90999985    2.80999994
   15.51222229   85.28500366    4.90999985    2.80999994
   15.51361084   82.50199890    4.90999985    2.78999996
   15.51583290   85.55059814    4.90999985    2.78999996
   15.51916599   82.80419922    4.90999985    2.80999994
   15.52222157   82.81649780    4.90999985    2.80999994
   15.52555561   83.18419647    4.90999985    2.80999994
   15.52888870   85.70989990    4.90999985    2.80999994
   15.53194427   85.95120239    4.90999985    2.80999994
   15.53805637   85.95120239    4.90999985    2.80999994
   15.54222298   94.45719910    4.90999985    2.80999994
   15.54555607   88.90550232    4.90999985    2.78999996
   15.54694462   86.58029938    4.90999985    2.78999996
   15.54916668   86.06289673    4.90999985    2.80999994
   15.55249977   89.05960083    4.90999985    2.78999996
   15.55555534   86.70520020    4.90999985    2.78999996
   15.55888939   85.49669647    4.90999985    2.80999994
   15.56222248   85.02179718    4.90999985    2.78999996
   15.56527805   81.53489685    4.90999985    2.80999994
   15.56861115   90.32099915    4.90999985    2.78999996
   15.57194424   88.15969849    4.90999985    2.78999996
   15.57499981   81.63459778    4.90999985    2.80999994
   15.58083344   81.63459778    4.90999985    2.78999996
   15.58500004   90.70149994    4.90999985    2.80999994
   15.58833313   82.51660156    4.90999985    2.78999996
   15.59166622   85.68109894    4.90999985    2.78999996
   15.59472179   86.57810211    4.90999985    2.78999996
   15.59805489   79.73269653    4.90999985    2.78999996
   15.60138893   81.84639740    4.90999985    2.78999996
   15.60444450   82.26570129    4.90999985    2.78999996
   15.60777855   81.41269684    4.90999985    2.80999994
   15.61111164   85.69920349    4.90999985    2.80999994
   15.61361122   85.00910187    4.90999985    2.78999996
   15.61444473   82.83380127    4.90999985    2.80999994
   15.61777782   88.81549835    4.90999985    2.80999994
   15.62388897   88.81549835    4.90999985    2.78999996
   15.62805557   85.49530029    4.90999985    2.80999994
   15.63111115   87.45089722    4.90999985    2.80999994
   15.63444424   85.83760071    4.90999985    2.80999994
   15.63777733   79.85919952    4.90999985    2.80999994
   15.64083290   85.62129974    4.90999985    2.80999994
   15.64416695   85.20829773    4.90999985    2.80999994
   15.64694405   85.16069794    4.90999985    2.82999992
   15.64777756   84.22709656    4.90999985    2.80999994
   15.65111065   82.85530090    4.90999985    2.78999996
   15.65444374   81.25350189    4.90999985    2.80999994
   15.65749931   84.75160217    4.90999985    2.80999994
   15.66083336   80.98190308    4.90999985    2.78999996
   15.66666698   80.98190308    4.90999985    2.80999994
   15.67083359   84.19940186    4.90999985    2.80999994
   15.67416668   86.31580353    4.90999985    2.80999994
   15.67722225   82.39510345    4.90999985    2.80999994
   15.68027782   84.85530090    4.90999985    2.80999994
   15.68083382   85.19470215    4.90999985    2.80999994
   15.68416691   82.68309784    4.90999985    2.82999992
   15.68750000   84.32029724    4.90999985    2.80999994
   15.69055557   81.99369812    4.90999985    2.82999992
   15.69388866   85.17479706    4.90999985    2.80999994
   15.69694424   80.85679626    4.90999985    2.80999994
   15.70027733   77.60340118    4.90999985    2.80999994
   15.70361137   79.56330109    4.90999985    2.80999994
   15.70944405   79.56330109    4.90999985    2.80999994
   15.71361065   81.35019684    4.90999985    2.80999994
   15.71694374   80.36959839    4.90999985    2.82999992
   15.71999931   82.05300140    4.90999985    2.80999994
   15.72333336   79.46900177    4.90999985    2.80999994
   15.72666645   81.25900269    4.90999985    2.82999992
   15.72972202   83.37660217    4.90999985    2.80999994
   15.73305511   84.37069702    4.90999985    2.82999992
   15.73611164   80.10410309    4.90999985    2.80999994
   15.73944473   80.37079620    4.90999985    2.80999994
   15.74277782   83.28589630    4.90999985    2.80999994
   15.74583340   84.23600006    4.90999985    2.80999994
   15.74694443   86.53299713    4.90999985    2.80999994
   15.75222206   86.53299713    4.90999985    2.80999994
   15.75638866   82.12529755    4.90999985    2.82999992
   15.75972176   86.26360321    4.90999985    2.82999992
   15.76305580   87.17289734    4.90999985    2.82999992
   15.78055573   79.45240021    4.90999985    2.82999992
   15.78305531   83.60520172    4.90999985    2.82999992
   15.78611183   81.36640167    4.90999985    2.82999992
   15.78944492   84.12129974    4.90999985    2.80999994
   15.79527855   84.12129974    4.90999985    2.82999992
   15.79944515   82.38539886    4.90999985    2.80999994
   15.80277824   82.07620239    4.90999985    2.80999994
   15.80611134   82.47149658    4.90999985    2.82999992
   15.80916691   82.44110107    4.90999985    2.82999992
   15.81250000   85.87670135    4.90999985    2.82999992
   15.81388950   82.60469818    4.90999985    2.82999992
   15.81611156   83.30660248    4.90999985    2.82999992
   15.81944466   79.24459839    4.90999985    2.80999994
   15.82277775   82.01609802    4.90999985    2.82999992
   15.82583332   80.39350128    4.90999985    2.82999992
   15.82916641   80.41329956    4.90999985    2.82999992
   15.83222198   81.33059692    4.90999985    2.82999992
   15.83833313   81.33059692    4.90999985    2.82999992
   15.84249973   82.67440033    4.90999985    2.80999994
   15.84555531   87.25489807    4.90999985    2.82999992
   15.84722233   80.06179810    4.90999985    2.82999992
   15.84916592   80.51660156    4.90999985    2.80999994
   15.85249996   83.81939697    4.90999985    2.82999992
   15.85583401   81.52880096    4.90999985    2.80999994
   15.85888958   79.24669647    4.90999985    2.82999992
   15.86222267   82.03479767    4.90999985    2.82999992
   15.86555576   82.33470154    4.90999985    2.82999992
   15.86861134   81.43949890    4.90999985    2.80999994
   15.87194443   80.75710297    4.90999985    2.80999994
   15.87500000   80.32499695    4.90999985    2.80999994
   15.88111115   80.32499695    4.90999985    2.82999992
   15.88527775   83.08709717    4.90999985    2.82999992
   15.88833332   82.48280334    4.90999985    2.82999992
   15.89166641   80.33110046    4.90999985    2.82999992
   15.89499950   84.53289795    4.90999985    2.82999992
   15.89805508   81.40560150    4.90999985    2.82999992
   15.90138817   78.34480286    4.90999985    2.82999992
   15.90444374   83.64260101    4.90999985    2.80999994
   15.90777779   82.15360260    3.53999996    2.80999994
   15.91111088   84.47409821    2.09999990    2.80999994
   15.91388893   84.14530182    1.55999994    2.82999992
   15.91444397   82.24150085    0.07000000    2.76999998
   15.91777802   83.22869873    0.07000000    2.76999998
   15.92388916   83.22869873    0.07000000    2.76999998
   15.92805576   84.56400299    0.07000000    2.76999998
   15.93138885   82.41979980    0.05000000    2.76999998
   15.93444443   81.11869812    0.05000000    2.76999998
   15.93777752   79.01490021    0.07000000    2.76999998
   15.94083309   80.70580292    0.05000000    2.75000000
   15.94416714   82.24569702    0.07000000    2.75000000
   15.94722271   83.05580139    0.05000000    2.75000000
   15.94805527   82.18070221    0.05000000    2.75000000
   15.95111084   85.56600189    0.05000000    2.75000000
   15.95444393   77.18910217    0.05000000    2.73000002
   15.95749950   83.50019836    0.05000000    2.75000000
   15.96083355   82.80259705    0.05000000    2.73000002
   15.96666622   82.80259705    0.05000000    2.73000002
   15.97083282   80.75630188    0.03000000    2.71000004
   15.97416592   87.17790222    0.05000000    2.66000009
   15.97722149   83.99700165    0.05000000    2.51999998
   15.98055553   84.52259827    0.05000000    2.28999996
   15.98083305   82.48560333    0.05000000    2.28999996
   15.98416710   87.21269989    0.03000000    1.96000004
   15.98750019   92.23290253    0.05000000    1.63000000
   15.99055576   84.02860260    0.03000000    1.33000004
   15.99388885   80.84320068    0.05000000    0.92000002
   15.99694443   81.43370056    0.03000000    0.64999998
   16.00027847   81.67970276    0.03000000    0.34000000
   16.00361061   80.57119751    0.03000000    0.17000000
   16.00972176   80.57119751    0.05000000    0.07000000
   16.01388931   79.49900055    0.05000000    0.07000000
   16.01416588   79.90640259    0.05000000    0.07000000
   16.01749992   79.04699707    0.05000000    0.07000000
   16.02083397   79.21690369    0.05000000    0.07000000
   16.02388954   83.67659760    0.05000000    0.07000000
   16.02722168   81.06759644    0.05000000    0.07000000
   16.03027725   84.23049927    0.05000000    0.07000000
   16.03361130   79.30930328    0.05000000    0.07000000
   16.03694344   77.15589905    0.05000000    0.07000000
   16.03999901   79.61769867    0.05000000    0.07000000
   16.04333305   78.29570007    0.05000000    0.07000000
   16.04666710   79.92530060    0.05000000    0.07000000
   16.04722214   79.73120117    0.05000000    0.07000000
   16.05249977   79.73120117    0.05000000    0.07000000
   16.05666542   78.66649628    0.05000000    0.07000000
   16.05972099   78.42469788    0.05000000    0.07000000
   16.06305504   77.38349915    0.05000000    0.07000000
   16.06638718   79.55599976    0.05000000    0.07000000
   16.06944466   75.93099976    0.05000000    0.07000000
   16.07277870   81.14409637    0.05000000    0.07000000
   16.07583427   80.03800201    0.05000000    0.07000000
   16.07916832   80.93119812    0.05000000    0.07000000
   16.08055687   82.84609985    0.05000000    0.07000000
   16.08277893   82.21099854    0.05000000    0.07000000
   16.08611107   77.75980377    0.05000000    0.07000000
   16.08944511   81.26860046    0.05000000    0.07000000
   16.09527779   81.26860046    0.05000000    0.07000000
   16.09944534   80.83300018    0.05000000    0.07000000
   16.10277748   79.72519684    0.05000000    0.07000000
   16.10583305   83.23139954    0.05000000    0.07000000
   16.10916710   85.04540253    0.05000000    0.07000000
   16.11222267   82.34619904    0.05000000    0.07000000
   16.11388969   84.00289917    0.05000000    0.07000000
   16.11583328   80.17109680    0.05000000    0.07000000
   16.11916733   81.27660370    0.05000000    0.07000000
   16.12249947   83.59020233    0.05000000    0.07000000
   16.12555504   83.71790314    0.05000000    0.07000000
   16.12888908   86.21399689    0.05000000    0.07000000
   16.13222313   83.84590149    0.05000000    0.07000000
   16.13805580   83.84590149    0.05000000    0.07000000
   16.14222145   82.46060181    0.05000000    0.07000000
   16.14555550   82.27870178    0.05000000    0.07000000
   16.14722252   81.14640045    0.05000000    0.07000000
   16.14888954   81.33499908    0.05000000    0.07000000
   16.15222168   81.26529694    0.05000000    0.07000000
   16.15555573   85.84510040    0.05000000    0.07000000
   16.15861130   83.38849640    0.05000000    0.07000000
   16.16194344   81.29560089    0.05000000    0.07000000
   16.16527748   91.67739868    0.05000000    0.07000000
   16.16833305   75.87570190    0.05000000    0.07000000
   16.17166519   80.34149933    0.05000000    0.07000000
   16.17472076   80.66929626    0.05000000    0.07000000
   16.18111038   80.66929626    0.05000000    0.07000000
   16.18499947   79.60220337    0.05000000    0.07000000
   16.18833160   78.27549744    0.05000000    0.07000000
   16.19166565   77.44370270    0.05000000    0.07000000
   16.19472122   79.75520325    0.05000000    0.07000000
   16.19805527   77.63680267    0.05000000    0.07000000
   16.20138931   78.51730347    0.05000000    0.07000000
   16.20444489   78.12429810    0.05000000    0.07000000
   16.20777893   80.39890289    0.05000000    0.07000000
   16.21083450   79.13970184    0.05000000    0.07000000
   16.21389008   81.29979706    0.05000000    0.07000000
   16.21444511   77.63069916    0.05000000    0.07000000
   16.21777916   80.07630157    0.05000000    0.07000000
   16.22389030   80.07630157    0.05000000    0.07000000
   16.22805595   81.03829956    0.05000000    0.07000000
   16.23111153   80.89379883    0.05000000    0.07000000
   16.23444557   80.47070313    0.05000000    0.07000000
   16.23750114   78.90470123    0.05000000    0.07000000
   16.24083328   80.77580261    0.05000000    0.07000000
   16.24416733   78.98480225    0.05000000    0.07000000
   16.24722290   83.60970306    0.05000000    0.07000000
   16.24749947   80.77010345    0.05000000    0.07000000
   16.25083351   83.02369690    0.05000000    0.07000000
   16.25416756   79.41059875    0.05000000    0.07000000
   16.25722313   81.74410248    0.05000000    0.07000000
   16.26055527   79.85900116    0.05000000    0.07000000
   16.26666641   79.85900116    0.05000000    0.07000000
   16.27083397   79.43419647    0.05000000    0.07000000
   16.27388954   83.07630157    0.05000000    0.07000000
   16.27722168   79.26460266    0.05000000    0.07000000
   16.28055573   84.62709808    0.05000000    0.07000000
   16.28083229   83.00180054    0.05000000    0.07000000
   16.28416634   82.96230316    0.05000000    0.07000000
   16.28750038   84.87979889    0.05000000    0.07000000
   16.29055595   79.64869690    0.05000000    0.07000000
   16.29388809   80.63439941    0.05000000    0.07000000
   16.29694366   79.99320221    0.05000000    0.07000000
   16.30027771   85.56390381    0.05000000    0.07000000
   16.30360985   84.74340057    0.05000000    0.07000000
   16.30944443   84.74340057    0.05000000    0.07000000
   16.31361008   80.66719818    0.05000000    0.07000000
   16.31416512   84.78359985    0.05000000    0.07000000
   16.31750107   82.69879913    0.05000000    0.07000000
   16.32055664   84.03959656    0.05000000    0.07000000
   16.32389069   79.36540222    0.05000000    0.07000000
   16.32722282   82.88430023    0.05000000    0.07000000
   16.33027840   79.43479919    0.05000000    0.07000000
   16.33361244   83.56510162    0.05000000    0.07000000
   16.33666801   87.12000275    0.05000000    0.07000000
   16.34000015   81.32520294    0.05000000    0.07000000
   16.34333420   82.50730133    0.05000000    0.07000000
   16.34638977   86.48110199    0.05000000    0.07000000
   16.34749985   83.51260376    0.05000000    0.07000000
   16.35250092   83.51260376    0.05000000    0.07000000
   16.35639000   78.21569824    0.05000000    0.07000000
   16.35972214   85.05020142    0.05000000    0.07000000
   16.36305618   83.34989929    0.05000000    0.07000000
   16.36611176   82.77100372    0.05000000    0.07000000
   16.36944389   79.88899994    0.05000000    0.07000000
   16.37277794   83.14959717    0.05000000    0.07000000
   16.37583351   79.53739929    0.05000000    0.07000000
   16.37916756   83.22109985    0.05000000    0.07000000
   16.38083267   80.24800110    0.05000000    0.07000000
   16.38277817   81.39880371    0.05000000    0.07000000
   16.38583374   84.50869751    0.05000000    0.07000000
   16.38916588   82.16780090    0.05000000    0.07000000
   16.39527702   82.16780090    0.05000000    0.07000000
   16.39944458   79.20989990    0.05000000    0.07000000
   16.40250015   80.37809753    0.05000000    0.07000000
   16.40583229   81.39779663    0.05000000    0.07000000
   16.40888786   80.19480133    0.05000000    0.07000000
   16.41222191   80.60929871    0.05000000    0.07000000
   16.41416550   81.68589783    0.05000000    0.07000000
   16.41611099   79.54199982    0.05000000    0.07000000
   16.41916656   84.04679871    0.05000000    0.07000000
   16.42249870   79.96820068    0.05000000    0.07000000
   16.42583275   84.01529694    0.05000000    0.07000000
   16.42888832   79.58940125    0.05000000    0.07000000
   16.43222237   81.81279755    0.05000000    0.07000000
   16.43805504   81.81279755    0.05000000    0.07000000
   16.44222069   77.67410278    0.05000000    0.07000000
   16.44527626   82.02660370    0.05000000    0.07000000
   16.44749832   81.48480225    0.05000000    0.07000000
   16.44916534   85.30560303    0.05000000    0.07000000
   16.45222282   82.50450134    0.05000000    0.07000000
   16.45555687   80.76069641    0.05000000    0.07000000
   16.45888901   85.42109680    0.05000000    0.07000000
   16.46194458   81.27449799    0.05000000    0.07000000
   16.46527863   80.20649719    0.05000000    0.07000000
   16.46833420   82.71450043    0.05000000    0.07000000
   16.47166634   81.95110321    0.05000000    0.07000000
   16.47500038   81.30699921    0.05000000    0.07000000
   16.48083305   81.30699921    0.05000000    0.07000000
   16.48500061   88.03849792    0.05000000    0.07000000
   16.48833275   80.73130035    0.05000000    0.07000000
   16.49138832   82.48780060    0.05000000    0.07000000
   16.49472237   80.79489899    0.05000000    0.07000000
   16.49805641   83.03389740    0.05000000    0.07000000
   16.50111198   79.68240356    0.05000000    0.07000000
   16.50444412   80.96459961    0.05000000    0.07000000
   16.50749969   79.72370148    0.05000000    0.07000000
   16.51083374   81.06510162    0.05000000    0.07000000
   16.51416588   82.00650024    0.05000000    0.07000000
   16.51472282   80.75520325    0.05000000    0.07000000
   16.51777840   81.20469666    0.05000000    0.07000000
   16.52388954   81.20469666    0.05000000    0.07000000
   16.52777672   78.64199829    0.05000000    0.07000000
   16.53111076   80.89379883    0.05000000    0.07000000
   16.53444481   77.16549683    0.05000000    0.07000000
   16.53750038   78.23580170    0.05000000    0.07000000
   16.54083252   81.98950195    0.05000000    0.07000000
   16.54388809   79.99510193    0.05000000    0.07000000
   16.54722214   79.05860138    0.05000000    0.07000000
   16.54805565   80.07360077    0.05000000    0.07000000
   16.55083275   77.44680023    0.05000000    0.07000000
   16.55416679   77.78919983    0.05000000    0.07000000
   16.55749893   80.79940033    0.05000000    0.07000000
   16.56055450   82.16500092    0.05000000    0.07000000
   16.56666756   82.16500092    0.05000000    0.07000000
   16.57083511   79.13379669    0.05000000    0.07000000
   16.57389069   81.21099854    0.05000000    0.07000000
   16.57722282   81.11810303    0.05000000    0.07000000
   16.58027840   79.87000275    0.05000000    0.07000000
   16.58139038   80.96150208    0.05000000    0.07000000
   16.58388901   77.29460144    0.05000000    0.07000000
   16.58722305   84.70960236    0.05000000    0.07000000
   16.59055710   77.56539917    0.05000000    0.07000000
   16.59361267   81.67939758    0.05000000    0.07000000
   16.59694481   81.19740295    0.05000000    0.07000000
   16.60000038   84.39409637    0.05000000    0.07000000
   16.60333443   83.00939941    0.05000000    0.07000000
   16.60944557   83.00939941    0.05000000    0.07000000
   16.61361122   82.82700348    0.05000000    0.07000000
   16.61472321   85.14820099    0.05000000    0.07000000
   16.61722183   84.75270081    0.05000000    0.07000000
   16.62055588   86.77259827    0.05000000    0.07000000
   16.62388992   87.88089752    0.05000000    0.07000000
   16.62694550   84.91410065    0.05000000    0.07000000
   16.63027763   86.43090057    0.05000000    0.07000000
   16.63333321   85.05220032    0.05000000    0.07000000
   16.63666725   84.35340118    0.05000000    0.07000000
   16.63999939   84.95140076    0.05000000    0.07000000
   16.64305496   85.39589691    0.05000000    0.07000000
   16.64638901   83.14209747    0.05000000    0.07000000
   16.64805603   82.48560333    0.05000000    0.07000000
   16.65222168   82.48560333    0.05000000    0.07000000
   16.65638924   89.69049835    0.05000000    0.07000000
   16.65972137   88.28309631    0.05000000    0.07000000
   16.66277695   90.78620148    0.05000000    0.07000000
   16.66611099   94.70279694    0.05000000    0.07000000
   16.66944313   86.26239777    0.05000000    0.07000000
   16.67249870   81.98329926    0.05000000    0.07000000
   16.67583275   81.76490021    0.05000000    0.07000000
   16.67888832   83.62609863    0.05000000    0.07000000
   16.68138885   84.31140137    0.05000000    0.07000000
   16.68249893   85.07599640    0.05000000    0.07000000
   16.68583298   85.21430206    0.05000000    0.07000000
   16.68916512   80.85919952    0.05000000    0.07000000
   16.69499969   80.85919952    0.05000000    0.07000000
   16.69916534   80.97830200    0.05000000    0.07000000
   16.70250130   80.55789948    0.05000000    0.07000000
   16.70583344   83.39759827    0.05000000    0.07000000
   16.70888901   83.35500336    0.05000000    0.07000000
   16.71222305   87.16179657    0.05000000    0.07000000
   16.71472359   86.61969757    0.05000000    0.07000000
   16.71583366   84.39019775    0.05000000    0.07000000
   16.71916771   86.89189911    0.05000000    0.07000000
   16.72249985   86.31829834    0.05000000    0.07000000
   16.72555542   94.52010345    0.05000000    0.07000000
   16.72888947   84.30619812    0.05000000    0.07000000
   16.73194504   86.83879852    0.05000000    0.07000000
   16.73805618   86.83879852    0.05000000    0.07000000
   16.74222183   80.61370087    0.05000000    0.07000000
   16.74527740   87.77230072    0.05000000    0.07000000
   16.74805641   83.54129791    0.05000000    0.07000000
   16.74888992   84.56939697    0.05000000    0.07000000
   16.75222206   80.21070099    0.05000000    0.07000000
   16.75555611   85.65989685    0.05000000    0.07000000
   16.75861168   82.43000031    0.05000000    0.07000000
   16.76194382   77.74629974    0.05000000    0.07000000
   16.76499939   80.45290375    0.05000000    0.07000000
   16.76833344   79.39669800    0.05000000    0.07000000
   16.77166557   81.36219788    0.05000000    0.07000000
   16.77472115   79.77120209    0.05000000    0.07000000
   16.78083229   79.77120209    0.05000000    0.07000000
   16.79916573   80.31089783    0.05000000    0.07000000
   16.80249977   80.42199707    0.05000000    0.07000000
   16.80555534   80.90450287    0.05000000    0.07000000
   16.80888748   83.92289734    0.05000000    0.07000000
   16.81222153   82.64990234    0.05000000    0.07000000
   16.81527710   84.28309631    0.05000000    0.07000000
   16.81861115   82.51480103    0.05000000    0.07000000
   16.82389069   82.51480103    0.05000000    0.07000000
   16.82805634   81.80560303    0.05000000    0.07000000
   16.83139038   79.75389862    0.05000000    0.07000000
   16.83222389   81.87169647    0.05000000    0.07000000
   16.83500099   77.01280212    0.05000000    0.07000000
   16.83805656   79.86090088    0.05000000    0.07000000
   16.84138870   79.94670105    0.05000000    0.07000000
   16.84472275   78.40409851    0.05000000    0.07000000
   16.84777832   79.59809875    0.05000000    0.07000000
   16.85111237   79.12519836    0.05000000    0.07000000
   16.85416794   79.16670227    0.05000000    0.07000000
   16.85750008   77.74060059    0.05000000    0.07000000
   16.86083412   78.98789978    0.05000000    0.07000000
   16.86666679   78.98789978    0.05000000    0.07000000
   16.87083435   79.07389832    0.05000000    0.07000000
   16.87416649   85.27829742    0.05000000    0.07000000
   16.87722206   84.18209839    0.05000000    0.07000000
   16.88055611   80.43509674    0.05000000    0.07000000
   16.88388824   84.60199738    0.05000000    0.07000000
   16.88722229   82.97640228    0.05000000    0.07000000
   16.89027786   81.44090271    0.05000000    0.07000000
   16.89361191   83.79889679    0.05000000    0.07000000
   16.89666748   81.90329742    0.05000000    0.07000000
   16.89888954   82.33470154    0.05000000    0.07000000
   16.90055466   80.63150024    0.05000000    0.07000000
   16.90361023   82.69029999    0.05000000    0.07000000
   16.90972137   82.69029999    0.05000000    0.07000000
   16.91361046   79.31359863    0.05000000    0.07000000
   16.91694450   78.95359802    0.05000000    0.07000000
   16.92027664   84.32230377    0.05000000    0.07000000
   16.92333221   79.71459961    0.05000000    0.07000000
   16.92666626   80.45500183    0.05000000    0.07000000
   16.93000031   81.64479828    0.05000000    0.07000000
   16.93222237   81.52850342    0.05000000    0.07000000
   16.93361092   84.92469788    0.05000000    0.07000000
   16.93666649   83.86940002    0.05000000    0.07000000
   16.93999863   85.30329895    0.05000000    0.07000000
   16.94333267   80.47550201    0.05000000    0.07000000
   16.94638824   85.54660034    0.05000000    0.07000000
   16.95250130   85.54660034    0.05000000    0.07000000
   16.95666695   84.01190186    0.05000000    0.07000000
   16.95972252   81.97270203    0.05000000    0.07000000
   16.96305656   80.53109741    0.05000000    0.07000000
   16.96555710   81.90540314    0.05000000    0.07000000
   16.96666718   77.86959839    0.05000000    0.07000000
   16.96972275   82.84210205    0.05000000    0.07000000
   16.97305679   81.39150238    0.05000000    0.07000000
   16.97638893   78.37940216    0.05000000    0.07000000
   16.97944450   80.92410278    0.05000000    0.07000000
   16.98277855   84.27359772    0.05000000    0.07000000
   16.98611069   81.35440063    0.05000000    0.07000000
   16.98916626   81.76580048    0.05000000    0.07000000
   16.99527740   81.76580048    0.05000000    0.07000000
   16.99944496   79.85980225    0.05000000    0.07000000
   17.00250053   78.88009644    0.05000000    0.07000000
   17.00583267   85.13020325    0.05000000    0.07000000
   17.00916672   83.45120239    0.05000000    0.07000000
   17.01222229   82.34580231    0.05000000    0.07000000
   17.01555634   81.58580017    0.05000000    0.07000000
   17.01888847   82.06099701    0.05000000    0.07000000
   17.02194405   81.76850128    0.05000000    0.07000000
   17.02527809   85.41889954    0.05000000    0.07000000
   17.02833366   82.21479797    0.05000000    0.07000000
   17.03166580   81.48040009    0.05000000    0.07000000
   17.03222275   83.46040344    0.05000000    0.07000000
   17.03805542   83.46040344    0.05000000    0.07000000
   17.04222107   80.83470154    0.05000000    0.07000000
   17.04555511   85.73960114    0.05000000    0.07000000
   17.04861069   82.24179840    0.05000000    0.07000000
   17.05194283   83.59079742    0.05000000    0.07000000
   17.05527687   81.75319672    0.05000000    0.07000000
   17.05833244   85.61889648    0.05000000    0.07000000
   17.06166649   83.96189880    0.05000000    0.07000000
   17.06499863   81.25189972    0.05000000    0.07000000
   17.06555557   82.67400360    0.05000000    0.07000000
   17.06861115   80.39209747    0.05000000    0.07000000
   17.07166672   85.29940033    0.05000000    0.07000000
   17.07500076   85.00289917    0.05000000    0.07000000
   17.08111191   85.00289917    0.05000000    0.07000000
   17.08500099   79.76339722    0.05000000    0.07000000
   17.08833313   83.25700378    0.05000000    0.07000000
   17.09166718   82.89330292    0.05000000    0.07000000
   17.09472275   82.42590332    0.05000000    0.07000000
   17.09805679   80.09269714    0.05000000    0.07000000
   17.09889030   88.47429657    0.05000000    0.07000000
   17.10166740   81.90409851    0.05000000    0.07000000
   17.10472298   86.41739655    0.05000000    0.07000000
   17.10805511   84.96479797    0.05000000    0.07000000
   17.11138916   78.29389954    0.05000000    0.07000000
   17.11444473   81.13880157    0.05000000    0.07000000
   17.11777878   80.80100250    0.05000000    0.07000000
   17.12388992   80.80100250    0.05000000    0.07000000
   17.12805557   82.08080292    0.05000000    0.07000000
   17.13111115   81.61329651    0.05000000    0.07000000
   17.13222313   78.18039703    0.05000000    0.07000000
   17.13472176   80.80220032    0.05000000    0.07000000
   17.13777733   84.05799866    0.05000000    0.07000000
   17.14111137   81.89320374    0.05000000    0.07000000
   17.14444351   82.52349854    0.05000000    0.07000000
   17.14749908   78.76750183    0.05000000    0.07000000
   17.15083313   79.26979828    0.05000000    0.07000000
   17.15416718   80.80650330    0.05000000    0.07000000
   17.15722275   82.22389984    0.05000000    0.07000000
   17.16055489   84.22519684    0.05000000    0.07000000
   17.16666603   84.22519684    0.05000000    0.07000000
   17.17083359   80.35330200    0.05000000    0.07000000
   17.17388916   85.27619934    0.05000000    0.07000000
   17.17722130   82.94200134    0.05000000    0.07000000
   17.18055534   86.57659912    0.05000000    0.07000000
   17.18361092   80.07879639    0.05000000    0.07000000
   17.18694305   81.47239685    0.05000000    0.07000000
   17.19027710   80.81659698    0.05000000    0.07000000
   17.19333267   82.38379669    0.05000000    0.07000000
   17.19666672   81.49479675    0.05000000    0.07000000
   17.19888878   79.22200012    0.05000000    0.07000000
   17.20027924   83.00859833    0.05000000    0.07000000
   17.20361137   81.52700043    0.05000000    0.07000000
   17.20944595   81.52700043    0.05000000    0.07000000
   17.21361160   83.24009705    0.05000000    0.07000000
   17.21694565   83.67330170    0.05000000    0.07000000
   17.22000122   84.70739746    0.05000000    0.07000000
   17.22333336   81.80190277    0.05000000    0.07000000
   17.22666740   83.73570251    0.05000000    0.07000000
   17.22972298   84.05690002    0.05000000    0.07000000
   17.23222351   84.36129761    0.05000000    0.07000000
   17.23333359   82.72119904    0.05000000    0.07000000
   17.23666763   85.99210358    0.05000000    0.07000000
   17.23972321   89.13800049    0.05000000    0.07000000
   17.24305534   87.60769653    0.05000000    0.07000000
   17.24611092   92.57440186    0.05000000    0.07000000
   17.25222206   92.57440186    0.05000000    0.07000000
   17.25638962   94.21980286    0.05000000    0.07000000
   17.25972176   89.74449921    0.05000000    0.07000000
   17.26305580   96.82910156    0.05000000    0.07000000
   17.26555634   92.58809662    0.05000000    0.07000000
   17.26666641   92.52549744    0.05000000    0.07000000
   17.27000046   94.62920380    0.05000000    0.07000000
   17.27305603   89.21859741    0.05000000    0.07000000
   17.27638817   94.16130066    0.05000000    0.07000000
   17.27944374   90.14070129    0.05000000    0.07000000
   17.28277779   90.16929626    0.05000000    0.07000000
   17.28610992   85.15249634    0.05000000    0.07000000
   17.28916550   80.76059723    0.05000000    0.07000000
   17.29527664   80.76059723    0.05000000    0.07000000
   17.29944420   90.78040314    0.05000000    0.07000000
   17.30249977   89.78359985    0.05000000    0.07000000
   17.30583191   79.87599945    0.05000000    0.07000000
   17.30916595   79.63390350    0.05000000    0.07000000
   17.31222153   78.29429626    0.05000000    0.07000000
   17.31555557   81.17230225    0.05000000    0.07000000
   17.31861115   86.26640320    0.05000000    0.07000000
   17.32194519   83.02020264    0.05000000    0.07000000
   17.32527924   80.28389740    0.05000000    0.07000000
   17.32833481   88.80410004    0.05000000    0.07000000
   17.33166695   80.99400330    0.05000000    0.07000000
   17.33222389  111.62500000    0.05000000    0.07000000
   17.33805656  111.62500000    0.05000000    0.07000000
   17.34222221   81.38529968    0.05000000    0.07000000
   17.34527779   87.52380371    0.05000000    0.07000000
   17.34861183   85.43360138    0.05000000    0.07000000
   17.35194397   80.28500366    0.05000000    0.07000000
   17.35499954   85.11239624    0.05000000    0.07000000
   17.35833359   82.49800110    0.05000000    0.07000000
   17.36166763   92.30259705    0.05000000    0.07000000
   17.36472321   81.98490143    0.05000000    0.07000000
   17.36555672   82.84049988    0.05000000    0.07000000
   17.36833382   82.16049957    0.05000000    0.07000000
   17.37166595   93.37680054    0.05000000    0.07000000
   17.37472153   82.15380096    0.05000000    0.07000000
   17.38083267   82.15380096    0.05000000    0.07000000
   17.38500023   87.42500305    0.05000000    0.07000000
   17.38833237   86.18080139    0.05000000    0.07000000
   17.39138794   80.85009766    0.05000000    0.07000000
   17.39472198   80.24539948    0.05000000    0.07000000
   17.39805603   93.01699829    0.05000000    0.07000000
   17.39888954   87.48930359    0.05000000    0.07000000
   17.40166664   89.00710297    0.05000000    0.07000000
   17.40499878   84.08730316    0.05000000    0.07000000
   17.40805435   79.88520050    0.05000000    0.07000000
   17.41138840   83.05410004    0.05000000    0.07000000
   17.41444397   79.35379791    0.05000000    0.07000000
   17.41777802   80.47019958    0.05000000    0.07000000
   17.42361069   80.47019958    0.05000000    0.07000000
   17.42777634   81.72499847    0.05000000    0.07000000
   17.43111038   83.59899902    0.05000000    0.07000000
   17.43222237   86.11070251    0.05000000    0.07000000
   17.43472099   79.07379913    0.05000000    0.07000000
   17.43805504   85.37270355    0.05000000    0.07000000
   17.44111061   79.35050201    0.05000000    0.07000000
   17.44444275   81.09179688    0.05000000    0.07000000
   17.44777679   82.18370056    0.05000000    0.07000000
   17.45083427   79.79889679    0.05000000    0.07000000
   17.45416832   80.34480286    0.05000000    0.07000000
   17.45722389   80.32900238    0.05000000    0.07000000
   17.46055603   81.57630157    0.05000000    0.07000000
   17.46666718   81.57630157    0.05000000    0.07000000
   17.47083473   85.41040039    0.05000000    0.07000000
   17.47389030   84.47119904    0.05000000    0.07000000
   17.47722244   79.84570313    0.05000000    0.07000000
   17.48027802   78.18990326    0.05000000    0.07000000
   17.48361206   81.39540100    0.05000000    0.07000000
   17.48694420   79.88009644    0.05000000    0.07000000
   17.48999977   82.31929779    0.05000000    0.07000000
   17.49333382   79.84059906    0.05000000    0.07000000
   17.49666786   83.45850372    0.05000000    0.07000000
   17.49888992   78.55789948    0.05000000    0.07000000
   17.50027847   77.94920349    0.05000000    0.07000000
   17.50361061   85.14830017    0.05000000    0.07000000
   17.50944519   85.14830017    0.05000000    0.07000000
   17.51361084   79.52359772    0.05000000    0.07000000
   17.51666641   77.48280334    0.05000000    0.07000000
   17.52000046   81.78869629    0.05000000    0.07000000
   17.52333260   79.23899841    0.05000000    0.07000000
   17.52638817   79.18659973    0.05000000    0.07000000
   17.52972221   84.24449921    0.05000000    0.07000000
   17.53222275   83.76689911    0.05000000    0.07000000
   17.53333282   81.43540192    0.05000000    0.07000000
   17.53666687   81.20719910    0.05000000    0.07000000
   17.53972244   80.56580353    0.05000000    0.07000000
   17.54305458   79.95330048    0.05000000    0.07000000
   17.54638863   81.07579803    0.05000000    0.07000000
   17.55222130   81.07579803    0.05000000    0.07000000
   17.55638885   84.81919861    0.05000000    0.07000000
   17.55972099   86.81330109    0.05000000    0.07000000
   17.56277657   79.25540161    0.05000000    0.07000000
   17.56555557   79.08000183    0.05000000    0.07000000
   17.56638718   81.53230286    0.05000000    0.07000000
   17.56972313   83.24169922    0.05000000    0.07000000
   17.57277870   87.04250336    0.05000000    0.07000000
   17.57611275   81.83049774    0.05000000    0.07000000
   17.57944489   86.33499908    0.05000000    0.07000000
   17.58250046   82.24089813    0.05000000    0.07000000
   17.58583450   79.64550018    0.05000000    0.07000000
   17.58889008   87.78939819    0.05000000    0.07000000
   17.59500122   87.78939819    0.05000000    0.07000000
   17.59916687   85.02130127    0.05000000    0.07000000
   17.60250092   83.24829865    0.05000000    0.07000000
   17.60583305   80.12640381    0.05000000    0.07000000
   17.60888863   83.35900116    0.05000000    0.07000000
   17.61222267   87.76069641    0.05000000    0.07000000
   17.61527824   83.34809875    0.05000000    0.07000000
   17.61861038   80.74389648    0.05000000    0.07000000
   17.62194443   84.80709839    0.05000000    0.07000000
   17.62500000   79.91439819    0.05000000    0.07000000
   17.62833405   83.43489838    0.05000000    0.07000000
   17.63166618   83.56970215    0.05000000    0.07000000
   17.63222313   91.57019806    0.05000000    0.07000000
   17.63805580   91.57019806    0.05000000    0.07000000
   17.64222145   81.40139771    0.05000000    0.07000000
   17.64527702   79.28269958    0.05000000    0.07000000
   17.64861107   82.38079834    0.05000000    0.07000000
   17.65166664   79.83470154    0.05000000    0.07000000
   17.65499878   82.45429993    0.05000000    0.07000000
   17.65833282   79.22239685    0.05000000    0.07000000
   17.66166687   78.40630341    0.05000000    0.07000000
   17.66472244   81.22810364    0.05000000    0.07000000
   17.66555595   83.49900055    0.05000000    0.07000000
   17.66833305   86.62760162    0.05000000    0.07000000
   17.67166519   88.15219879    0.05000000    0.07000000
   17.67472076   87.14199829    0.05000000    0.07000000
   17.68083191   87.14199829    0.05000000    0.07000000
   17.68499947   86.03569794    0.05000000    0.07000000
   17.68805504   76.78479767    0.05000000    0.07000000
   17.69138718   81.00250244    0.05000000    0.07000000
   17.69472122   85.89150238    0.05000000    0.07000000
   17.69777679   97.59760284    0.05000000    0.07000000
   17.69888878   94.09770203    0.05000000    0.07000000
   17.70138931   99.90969849    0.05000000    0.07000000
   17.70472336   91.36560059    0.05000000    0.07000000
   17.70777893  107.80699921    0.05000000    0.07000000
   17.71111107   85.05059814    0.05000000    0.07000000
   17.71444511   91.21800232    0.05000000    0.07000000
   17.71750069   97.51930237    0.05000000    0.07000000
   17.72361183   97.51930237    0.05000000    0.07000000
   17.72777748   85.00289917    0.05000000    0.07000000
   17.73111153  111.91000366    0.05000000    0.07000000
   17.73250008  111.25800323    0.05000000    0.07000000
   17.73444557   91.64450073    0.05000000    0.07000000
   17.73777771   88.67299652    0.05000000    0.07000000
   17.74111176   96.67140198    0.05000000    0.07000000
   17.74416733   96.14469910    0.05000000    0.07000000
   17.74749947  108.93000031    0.05000000    0.07000000
   17.75083351  111.49800110    0.05000000    0.07000000
   17.75388908   97.65090179    0.05000000    0.07000000
   17.75722313  107.33799744    0.05000000    0.07000000
   17.76027870   99.71160126    0.05000000    0.07000000
   17.76638794   99.71160126    0.05000000    0.07000000
   17.77055550  101.62699890    0.05000000    0.07000000
   17.77388954   96.40270233    0.05000000    0.07000000
   17.77694511   95.16249847    0.05000000    0.07000000
   17.78027725   90.90070343    0.05000000    0.07000000
   17.78361130   96.99420166    0.05000000    0.07000000
   17.78666687   96.49939728    0.05000000    0.07000000
   17.78999901   88.33139801    0.05000000    0.07000000
   17.79333305   81.03050232    0.05000000    0.07000000
   17.79638863   89.43080139    0.05000000    0.07000000
   17.79916573   89.71790314    0.05000000    0.07000000
   17.81972313   89.71790314    0.05000000    0.07000000
   17.82389069   84.99530029    0.05000000    0.07000000
   17.82694626   81.90160370    0.05000000    0.07000000
   17.83027840   79.81739807    0.05000000    0.07000000
   17.83250046   81.49250031    0.05000000    0.07000000
   17.83388901   80.39659882    0.05000000    0.07000000
   17.83722305   82.22840118    0.05000000    0.07000000
   17.84055710   83.53489685    0.05000000    0.07000000
   17.84361267   90.70189667    0.05000000    0.07000000
   17.84694481   79.29620361    0.05000000    0.07000000
   17.85027885   83.94370270    0.05000000    0.07000000
   17.85333443   82.01069641    0.05000000    0.07000000
   17.85666656   81.31289673    0.05000000    0.07000000
   17.86250114   81.31289673    0.05000000    0.07000000
   17.86666679   93.64630127    0.05000000    0.07000000
   17.86972237   94.93139648    0.05000000    0.07000000
   17.87305641   95.19539642    0.05000000    0.07000000
   17.87611198   94.98110199    0.05000000    0.07000000
   17.87944412   90.51619720    0.05000000    0.07000000
   17.88277817   92.07589722    0.05000000    0.07000000
   17.88583374   82.20120239    0.05000000    0.07000000
   17.88916588   90.23200226    0.05000000    0.07000000
   17.89249992   90.84519958    0.05000000    0.07000000
   17.89555550   87.45439911    0.05000000    0.07000000
   17.89888954   95.08699799    0.05000000    0.07000000
   17.89944458   87.94080353    0.05000000    0.07000000
   17.90527725   87.94080353    0.05000000    0.07000000
   17.90944481   88.04489899    0.05000000    0.07000000
   17.91250038   80.43769836    0.05000000    0.07000000
   17.91583252   82.82460022    0.05000000    0.07000000
   17.91916656   85.27770233    0.05000000    0.07000000
   17.92222214   79.05919647    0.05000000    0.07000000
   17.92555428   81.20030212    0.05000000    0.07000000
   17.92888832   85.92299652    0.05000000    0.07000000
   17.93194389   81.48210144    0.05000000    0.07000000
   17.93277740   84.18509674    0.05000000    0.07000000
   17.93555450   79.94680023    0.05000000    0.07000000
   17.93888855   76.76480103    0.05000000    0.07000000
   17.94222069   84.13079834    0.05000000    0.07000000
   17.94805527   84.13079834    0.05000000    0.07000000
   17.95222282   90.22070313    0.05000000    0.07000000
   17.95555687   89.15260315    0.05000000    0.07000000
   17.95861244   88.51689911    0.05000000    0.07000000
   17.96194458   85.34549713    0.05000000    0.07000000
   17.96527863   83.78309631    0.05000000    0.07000000
   17.96611214   85.76110077    0.05000000    0.07000000
   17.96861076   90.19670105    0.05000000    0.07000000
   17.97194481   91.88009644    0.05000000    0.07000000
   17.97527885   81.05619812    0.05000000    0.07000000
   17.97833443   94.99649811    0.05000000    0.07000000
   17.98166656   84.43280029    0.05000000    0.07000000
   17.98500061   82.84100342    0.05000000    0.07000000
   17.99083328   82.84100342    0.05000000    0.07000000
   17.99500084   77.66000366    0.05000000    0.07000000
   17.99833298   83.95899963    0.05000000    0.07000000
   17.99944496   91.58779907    0.05000000    0.07000000
   18.00194359   83.03939819    0.05000000    0.07000000
   18.00527763   85.36589813    0.05000000    0.07000000
   18.00861168   81.42299652    0.05000000    0.07000000
   18.01166725   84.11540222    0.05000000    0.07000000
   18.01499939   84.71240234    0.05000000    0.07000000
   18.01833344   85.66719818    0.05000000    0.07000000
   18.02138901   80.18750000    0.05000000    0.07000000
   18.02472115   84.15499878    0.05000000    0.07000000
   18.02777672   87.76039886    0.05000000    0.07000000
   18.03388786   87.76039886    0.05000000    0.07000000
   18.03805542   89.96880341    0.05000000    0.07000000
   18.04111099   91.28759766    0.05000000    0.07000000
   18.04444313   94.75250244    0.05000000    0.07000000
   18.04749870   84.87830353    0.05000000    0.07000000
   18.05083275   87.98719788    0.05000000    0.07000000
   18.05416679   89.59629822    0.05000000    0.07000000
   18.05722237  105.46199799    0.05000000    0.07000000
   18.06055450   87.30030060    0.05000000    0.07000000
   18.06388855   85.21910095    0.05000000    0.07000000
   18.06611061   87.72859955    0.05000000    0.07000000
   18.06722260   84.26599884    0.05000000    0.07000000
   18.07055664   83.60820007    0.05000000    0.07000000
   18.07666779   83.60820007    0.05000000    0.07000000
   18.08083344   83.81210327    0.05000000    0.07000000
   18.08388901   80.04679871    0.05000000    0.07000000
   18.08722305   86.24590302    0.05000000    0.07000000
   18.09055710   81.71610260    0.05000000    0.07000000
   18.09361267   84.09100342    0.05000000    0.07000000
   18.09694481   83.95510101    0.05000000    0.07000000
   18.09944534   82.31849670    0.05000000    0.07000000
   18.10055542   80.07589722    0.05000000    0.07000000
   18.10388947   83.03910065    0.05000000    0.07000000
   18.10722351   79.90499878    0.05000000    0.07000000
   18.11027908   83.54720306    0.05000000    0.07000000
   18.11361122   80.67669678    0.05000000    0.07000000
   18.11944389   80.67669678    0.05000000    0.07000000
   18.12361145   87.56220245    0.05000000    0.07000000
   18.12694550   88.55059814    0.05000000    0.07000000
   18.13000107   82.80539703    0.05000000    0.07000000
   18.13277817   90.88379669    0.05000000    0.07000000
   18.13361168   84.42590332    0.05000000    0.07000000
   18.13694382   91.89129639    0.05000000    0.07000000
   18.14027786   87.46009827    0.05000000    0.07000000
   18.14333344   87.27970123    0.05000000    0.07000000
   18.14666748   91.56610107    0.05000000    0.07000000
   18.14999962   87.87429810    0.05000000    0.07000000
   18.15305519  102.24600220    0.05000000    0.07000000
   18.15638924  105.71900177    0.05000000    0.07000000
   18.16222191  105.71900177    0.05000000    0.07000000
   18.16638756   85.01850128    0.05000000    0.07000000
   18.16972160   84.94770050    0.05000000    0.07000000
   18.17305565   90.61450195    0.05000000    0.07000000
   18.17611122   90.72059631    0.05000000    0.07000000
   18.17944336   96.24810028    0.05000000    0.07000000
   18.18249893   94.51760101    0.05000000    0.07000000
   18.18583298   85.46769714    0.05000000    0.07000000
   18.18916512   91.41320038    0.05000000    0.07000000
   18.19222069   78.68769836    0.05000000    0.07000000
   18.19555473   91.49449921    0.05000000    0.07000000
   18.19888878   97.31030273    0.05000000    0.07000000
   18.19944382   87.33519745    0.05000000    0.07000000
   18.20527840   87.33519745    0.05000000    0.07000000
   18.20916748   94.45269775    0.05000000    0.07000000
   18.21250153   82.61060333    0.05000000    0.07000000
   18.21583366   87.95439911    0.05000000    0.07000000
   18.21888924   88.36479950    0.05000000    0.07000000
   18.22222328   79.69940186    0.05000000    0.07000000
   18.22555542   87.06099701    0.05000000    0.07000000
   18.22861099   80.62460327    0.05000000    0.07000000
   18.23194504   89.94930267    0.05000000    0.07000000
   18.23277855   82.04080200    0.05000000    0.07000000
   18.23555565   84.21949768    0.05000000    0.07000000
   18.23861122   80.44599915    0.05000000    0.07000000
   18.24194527   81.38349915    0.05000000    0.07000000
   18.24805641   81.38349915    0.05000000    0.07000000
   18.25222206   81.27089691    0.05000000    0.07000000
   18.25527763   83.12220001    0.05000000    0.07000000
   18.25861168   81.76219940    0.05000000    0.07000000
   18.26194382   84.29019928    0.05000000    0.07000000
   18.26499939   85.29090118    0.05000000    0.07000000
   18.26611137   87.21320343    0.05000000    0.07000000
   18.26888847   88.69149780    0.05000000    0.07000000
   18.27194405   85.78479767    0.05000000    0.07000000
   18.27527809   85.66500092    0.05000000    0.07000000
   18.27833366   84.14820099    0.05000000    0.07000000
   18.28166580   86.72209930    0.05000000    0.07000000
   18.28499985   87.38140106    0.05000000    0.07000000
   18.29083252   87.38140106    0.05000000    0.07000000
   18.29500008   78.90499878    0.05000000    0.07000000
   18.29833221   82.97519684    0.05000000    0.07000000
   18.29944420   83.79799652    0.05000000    0.07000000
   18.30194283   83.63559723    0.05000000    0.07000000
   18.30499840   87.08740234    0.05000000    0.07000000
   18.30833244   84.20030212    0.05000000    0.07000000
   18.31138802   81.85919952    0.05000000    0.07000000
   18.31472206   86.36280060    0.05000000    0.07000000
   18.31805611   80.82859802    0.05000000    0.07000000
   18.32111168   82.93199921    0.05000000    0.07000000
   18.32444572   88.37709808    0.05000000    0.07000000
   18.32777786   89.65779877    0.05000000    0.07000000
   18.33361244   89.65779877    0.05000000    0.07000000
   18.33777809   91.66670227    0.05000000    0.07000000
   18.34111214   83.10369873    0.05000000    0.07000000
   18.34444427   81.02500153    0.05000000    0.07000000
   18.34749985   87.43609619    0.05000000    0.07000000
   18.35083389   84.66770172    0.05000000    0.07000000
   18.35388947   90.70860291    0.05000000    0.07000000
   18.35722351   87.94360352    0.05000000    0.07000000
   18.36055565   88.37449646    0.05000000    0.07000000
   18.36361122   92.03359985    0.05000000    0.07000000
   18.36611176   92.87609863    0.05000000    0.07000000
   18.36750031   93.21279907    0.05000000    0.07000000
   18.37055588   97.43609619    0.05000000    0.07000000
   18.37666702   97.43609619    0.05000000    0.07000000
   18.38083267   93.81140137    0.05000000    0.07000000
   18.38388824   87.34960175    0.05000000    0.07000000
   18.38722229  100.23200226    0.05000000    0.07000000
   18.39027786   96.40709686    0.05000000    0.07000000
   18.39361191   90.11170197    0.05000000    0.07000000
   18.39694405   92.88420105    0.05000000    0.07000000
   18.39944458   90.03330231    0.05000000    0.07000000
   18.40055466   93.13330078    0.05000000    0.07000000
   18.40361023   93.73100281    0.05000000    0.07000000
   18.40694427   86.48200226    0.05000000    0.07000000
   18.40999985   97.58129883    0.05000000    0.07000000
   18.41333389   99.96479797    0.05000000    0.07000000
   18.41944313   99.96479797    0.05000000    0.07000000
   18.42361069  108.36299896    0.05000000    0.07000000
   18.42666626   93.93669891    0.05000000    0.07000000
   18.43000031   87.79789734    0.05000000    0.07000000
   18.43277740   97.10820007    0.05000000    0.07000000
   18.43388748  100.48400116    0.05000000    0.07000000
   18.43694305  100.33599854    0.05000000    0.07000000
   18.44027710  101.87799835    0.05000000    0.07000000
   18.44333267   97.82420349    0.05000000    0.07000000
   18.44666672  104.00800323    0.05000000    0.07000000
   18.45000076   90.82949829    0.05000000    0.07000000
   18.45305634   94.29470062    0.05000000    0.07000000
   18.45639038  102.60600281    0.05000000    0.07000000
   18.46222305  102.60600281    0.05000000    0.07000000
   18.46638870   92.85070038    0.05000000    0.07000000
   18.46972275   90.44090271    0.05000000    0.07000000
   18.47277832   96.67330170    0.05000000    0.07000000
   18.47611237   97.89209747    0.05000000    0.07000000
   18.47944450  100.45300293    0.05000000    0.07000000
   18.48250008   99.55819702    0.05000000    0.07000000
   18.48583412  100.46499634    0.05000000    0.07000000
   18.48888969  103.71499634    0.05000000    0.07000000
   18.49222183  105.53600311    0.05000000    0.07000000
   18.49555588  114.77700043    0.05000000    0.07000000
   18.49861145  113.77999878    0.05000000    0.07000000
   18.49944496  110.87200165    0.05000000    0.07000000
   18.50499916  110.87200165    0.05000000    0.07000000
   18.50916672  118.03199768    0.05000000    0.07000000
   18.51250076  120.88400269    0.05000000    0.07000000
   18.51583290  123.99900055    0.05000000    0.07000000
   18.51888847  127.23200226    0.05000000    0.07000000
   18.52222252  112.16500092    0.05000000    0.07000000
   18.52555466  106.83899689    0.05000000    0.07000000
   18.52861023  110.30699921    0.05000000    0.07000000
   18.53194427  107.46299744    0.05000000    0.07000000
   18.53277779  107.51399994    0.05000000    0.07000000
   18.53555489  105.20200348    0.05000000    0.07000000
   18.53861046  100.14700317    0.05000000    0.07000000
   18.54194450  106.03199768    0.05000000    0.07000000
   18.54805565  106.03199768    0.05000000    0.07000000
   18.55222130   97.67079926    0.05000000    0.07000000
   18.55527687   98.74970245    0.05000000    0.07000000
   18.55861092   91.49929810    0.05000000    0.07000000
   18.56166649   91.41970062    0.05000000    0.07000000
   18.56499863  109.12899780    0.05000000    0.07000000
   18.56611061  114.50700378    0.05000000    0.07000000
   18.56861115  112.59400177    0.05000000    0.07000000
   18.57166672  128.41099548    0.05000000    0.07000000
   18.57500076  133.03900146    0.05000000    0.07000000
   18.57833481  120.01599884    0.05000000    0.07000000
   18.58139038  114.71700287    0.05000000    0.07000000
   18.58472252  107.28800201    0.05000000    0.07000000
   18.59083366  107.28800201    4.90999985    2.91000009
   18.59500122  104.62100220    4.90999985    2.91000009
   18.59833336  109.39199829    4.90999985    2.91000009
   18.59944534  106.65100098    4.90999985    2.91000009
   18.60194397   98.72720337    4.90999985    2.78999996
   18.60499954  111.72399902    4.90999985    2.78999996
   18.60833359  107.51899719    4.90999985    2.78999996
   18.61166763  101.00599670    4.90999985    2.78999996
   18.61472321  102.32399750    4.90999985    2.78999996
   18.61805534  112.90200043    4.90999985    2.80999994
   18.62111092  108.65899658    4.90999985    2.80999994
   18.62444496  111.26300049    4.90999985    2.78999996
   18.62777710  102.37500000    4.90999985    2.78999996
   18.63361168  102.37500000    4.90999985    2.78999996
   18.63777733  108.92400360    4.90999985    2.80999994
   18.64111137  101.74600220    4.90999985    2.80999994
   18.64416695  108.91899872    4.90999985    2.80999994
   18.64749908  104.46299744    4.90999985    2.82999992
   18.65083313  102.06600189    4.90999985    2.80999994
   18.65388870  103.58000183    4.90999985    2.80999994
   18.65722275  102.97000122    4.90999985    2.82999992
   18.66055489  100.39499664    4.90999985    2.80999994
   18.66361046  105.06300354    4.90999985    2.80999994
   18.66611099  102.88200378    4.90999985    2.82999992
   18.66749954  102.90699768    4.90999985    2.80999994
   18.67055511   96.61630249    4.90999985    2.82999992
   18.67638779   96.61630249    4.90999985    2.82999992
   18.68055534   97.68530273    4.90999985    2.80999994
   18.68388748  100.25099945    4.90999985    2.80999994
   18.68722153   99.61309814    4.90999985    2.82999992
   18.69027710   94.08670044    4.90999985    2.82999992
   18.69361115  103.62599945    4.90999985    2.80999994
   18.69666672   90.56390381    4.90999985    2.80999994
   18.69944382   94.10839844    4.90999985    2.82999992
   18.70055580   94.40660095    4.90999985    2.82999992
   18.70361137   96.48419952    4.90999985    2.80999994
   18.70694542   95.78070068    4.90999985    2.82999992
   18.71027946   89.92130280    4.90999985    2.82999992
   18.71333504   92.06520081    4.90999985    2.82999992
   18.71944427   92.06520081    4.90999985    2.82999992
   18.72361183   87.58290100    4.90999985    2.80999994
   18.72666740   96.97669983    4.90999985    2.80999994
   18.73000145  101.06500244    4.90999985    2.82999992
   18.73277855   86.15350342    4.90999985    2.82999992
   18.73361206   99.34100342    4.90999985    2.82999992
   18.73666763   90.04160309    4.90999985    2.80999994
   18.73999977   95.21469879    4.90999985    2.80999994
   18.74333382   96.89060211    4.90999985    2.80999994
   18.74638939   91.38150024    4.90999985    2.80999994
   18.74972153   90.34770203    4.90999985    2.82999992
   18.75277710   90.03179932    4.90999985    2.82999992
   18.75611115   87.07689667    4.90999985    2.80999994
   18.76222229   87.07689667    4.90999985    2.80999994
   18.76638794   96.64330292    4.90999985    2.80999994
   18.76944351   83.55619812    4.90999985    2.80999994
   18.77277756   86.62879944    4.90999985    2.80999994
   18.77611160   82.81060028    4.90999985    2.80999994
   18.77916718   86.49659729    4.90999985    2.82999992
   18.78249931   81.56610107    4.90999985    2.80999994
   18.78583336   80.15570068    4.90999985    2.80999994
   18.78888893   84.23719788    4.90999985    2.80999994
   18.79222107   81.61199951    4.90999985    2.80999994
   18.79527664   80.59480286    4.90999985    2.80999994
   18.79861069   83.53179932    4.90999985    2.80999994
   18.79944420   80.75199890    4.90999985    2.80999994
   18.80499840   80.75199890    4.90999985    2.80999994
   18.80916595   85.45140076    4.90999985    2.80999994
   18.81250000   81.85729980    4.90999985    2.80999994
   18.81555557   79.96379852    4.90999985    2.78999996
   18.83305550   83.39920044    4.90999985    2.80999994
   18.83555603   86.96559906    4.90999985    2.80999994
   18.83889008   88.19360352    4.90999985    2.80999994
   18.84194565   88.20459747    4.90999985    2.80999994
   18.84805679   88.20459747    4.90999985    2.80999994
   18.85222244   86.49259949    4.90999985    2.80999994
   18.85555649   91.26059723    4.90999985    2.78999996
   18.85861206   85.61640167    4.90999985    2.80999994
   18.86194420   84.26460266    4.90999985    2.80999994
   18.86499977   85.77809906    4.90999985    2.80999994
   18.86638832   83.98789978    4.90999985    2.80999994
   18.86888885   84.36280060    4.90999985    2.78999996
   18.87222290   87.02709961    4.90999985    2.80999994
   18.87527847   86.04239655    4.90999985    2.80999994
   18.87861061   81.74220276    4.90999985    2.78999996
   18.88194466   84.39089966    4.90999985    2.80999994
   18.88500023   84.95130157    4.90999985    2.78999996
   18.89083290   84.95130157    4.90999985    2.78999996
   18.89500046   85.86139679    4.90999985    2.80999994
   18.89833260   82.92440033    4.90999985    2.80999994
   18.89972115   86.53019714    4.90999985    2.78999996
   18.90194321   93.02279663    4.90999985    2.78999996
   18.90499878   83.55660248    4.90999985    2.78999996
   18.90833282   84.92489624    4.90999985    2.78999996
   18.91166687   82.76529694    4.90999985    2.78999996
   18.91472244   84.03309631    4.90999985    2.78999996
   18.91805458   81.56719971    4.90999985    2.78999996
   18.92138863   92.37550354    4.90999985    2.78999996
   18.92444420   83.61109924    4.90999985    2.78999996
   18.92777634   88.89360046    4.90999985    2.80999994
   18.93388748   88.89360046    4.90999985    2.78999996
   18.93777657   91.04350281    4.90999985    2.80999994
   18.94111061   87.16919708    4.90999985    2.80999994
   18.94444275   96.47869873    4.90999985    2.78999996
   18.94749832   86.48290253    4.90999985    2.78999996
   18.95083427   85.76879883    4.90999985    2.78999996
   18.95416832   91.26260376    4.90999985    2.78999996
   18.95722389   83.58170319    4.90999985    2.78999996
   18.96055603   88.18399811    4.90999985    2.80999994
   18.96361160   90.65309906    4.90999985    2.78999996
   18.96638870   91.90720367    4.90999985    2.78999996
   18.96750069   93.08219910    4.90999985    2.78999996
   18.97083473   89.25679779    4.90999985    2.78999996
   18.97666740   89.25679779    4.90999985    2.80999994
   18.98083305   80.49510193    4.90999985    2.80999994
   18.98388863   89.11380005    4.90999985    2.78999996
   18.98722267   82.94860077    4.90999985    2.80999994
   18.99055672   92.80480194    4.90999985    2.78999996
   18.99361229   91.25009918    4.90999985    2.78999996
   18.99694443   89.29090118    4.90999985    2.80999994
   18.99972153   82.72530365    4.90999985    2.78999996
   19.00055504   89.62390137    4.90999985    2.78999996
   19.00388908   84.63649750    4.90999985    2.78999996
   19.00694466   86.56479645    4.90999985    2.80999994
   19.01027870   86.29029846    4.90999985    2.78999996
   19.01333427   89.27040100    4.90999985    2.78999996
   19.01944351   89.27040100    4.90999985    2.80999994
   19.02361107   85.20490265    4.90999985    2.80999994
   19.02694511   95.98090363    4.90999985    2.80999994
   19.03000069   83.60130310    4.90999985    2.80999994
   19.03305435   90.71829987    4.90999985    2.78999996
   19.03361130   88.02570343    4.90999985    2.78999996
   19.03694344   85.24859619    4.90999985    2.80999994
   19.03999901   87.34169769    4.90999985    2.80999994
   19.04333305   81.74909973    4.90999985    2.78999996
   19.04666710   88.78260040    4.90999985    2.80999994
   19.04972076   85.75900269    4.90999985    2.78999996
   19.05305481   82.98930359    4.90999985    2.78999996
   19.05638885   83.97170258    4.90999985    2.80999994
   19.06222153   83.97170258    4.90999985    2.80999994
   19.06638718   84.82710266    4.90999985    2.78999996
   19.06694603   92.70349884    4.90999985    2.78999996
   19.07027817   93.09790039    4.90999985    2.80999994
   19.07333374   84.92849731    4.90999985    2.78999996
   19.07666779   86.56870270    4.90999985    2.80999994
   19.07972336   92.46520233    4.90999985    2.78999996
   19.08305550   91.80159760    4.90999985    2.80999994
   19.08638954   89.43740082    4.90999985    2.78999996
   19.08944511   87.85649872    4.90999985    2.78999996
   19.09277916   92.49079895    4.90999985    2.80999994
   19.09611130   90.83329773    4.90999985    2.78999996
   19.09916687   80.81909943    4.90999985    2.78999996
   19.09972191   85.81680298    4.90999985    2.78999996
   19.10527802   85.81680298    4.90999985    2.80999994
   19.10916710   84.91239929    4.90999985    2.78999996
   19.11250114   97.51470184    4.90999985    2.80999994
   19.11583328   85.97760010    4.90999985    2.78999996
   19.11888885   87.98310089    4.90999985    2.78999996
   19.12222290   87.03549957    4.90999985    2.80999994
   19.12555504   84.47720337    4.90999985    2.78999996
   19.12861061   89.17109680    4.90999985    2.78999996
   19.13194466   96.25720215    4.90999985    2.78999996
   19.13305473   89.35520172    4.90999985    2.80999994
   19.13555527   95.53710175    4.90999985    2.80999994
   19.13888931   90.80460358    4.90999985    2.80999994
   19.14194489   98.50679779    4.90999985    2.78999996
   19.14805603   98.50679779    4.90999985    2.78999996
   19.15222168   95.07430267    4.90999985    2.80999994
   19.15527725   96.81060028    4.90999985    2.78999996
   19.15861130   96.85579681    4.90999985    2.78999996
   19.16194344   90.00759888    4.90999985    2.78999996
   19.16499901   91.83370209    4.90999985    2.78999996
   19.16638756   90.50530243    4.90999985    2.80999994
   19.16860962   93.77079773    4.90999985    2.78999996
   19.17194366   86.64839935    4.90999985    2.78999996
   19.17499924   97.29519653    4.90999985    2.78999996
   19.17833328   88.04329681    4.90999985    2.78999996
   19.18166542   98.57550049    4.90999985    2.80999994
   19.18472099   89.54910278    4.90999985    2.78999996
   19.19083214   89.54910278    4.90999985    2.80999994
   19.19499969  104.48300171    4.90999985    2.80999994
   19.19833183   97.26170349    4.90999985    2.80999994
   19.19972038  102.86900330    4.90999985    2.78999996
   19.20194435   96.90679932    4.90999985    2.78999996
   19.20527840   93.80059814    4.90999985    2.80999994
   19.20833397   91.93890381    4.90999985    2.78999996
   19.21166801   86.07910156    4.90999985    2.80999994
   19.21500015   96.24700165    4.90999985    2.78999996
   19.21805573   86.95179749    4.90999985    2.80999994
   19.22138977   94.59889984    4.90999985    2.78999996
   19.22444534  102.06700134    4.90999985    2.80999994
   19.22777748   96.67320251    4.90999985    2.78999996
   19.23361206   96.67320251    4.90999985    2.78999996
   19.23777771   86.01280212    4.90999985    2.78999996
   19.24111176   91.74379730    4.90999985    2.78999996
   19.24416733  102.92800140    4.90999985    2.78999996
   19.24749947   93.79029846    4.90999985    2.78999996
   19.25083351   94.38929749    4.90999985    2.78999996
   19.25388908   85.53530121    4.90999985    2.78999996
   19.25722313   82.36060333    4.90999985    2.78999996
   19.26055527   84.98770142    4.90999985    2.78999996
   19.26361084   93.41310120    4.90999985    2.78999996
   19.26638794   85.93029785    4.90999985    2.78999996
   19.26722145   84.82610321    4.90999985    2.78999996
   19.27055550   91.16100311    4.90999985    2.78999996
   19.27666664   91.16100311    4.90999985    2.78999996
   19.28055573   90.31939697    4.90999985    2.78999996
   19.28388786   83.86540222    4.90999985    2.76999998
   19.28722191   83.31250000    4.90999985    2.78999996
   19.29027748   93.09249878    4.90999985    2.76999998
   19.29361153   87.34919739    4.90999985    2.78999996
   19.29694366   87.25000000    4.90999985    2.78999996
   19.29972076   83.89119720    4.90999985    2.78999996
   19.30055428   86.80699921    4.90999985    2.78999996
   19.30388832   89.05130005    4.90999985    2.78999996
   19.30694389   84.81109619    4.90999985    2.78999996
   19.31027794   86.61589813    4.90999985    2.78999996
   19.31361008   85.57340240    4.90999985    2.76999998
   19.31944466   85.57340240    4.90999985    2.78999996
   19.32361221   88.71089935    4.90999985    2.76999998
   19.32666779   85.09470367    4.90999985    2.78999996
   19.33000183   82.95349884    4.90999985    2.78999996
   19.33305550   84.21730042    4.90999985    2.78999996
   19.33361244   90.04810333    4.90999985    2.78999996
   19.33694458   83.87069702    4.90999985    2.76999998
   19.34000015   82.16280365    4.90999985    2.78999996
   19.34333420   87.61679840    4.90999985    2.78999996
   19.34666824   88.76909637    4.90999985    2.78999996
   19.34972191   86.35949707    4.90999985    2.76999998
   19.35305595   87.84339905    4.90999985    2.76999998
   19.35611153   92.22940063    4.90999985    2.78999996
   19.36222267   92.22940063    4.90999985    2.78999996
   19.36638832   87.77120209    4.90999985    2.78999996
   19.36694527   82.43340302    4.90999985    2.78999996
   19.37000084   97.57700348    4.90999985    2.76999998
   19.37333298   83.06189728    4.90999985    2.78999996
   19.37666702   85.52739716    4.90999985    2.78999996
   19.37972260   87.65319824    4.90999985    2.78999996
   19.38305473   91.95680237    4.90999985    2.76999998
   19.38638878   97.14240265    4.90999985    2.76999998
   19.38944435   87.66989899    4.90999985    2.76999998
   19.39277840  102.93499756    4.90999985    2.76999998
   19.39583397   86.20349884    4.90999985    2.76999998
   19.39916611   79.15450287    4.90999985    2.76999998
   19.40027809   85.30159760    4.90999985    2.76999998
   19.40499878   85.30159760    4.90999985    2.76999998
   19.40916634   91.03119659    4.90999985    2.76999998
   19.41250038   86.78620148    4.90999985    2.76999998
   19.41555595   82.78910065    4.90999985    2.78999996
   19.41888809   86.63529968    4.90999985    2.76999998
   19.42222214   87.56330109    4.90999985    2.78999996
   19.42527771   82.22119904    4.90999985    2.78999996
   19.42860985   83.89969635    4.90999985    2.76999998
   19.43194389   85.00620270    4.90999985    2.76999998
   19.43361092   96.66829681    4.90999985    2.78999996
   19.43527603   94.04959869    4.90999985    2.78999996
   19.43861008   83.73290253    4.90999985    2.76999998
   19.44194412   84.58740234    4.90999985    2.78999996
   19.44777679   84.58740234    4.90999985    2.76999998
   19.45194435   86.37670135    4.90999985    2.78999996
   19.45527840   88.15080261    4.90999985    2.78999996
   19.45861244   94.32900238    4.90999985    2.76999998
   19.46166801   84.40409851    4.90999985    2.76999998
   19.46500015   88.48880005    4.90999985    2.78999996
   19.46694565   92.49500275    4.90999985    2.78999996
   19.46861076   86.61029816    4.90999985    2.78999996
   19.47194481   90.83129883    4.90999985    2.78999996
   19.47527885   83.98200226    4.90999985    2.78999996
   19.47833443   87.27890015    4.90999985    2.76999998
   19.48166656   84.03119659    4.90999985    2.78999996
   19.48500061   87.38449860    4.90999985    2.78999996
   19.49083328   87.38449860    4.90999985    2.78999996
   19.49500084   86.05989838    4.90999985    2.86999989
   19.49805641   88.96459961    0.40000001    0.47999999
   19.50027847   86.76249695    0.31999999    0.36000001
   19.50166702   89.63279724    0.25000000    0.25000000
   19.50499916   84.80850220    0.17000000    0.05000000
   19.50833321   80.75710297    0.17000000    0.05000000
   19.51138878   87.76399994    0.17000000    0.05000000
   19.51472282   85.88069916    0.17000000    0.05000000
   19.51805496   83.13110352    0.17000000    0.05000000
   19.52111053   81.40019989    0.17000000    0.05000000
   19.52444458   89.78299713    0.17000000    0.05000000
   19.52750015   85.95140076    0.17000000    0.05000000
   19.53361130   85.95140076    0.17000000    0.05000000
   19.53777695   91.43289948    0.17000000    0.05000000
   19.54083252   99.26840210    0.17000000    0.05000000
   19.54416656   98.85479736    0.17000000    0.05000000
   19.54749870  104.42099762    0.17000000    0.05000000
   19.55055428  106.16699982    0.17000000    0.05000000
   19.55388832   97.64830017    0.17000000    0.05000000
   19.55722237  106.32700348    0.17000000    0.05000000
   19.56027794  104.66799927    0.17000000    0.05000000
   19.56361008  104.18099976    0.17000000    0.05000000
   19.56666756  105.37400055    0.17000000    0.05000000
   19.56722260  104.02500153    0.17000000    0.05000000
   19.57055664  107.81099701    0.17000000    0.05000000
   19.57638931  107.81099701    0.17000000    0.05000000
   19.58055687  110.02200317    0.17000000    0.05000000
   19.58388901  100.32900238    0.17000000    0.05000000
   19.58694458  100.51599884    0.17000000    0.05000000
   19.59027863   96.55829620    0.17000000    0.05000000
   19.59361267   90.85739899    0.17000000    0.05000000
   19.59666824   94.10130310    0.17000000    0.05000000
   19.60000038   99.99909973    0.17000000    0.05000000
   19.60055542  100.99700165    0.17000000    0.05000000
   19.60361099  100.99900055    0.17000000    0.05000000
   19.60694504   93.43550110    0.17000000    0.05000000
   19.61000061   82.97360229    0.17000000    0.05000000
   19.61333466   94.95140076    0.17000000    0.05000000
   19.61916733   94.95140076    0.17000000    0.05000000
   19.62333298   83.47589874    0.17000000    0.05000000
   19.62666702   85.49880219    0.17000000    0.05000000
   19.63000107   82.49040222    0.17000000    0.05000000
   19.63305473   86.08619690    0.17000000    0.05000000
   19.63388824   84.36380005    0.17000000    0.05000000
   19.63666725   84.10520172    0.17000000    0.05000000
   19.63999939   80.90149689    0.17000000    0.05000000
   19.64305496   86.37969971    0.17000000    0.05000000
   19.64638901   84.56950378    0.17000000    0.05000000
   19.64972115   84.38130188    0.17000000    0.05000000
   19.65277672   88.83910370    0.17000000    0.05000000
   19.65611076   86.03489685    0.17000000    0.05000000
   19.66222191   86.03489685    0.17000000    0.05000000
   19.66638756  182.85099792    0.17000000    0.05000000
   19.66722107   88.41449738    0.17000000    0.05000000
   19.67000008   87.55339813    0.17000000    0.05000000
   19.67333221   87.53309631    0.17000000    0.05000000
   19.67638779   94.36979675    0.17000000    0.05000000
   19.67972183   86.92960358    0.17000000    0.05000000
   19.68305397   81.95279694    0.17000000    0.05000000
   19.68610954   97.33989716    0.17000000    0.05000000
   19.68944359   94.71739960    0.17000000    0.05000000
   19.69249916   83.19049835    0.17000000    0.05000000
   19.69583321   80.10109711    0.17000000    0.05000000
   19.69916534   85.23410034    0.17000000    0.05000000
   19.70055580   91.96389771    0.17000000    0.05000000
   19.70499992   91.96389771    0.17000000    0.05000000
   19.70916748   84.25260162    0.17000000    0.05000000
   19.71222305   84.26689911    0.17000000    0.05000000
   19.71555710   94.59420013    0.17000000    0.05000000
   19.71888924   94.98570251    0.17000000    0.05000000
   19.72222328   93.57450104    0.17000000    0.05000000
   19.72527885   90.23090363    0.17000000    0.05000000
   19.72861099   96.37000275    0.17000000    0.05000000
   19.73166656   87.62670135    0.17000000    0.05000000
   19.73388863   87.70629883    0.17000000    0.05000000
   19.73527718   91.25900269    0.17000000    0.05000000
   19.73861122   87.72910309    0.17000000    0.05000000
   19.74166679   90.14769745    0.17000000    0.05000000
   19.74777794   90.14769745    0.17000000    0.05000000
   19.75194359   95.47530365    0.17000000    0.05000000
   19.75527763   86.64579773    0.17000000    0.05000000
   19.75833321   96.38839722    0.17000000    0.05000000
   19.76166725   99.09390259    0.17000000    0.05000000
   19.76499939   88.81549835    0.17000000    0.05000000
   19.76722145   89.85729980    0.17000000    0.05000000
   19.76861000   94.52330017    0.17000000    0.05000000
   19.77194405   88.84500122    0.17000000    0.05000000
   19.77499962   86.76909637    0.17000000    0.05000000
   19.77833366   89.80670166    0.17000000    0.05000000
   19.78166580   91.64350128    0.17000000    0.05000000
   19.78472137   88.08139801    0.17000000    0.05000000
   19.79055595   88.08139801    0.17000000    0.05000000
   19.79472160   79.67710114    0.17000000    0.05000000
   19.79805565   98.59989929    0.17000000    0.05000000
   19.80055428   84.30010223    0.17000000    0.05000000
   19.80166626   94.00279999    0.17000000    0.05000000
   19.80499840   88.97190094    0.17000000    0.05000000
   19.80805397   92.40660095    0.17000000    0.05000000
   19.81138802   91.64499664    0.17000000    0.05000000
   19.81472206   90.52490234    0.17000000    0.05000000
   19.81777954   83.54460144    0.17000000    0.05000000
   19.82111168   90.66860199    0.17000000    0.05000000
   19.82416725   99.30319977    0.17000000    0.05000000
   19.82750130   90.98339844    0.17000000    0.05000000
   19.83361244   90.98339844    0.17000000    0.05000000
   19.85194397   89.51470184    0.17000000    0.05000000
   19.85499954   96.50350189    0.17000000    0.05000000
   19.85833359   91.78610229    0.17000000    0.05000000
   19.86166763   86.31230164    0.17000000    0.05000000
   19.86472321   88.68879700    0.17000000    0.05000000
   19.86805534   87.15039825    0.17000000    0.05000000
   19.87138939   83.53350067    0.17000000    0.05000000
   19.87666702   83.53350067    0.17000000    0.05000000
   19.88083267   86.92440033    0.17000000    0.05000000
   19.88388824   83.38030243    0.17000000    0.05000000
   19.88500023   82.05010223    0.17000000    0.05000000
   19.88777733   83.20760345    0.17000000    0.05000000
   19.89083290   82.51470184    0.17000000    0.05000000
   19.89416695   83.70210266    0.17000000    0.05000000
   19.89722252   85.84559631    0.17000000    0.05000000
   19.90055466   83.44830322    0.17000000    0.05000000
   19.90388870   83.69879913    0.17000000    0.05000000
   19.90694427   85.56759644    0.17000000    0.05000000
   19.91027832   82.81839752    0.17000000    0.05000000
   19.91361046   83.31990051    0.17000000    0.05000000
   19.91944313   83.31990051    0.17000000    0.05000000
   19.92361069   86.11560059    0.17000000    0.05000000
   19.92694473   89.72830200    0.17000000    0.05000000
   19.93000031   83.70770264    0.17000000    0.05000000
   19.93333244   93.15370178    0.17000000    0.05000000
   19.93638802   83.20919800    0.17000000    0.05000000
   19.93972206   85.41519928    0.17000000    0.05000000
   19.94305420   84.36759949    0.17000000    0.05000000
   19.94610977   85.40910339    0.17000000    0.05000000
   19.94944382   91.69270325    0.17000000    0.05000000
   19.95166779   80.47850037    0.17000000    0.05000000
   19.95333481   82.44349670    0.17000000    0.05000000
   19.95639038   87.59960175    0.17000000    0.05000000
   19.96222305   87.59960175    0.17000000    0.05000000
   19.96638870   86.97299957    0.17000000    0.05000000
   19.96972275   89.11620331    0.17000000    0.05000000
   19.97277832   83.80979919    0.17000000    0.05000000
   19.97611237   84.54850006    0.17000000    0.05000000
   19.97944450   87.32330322    0.17000000    0.05000000
   19.98250008   87.09030151    0.17000000    0.05000000
   19.98500061   84.86389923    0.17000000    0.05000000
   19.98611069   86.64630127    0.17000000    0.05000000
   19.98944473   87.95659637    0.17000000    0.05000000
   19.99277878   80.54299927    0.17000000    0.05000000
   19.99583435   88.16870117    0.17000000    0.05000000
   19.99916649   91.88300323    0.17000000    0.05000000
   20.00499916   91.88300323    0.17000000    0.05000000
   20.00916672   84.92220306    0.17000000    0.05000000
   20.01250076   85.79540253    0.17000000    0.05000000
   20.01583290   86.66880035    0.17000000    0.05000000
   20.01833344   82.10639954    0.17000000    0.05000000
   20.01916695   91.64669800    0.17000000    0.05000000
   20.02249908   85.25229645    0.17000000    0.05000000
   20.02583313   88.07559967    0.17000000    0.05000000
   20.02888870   82.93759918    0.17000000    0.05000000
   20.03222275   86.70960236    0.17000000    0.05000000
   20.03555489   85.18329620    0.17000000    0.05000000
   20.03861046   86.42140198    0.17000000    0.05000000
   20.04194450   85.04070282    0.17000000    0.05000000
   20.04805565   85.04070282    0.17000000    0.05000000
   20.05222130   86.15499878    0.17000000    0.05000000
   20.05527687   82.58679962    0.17000000    0.05000000
   20.05861092   89.53669739    0.17000000    0.05000000
   20.06194305   84.83090210    0.17000000    0.05000000
   20.06499863   86.89469910    0.17000000    0.05000000
   20.06833458   85.77670288    0.17000000    0.05000000
   20.07139015   88.42410278    0.17000000    0.05000000
   20.07472229   83.81289673    0.17000000    0.05000000
   20.07805634   83.25370026    0.17000000    0.05000000
   20.08111191   89.30110168    0.17000000    0.05000000
   20.08444595   81.79309845    0.17000000    0.05000000
   20.08500099   86.56719971    0.17000000    0.05000000
   20.09083366   86.56719971    0.17000000    0.05000000
   20.09500122   90.83480072    0.17000000    0.05000000
   20.09805679  100.98000336    0.17000000    0.05000000
   20.10138893   91.10839844    0.17000000    0.05000000
   20.10472298   93.05039978    0.17000000    0.05000000
   20.10777855   87.37560272    0.17000000    0.05000000
   20.11111069   86.89859772    0.17000000    0.05000000
   20.11444473   90.32810211    0.17000000    0.05000000
   20.11750031   89.58180237    0.17000000    0.05000000
   20.11833382   91.96640015    0.17000000    0.05000000
   20.12138939   84.39099884    0.17000000    0.05000000
   20.12444496   79.04689789    0.17000000    0.05000000
   20.12777710   81.67050171    0.17000000    0.05000000
   20.13361168   81.67050171    0.17000000    0.05000000
   20.13777733   88.39669800    0.17000000    0.05000000
   20.14111137   86.58860016    0.17000000    0.05000000
   20.14416695   87.77570343    0.17000000    0.05000000
   20.14749908   85.77950287    0.17000000    0.05000000
   20.15083313   88.77050018    0.17000000    0.05000000
   20.15166664   90.84259796    0.17000000    0.05000000
   20.15444374   86.29199982    0.17000000    0.05000000
   20.15749931   81.96420288    0.17000000    0.05000000
   20.16083336   92.40760040    0.17000000    0.05000000
   20.16416550   83.93109894    0.17000000    0.05000000
   20.16722107   91.02539825    0.17000000    0.05000000
   20.17055511   91.99759674    0.17000000    0.05000000
   20.17638779   91.99759674    0.17000000    0.05000000
   20.18055534   92.99720001    0.17000000    0.05000000
   20.18388748   84.30619812    0.17000000    0.05000000
   20.18499947   83.23400116    0.17000000    0.05000000
   20.18750000   85.47209930    0.17000000    0.05000000
   20.19055557   85.50869751    0.17000000    0.05000000
   20.19388771   86.42539978    0.17000000    0.05000000
   20.19694328   94.53970337    0.17000000    0.05000000
   20.20027924   89.92150116    0.17000000    0.05000000
   20.20361137   85.11389923    0.17000000    0.05000000
   20.20666695   89.10839844    0.17000000    0.05000000
   20.21000099   84.76580048    0.17000000    0.05000000
   20.21333504   88.09200287    0.17000000    0.05000000
   20.21944427   88.09200287    0.17000000    0.05000000
   20.22361183   85.62149811    0.17000000    0.05000000
   20.22666740   82.85269928    0.17000000    0.05000000
   20.23000145   91.81510162    0.17000000    0.05000000
   20.23305511   88.33309937    0.17000000    0.05000000
   20.23638916   81.56390381    0.17000000    0.05000000
   20.23972321   90.17769623    0.17000000    0.05000000
   20.24277878   85.89250183    0.17000000    0.05000000
   20.24611092   88.75080109    0.17000000    0.05000000
   20.24944496   82.52539825    0.17000000    0.05000000
   20.25166702   90.84660339    0.17000000    0.05000000
   20.25305557   84.96669769    0.17000000    0.05000000
   20.25611115   83.06690216    0.17000000    0.05000000
   20.26222229   83.06690216    0.17000000    0.05000000
   20.26638794   89.54209900    0.17000000    0.05000000
   20.26944351   79.34940338    0.17000000    0.05000000
   20.27277756   88.89769745    0.17000000    0.05000000
   20.27611160   87.84390259    0.17000000    0.05000000
   20.27916718   92.02770233    0.17000000    0.05000000
   20.28249931   86.60939789    0.17000000    0.05000000
   20.28499985   87.97290039    0.17000000    0.05000000
   20.28610992   82.52330017    0.17000000    0.05000000
   20.28916550   83.45520020    0.17000000    0.05000000
   20.29249954   81.88870239    0.17000000    0.05000000
   20.29583359   86.12030029    0.17000000    0.05000000
   20.29888916   90.53919983    0.17000000    0.05000000
   20.30499840   90.53919983    0.17000000    0.05000000
   20.30916595   91.58039856    0.17000000    0.05000000
   20.31250000   80.50350189    0.17000000    0.05000000
   20.31555557   88.54419708    0.17000000    0.05000000
   20.31833458   84.07779694    0.17000000    0.05000000
   20.31944466   81.25550079    0.17000000    0.05000000
   20.32250023   91.21790314    0.17000000    0.05000000
   20.32583427   85.21399689    0.17000000    0.05000000
   20.32916832   83.20809937    0.17000000    0.05000000
   20.33222389   86.36509705    0.17000000    0.05000000
   20.33555603   86.31929779    0.17000000    0.05000000
   20.33861160   83.51249695    0.17000000    0.05000000
   20.34194565   88.55030060    0.17000000    0.05000000
   20.34777832   88.55030060    0.17000000    0.05000000
   20.35194397   85.47869873    0.17000000    0.05000000
   20.35527802   85.68730164    0.17000000    0.05000000
   20.35861206   88.79630280    0.17000000    0.05000000
   20.36166763   87.38200378    0.17000000    0.05000000
   20.36499977   87.22989655    0.17000000    0.05000000
   20.36805534   82.65039825    0.17000000    0.05000000
   20.37138939   83.37640381    0.17000000    0.05000000
   20.37472153   89.39849854    0.17000000    0.05000000
   20.37777710   89.22840118    0.17000000    0.05000000
   20.38111115   84.78230286    0.17000000    0.05000000
   20.38444519   91.78559875    0.17000000    0.05000000
   20.38500023   89.42120361    0.17000000    0.05000000
   20.39083290   89.42120361    0.17000000    0.05000000
   20.39500046   89.42079926    0.17000000    0.05000000
   20.39805603   84.67810059    0.17000000    0.05000000
   20.40138817   84.01110077    0.17000000    0.05000000
   20.40444374   86.56990051    0.17000000    0.05000000
   20.40777779   88.12899780    0.17000000    0.05000000
   20.41110992   82.21469879    0.17000000    0.05000000
   20.41444397   91.06390381    0.17000000    0.05000000
   20.41749954   91.99490356    0.17000000    0.05000000
   20.41833305   87.20339966    0.17000000    0.05000000
   20.42111015   88.81520081    0.17000000    0.05000000
   20.42416573   87.16850281    0.17000000    0.05000000
   20.42749977   92.45649719    0.17000000    0.05000000
   20.43361092   92.45649719    0.17000000    0.05000000
   20.43777657   86.13200378    0.17000000    0.05000000
   20.44083214   93.13040161    0.17000000    0.05000000
   20.44416618   92.53600311    0.17000000    0.05000000
   20.44749832   88.65989685    0.17000000    0.05000000
   20.45055580   86.94950104    0.17000000    0.05000000
   20.45166779   89.97000122    0.17000000    0.05000000
   20.45444489   96.42169952    0.17000000    0.05000000
   20.45750046  104.30100250    0.17000000    0.05000000
   20.46083450  103.15599823    0.17000000    0.05000000
   20.46416664   91.28929901    0.17000000    0.05000000
   20.46722221   98.62509918    0.17000000    0.05000000
   20.47055626   91.49819946    0.17000000    0.05000000
   20.47638893   91.49819946    0.17000000    0.05000000
   20.48055649  100.36499786    0.17000000    0.05000000
   20.48388863   92.83709717    0.17000000    0.05000000
   20.48500061   96.31600189    0.17000000    0.05000000
   20.48750114   90.21970367    0.17000000    0.05000000
   20.49083328   93.78070068    0.17000000    0.05000000
   20.49388885  105.98999786    0.17000000    0.05000000
   20.49722290  104.45999908    0.17000000    0.05000000
   20.50027847   97.64450073    0.17000000    0.05000000
   20.50361061  109.33799744    0.17000000    0.05000000
   20.50694466   99.22270203    0.17000000    0.05000000
   20.51000023  116.82599640    0.17000000    0.05000000
   20.51333427  109.58300018    0.17000000    0.05000000
   20.51916695  109.58300018    0.17000000    0.05000000
   20.52333260  101.69400024    0.17000000    0.05000000
   20.52666664  104.86699677    0.17000000    0.05000000
   20.53000069  108.45600128    0.17000000    0.05000000
   20.53305435  118.55799866    0.17000000    0.05000000
   20.53638840  128.60800171    0.17000000    0.05000000
   20.53944397   97.10600281    0.17000000    0.05000000
   20.54277802   93.11900330    0.17000000    0.05000000
   20.54611015  102.77999878    0.17000000    0.05000000
   20.54916573  109.21700287    0.17000000    0.05000000
   20.55166626  103.27400208    0.17000000    0.05000000
   20.55305481  117.82399750    0.17000000    0.05000000
   20.55611038   87.59609985    0.17000000    0.05000000
   20.56222153   87.59609985    0.17000000    0.05000000
   20.56638718  112.74500275    0.17000000    0.05000000
   20.56944466  100.46800232    0.17000000    0.05000000
   20.57277870  104.57199860    0.17000000    0.05000000
   20.57583427  106.63999939    0.17000000    0.05000000
   20.57916832  109.47100067    0.17000000    0.05000000
   20.58250046  108.57800293    0.17000000    0.05000000
   20.58500099  122.38899994    0.17000000    0.05000000
   20.58611107  115.14299774    0.17000000    0.05000000
   20.58916664  112.19300079    0.17000000    0.05000000
   20.59250069  109.02200317    0.17000000    0.05000000
   20.59583473  105.20999908    0.17000000    0.05000000
   20.59889030  119.04799652    0.17000000    0.05000000
   20.60499954  119.04799652    0.17000000    0.05000000
   20.60916710  110.22699738    0.17000000    0.05000000
   20.61222267  109.34100342    0.17000000    0.05000000
   20.61555672  103.79499817    0.17000000    0.05000000
   20.61833382  119.91999817    0.17000000    0.05000000
   20.61916733  117.18900299    0.17000000    0.05000000
   20.62222290   94.49479675    0.17000000    0.05000000
   20.62555504  110.29599762    0.17000000    0.05000000
   20.62888908  109.09300232    0.17000000    0.05000000
   20.63194466  103.32800293    0.17000000    0.05000000
   20.63527679  113.60800171    0.17000000    0.05000000
   20.63861084  104.43900299    0.17000000    0.05000000
   20.64166641   96.33110046    0.17000000    0.05000000
   20.64777756   96.33110046    0.17000000    0.05000000
   20.65194321   98.40959930    0.17000000    0.05000000
   20.65527725  104.53700256    0.17000000    0.05000000
   20.65833282  110.26200104    0.17000000    0.05000000
   20.66166687   99.39730072    0.17000000    0.05000000
   20.66499901  113.63300323    0.17000000    0.05000000
   20.66805458  108.53399658    0.17000000    0.05000000
   20.67138863  113.31999969    0.17000000    0.05000000
   20.67444420   98.45369720    0.17000000    0.05000000
   20.67777634   93.29599762    0.17000000    0.05000000
   20.68111038  100.66600037    0.17000000    0.05000000
   20.68416595  104.89399719    0.17000000    0.05000000
   20.68499947   99.38050079    0.17000000    0.05000000
   20.69055557   99.38050079    0.17000000    0.05000000
   20.69472122  100.01399994    0.17000000    0.05000000
   20.69805527   99.35099792    0.17000000    0.05000000
   20.70138931   96.40039825    0.17000000    0.05000000
   20.70444489  100.94499969    0.17000000    0.05000000
   20.70777893   87.16850281    0.17000000    0.05000000
   20.71083450  111.74900055    0.17000000    0.05000000
   20.71416664  110.79000092    0.17000000    0.05000000
   20.71750069  118.82599640    0.17000000    0.05000000
   20.71833420  118.33599854    0.17000000    0.05000000
   20.72111130  109.78399658    0.17000000    0.05000000
   20.72444534  102.74800110    0.17000000    0.05000000
   20.72750092  111.25199890    0.17000000    0.05000000
   20.73361206  111.25199890    0.17000000    0.05000000
   20.73777771  122.19300079    0.17000000    0.05000000
   20.74083328  110.71299744    0.17000000    0.05000000
   20.74416733  124.66600037    0.17000000    0.05000000
   20.74749947  103.62799835    0.17000000    0.05000000
   20.75055504  122.51200104    0.17000000    0.05000000
   20.75166702  131.59300232    0.17000000    0.05000000
   20.75416756   99.84760284    0.17000000    0.05000000
   20.75749969  112.79199982    0.17000000    0.05000000
   20.76055527  113.82499695    0.17000000    0.05000000
   20.76388931  104.95200348    0.17000000    0.05000000
   20.76694489  107.58300018    0.17000000    0.05000000
   20.77027702  110.60199738    0.17000000    0.05000000
   20.77638817  110.60199738    0.17000000    0.05000000
   20.78055573  117.21700287    0.17000000    0.05000000
   20.78361130  115.69200134    0.17000000    0.05000000
   20.78499985   93.58619690    0.17000000    0.05000000
   20.78722191  107.43800354    0.17000000    0.05000000
   20.79055595   96.74150085    0.17000000    0.05000000
   20.79361153  104.25399780    0.17000000    0.05000000
   20.79694366  102.09400177    0.17000000    0.05000000
   20.79999924  106.94000244    0.17000000    0.05000000
   20.80333328   97.89080048    0.17000000    0.05000000
   20.80666542  109.17199707    0.17000000    0.05000000
   20.80972099   96.57409668    0.17000000    0.05000000
   20.81305504  112.49700165    0.17000000    0.05000000
   20.81916809  112.49700165    0.17000000    0.05000000
   20.82333374  112.43699646    0.17000000    0.05000000
   20.82666779  111.55000305    0.17000000    0.05000000
   20.82972336  111.63099670    0.17000000    0.05000000
   20.83305550  103.14199829    0.17000000    0.05000000
   20.83638954  105.62799835    0.17000000    0.05000000
   20.83944511   97.67070007    0.17000000    0.05000000
   20.84277916  105.39199829    0.17000000    0.05000000
   20.84583473  109.18199921    0.17000000    0.05000000
   20.84916687  102.69699860    0.17000000    0.05000000
   20.85166740  108.00900269    0.17000000    0.05000000
   20.87249947  108.00900269    0.17000000    0.05000000
   20.87638855  118.16200256    0.17000000    0.05000000
   20.87972260  103.45700073    0.17000000    0.05000000
   20.88305473  101.39299774    0.17000000    0.05000000
   20.88500023  100.23600006    0.17000000    0.05000000
   20.88666725  102.95700073    0.17000000    0.05000000
   20.88999939  112.62699890    0.17000000    0.05000000
   20.89305496  103.36199951    0.17000000    0.05000000
   20.89638901  115.25199890    0.17000000    0.05000000
   20.89944458  101.92199707    0.17000000    0.05000000
   20.90277672  100.91999817    0.17000000    0.05000000
   20.90611076  129.89500427    0.17000000    0.05000000
   20.90916634   96.30509949    0.17000000    0.05000000
   20.91499901   96.30509949    0.17000000    0.05000000
   20.91916656  118.04199982    0.17000000    0.05000000
   20.92249870  116.83200073    0.17000000    0.05000000
   20.92583275  101.36699677    0.17000000    0.05000000
   20.92888832  113.82900238    0.17000000    0.05000000
   20.93222237  111.67099762    0.17000000    0.05000000
   20.93527603  119.35099792    0.17000000    0.05000000
   20.93861008  116.48400116    0.17000000    0.05000000
   20.94194412  118.96399689    0.17000000    0.05000000
   20.94499969  112.38899994    0.17000000    0.05000000
   20.94833183  112.13999939    0.17000000    0.05000000
   20.95166779  103.66300201    0.17000000    0.05000000
   20.95194435   97.04299927    0.17000000    0.05000000
   20.95805550   97.04299927    0.17000000    0.05000000
   20.96222305  117.07199860    0.17000000    0.05000000
   20.96527863  115.69400024    0.17000000    0.05000000
   20.96861076  115.62599945    0.17000000    0.05000000
   20.97166634  107.17700195    0.17000000    0.05000000
   20.97500038  103.85500336    0.17000000    0.05000000
   20.97833443  111.78700256    0.17000000    0.05000000
   20.98139000  110.60500336    0.17000000    0.05000000
   20.98472214  110.80599976    0.17000000    0.05000000
   20.98527718   98.86849976    0.17000000    0.05000000
   20.98833275  109.20700073    0.17000000    0.05000000
   20.99166679  113.26999664    0.17000000    0.05000000
   20.99472237  116.87500000    0.17000000    0.05000000
   21.00083351  116.87500000    0.17000000    0.05000000
   21.00499916  115.58000183    0.17000000    0.05000000
   21.00805473  118.72699738    0.17000000    0.05000000
   21.01138878  121.73200226    0.17000000    0.05000000
   21.01472282  117.86799622    0.17000000    0.05000000
   21.01777840  116.41100311    0.17000000    0.05000000
   21.01861000  120.15299988    0.17000000    0.05000000
   21.02138901  106.23100281    0.17000000    0.05000000
   21.02472115  108.27899933    0.17000000    0.05000000
   21.02777672  115.26899719    0.17000000    0.05000000
   21.03111076   96.86759949    0.17000000    0.05000000
   21.03444481  117.98899841    0.17000000    0.05000000
   21.03750038   94.09970093    0.17000000    0.05000000
   21.04361153   94.09970093    0.17000000    0.05000000
   21.04777718  124.40899658    0.17000000    0.05000000
   21.05111122  102.28500366    0.17000000    0.05000000
   21.05194283  111.86199951    0.17000000    0.05000000
   21.05472183  105.25299835    0.17000000    0.05000000
   21.05805397  120.58899689    0.17000000    0.05000000
   21.06110954  136.09500122    0.17000000    0.05000000
   21.06444359  118.21800232    0.17000000    0.05000000
   21.06777954  117.70800018    0.17000000    0.05000000
   21.07083511  113.01799774    0.17000000    0.05000000
   21.07416725  121.76599884    0.17000000    0.05000000
   21.07750130  103.35099792    0.17000000    0.05000000
   21.08055687  120.52200317    0.17000000    0.05000000
   21.08638954  120.52200317    0.17000000    0.05000000
   21.09055710  115.19400024    0.17000000    0.05000000
   21.09416771  108.04900360    0.17000000    0.05000000
   21.09749985  117.30200195    0.17000000    0.05000000
   21.10055542  100.54799652    0.17000000    0.05000000
   21.10388947  106.80699921    0.17000000    0.05000000
   21.10694504  113.87999725    0.17000000    0.05000000
   21.11027908  125.84799957    0.17000000    0.05000000
   21.11361122  104.49900055    0.17000000    0.05000000
   21.11666679  113.84500122    0.17000000    0.05000000
   21.11861038  110.27999878    0.17000000    0.05000000
   21.12027740  105.07900238    0.17000000    0.05000000
   21.12361145  120.15699768    0.17000000    0.05000000
   21.12944412  120.15699768    0.17000000    0.05000000
   21.13333321  107.71800232    0.17000000    0.05000000
   21.13666725  103.76100159    0.17000000    0.05000000
   21.13999939  120.70700073    0.17000000    0.05000000
   21.14305496  110.32499695    0.17000000    0.05000000
   21.14638901  120.92900085    0.17000000    0.05000000
   21.14972115  120.05699921    0.17000000    0.05000000
   21.15194321  105.91500092    0.17000000    0.05000000
   21.15333366  103.68099976    0.17000000    0.05000000
   21.15666580  126.03700256    0.17000000    0.05000000
   21.15972137  114.37100220    0.17000000    0.05000000
   21.16305542  129.52900696    0.17000000    0.05000000
   21.16638756   97.48459625    0.17000000    0.05000000
   21.17222214   97.48459625    0.17000000    0.05000000
   21.17638779  117.71900177    0.17000000    0.05000000
   21.17944336  120.04399872    0.17000000    0.05000000
   21.18277740  131.51300049    0.17000000    0.05000000
   21.18555450  115.39800262    0.17000000    0.05000000
   21.18638802  118.35600281    0.17000000    0.05000000
   21.18972206  124.91600037    0.17000000    0.05000000
   21.19277763  125.43800354    0.17000000    0.05000000
   21.19610977  111.92800140    0.17000000    0.05000000
   21.19944382  132.41900635    0.17000000    0.05000000
   21.20250130  129.18600464    0.17000000    0.05000000
   21.20583344  128.53199768    0.17000000    0.05000000
   21.20916748  144.85400391    0.17000000    0.05000000
   21.21500015  144.85400391    0.17000000    0.05000000
   21.21916771  117.66899872    0.17000000    0.05000000
   21.22389030  121.47200012    0.17000000    0.05000000
   21.22833443  108.83399963    0.17000000    0.05000000
   21.23166656  122.65000153    0.17000000    0.05000000
   21.23472214  107.39199829    0.17000000    0.05000000
   21.23805618  128.95500183    0.17000000    0.05000000
   21.24194527  119.97399902    0.17000000    0.05000000
   21.24500084  117.37899780    0.17000000    0.05000000
   21.25083351  128.19799805    0.17000000    0.05000000
   21.25222206  119.75800323    0.17000000    0.05000000
   21.25777817  119.75800323    0.17000000    0.05000000
   21.26194382  108.00299835    0.17000000    0.05000000
   21.26527786  121.02100372    0.17000000    0.05000000
   21.26833344  106.59400177    0.17000000    0.05000000
   21.27166557  124.85500336    0.17000000    0.05000000
   21.27499962  121.74400330    0.17000000    0.05000000
   21.27805519  126.27799988    0.17000000    0.05000000
   21.28138924  145.05000305    0.17000000    0.05000000
   21.28472137  125.49500275    0.17000000    0.05000000
   21.28555489  115.39600372    0.17000000    0.05000000
   21.28833199  126.16200256    0.17000000    0.05000000
   21.29166603  121.00499725    0.17000000    0.05000000
