    HOUR (UT)   FLARE FACTOR    SKY TESTER    SUN TESTER
   12.38944435   -1.00000000   -1.00000000   -1.00000000
   12.51888847  157.85200500    4.90999985    2.39000010
   12.52222157  151.01699829    4.90999985    2.36999989
   12.52555561  162.86199951    4.90999985    2.28999996
   12.52861118  167.14799500    4.90999985    2.09999990
   12.53194427  257.19400024    4.90999985    1.88000000
   12.53527832  124.55300140    4.90999985    1.78999996
   12.53916740  124.55300140    4.90999985    1.96000004
   12.54333401  148.37199402    4.90999985    2.23000002
   12.54666710  168.71800232    4.90999985    2.39000010
   12.55000019  158.64399719    4.90999985    2.39000010
   12.55222225  163.31799316    4.90999985    2.39000010
   12.55361176  160.25199890    4.90999985    2.36999989
   12.55694485  158.04200745    4.90999985    2.36999989
   12.56000042  155.83099365    4.90999985    2.36999989
   12.56333351  150.85899353    4.90999985    2.34999990
   12.56638908  156.12300110    4.59999990    2.34999990
   12.56972218  148.29600525    3.61999989    2.34999990
   12.57305527  155.15199280    2.93000007    2.34999990
   12.57611084  148.14199829    2.32999992    2.34999990
   12.58222198  148.14199829    4.90999985    2.46000004
   12.58638859  155.39799500    4.90999985    2.44000006
   12.58944416  150.76100159    4.90999985    2.46000004
   12.59277725  168.67999268    4.90999985    2.46000004
   12.59583282  153.89700317    4.90999985    2.46000004
   12.59916592  166.79400635    4.90999985    2.48000002
   12.60249996  156.90299988    4.90999985    2.46000004
   12.60555553  153.47000122    4.90999985    2.46000004
   12.60888958  151.52900696    4.90999985    2.46000004
   12.61222267  159.40499878    4.90999985    2.46000004
   12.61527824  147.67999268    4.90999985    2.46000004
   12.61861134  149.69400024    4.90999985    2.46000004
   12.61916637  152.35099792    4.90999985    2.46000004
   12.62500000  152.35099792    4.90999985    2.46000004
   12.62916660  151.69000244    4.90999985    2.46000004
   12.63222218  148.96600342    4.90999985    2.46000004
   12.63555527  146.50000000    4.90999985    2.46000004
   12.63888836  151.08999634    4.90999985    2.44000006
   12.64194393  147.83700562    4.90999985    2.42000008
   12.64527798  155.13800049    4.90999985    2.40000010
   12.64861107  150.19299316    4.90999985    2.39000010
   12.65166664  163.11300659    4.90999985    2.39000010
   12.65249920  155.60800171    4.90999985    2.39000010
   12.65527725  161.64300537    4.90999985    2.39000010
   12.65861034  160.74699402    4.90999985    2.32999992
   12.66194439  171.56700134    4.90999985    2.30999994
   12.66777802  171.56700134    4.90999985    2.34999990
   12.67194462  159.86599731    4.90999985    2.36999989
   12.67527771  157.93499756    4.90999985    2.40000010
   12.67833328  165.61300659    4.90999985    2.40000010
   12.68166733  149.47799683    4.90999985    2.39000010
   12.68500042  147.66900635    4.90999985    2.40000010
   12.68583298  153.18800354    4.90999985    2.40000010
   12.68833351  153.48500061    4.90999985    2.42000008
   12.69166660  159.48899841    4.90999985    2.42000008
   12.69499969  156.79200745    4.90999985    2.42000008
   12.69805527  166.46699524    4.90999985    2.36999989
   12.70138836  161.51400757    4.90999985    2.32999992
   12.70472240  164.99499512    4.90999985    2.32999992
   12.71055508  164.99499512    4.90999985    2.25000000
   12.71472168  192.35499573    4.90999985    2.17000008
   12.71805477  199.53999329    4.90999985    2.13000011
   12.71916580  186.38499451    4.90999985    2.11999989
   12.72166634  193.24800110    4.90999985    2.11999989
   12.72499943  191.74000549    4.90999985    2.11999989
   12.72833252  176.25999451    4.90999985    2.09999990
   12.73138809  189.66299438    4.90999985    2.05999994
   12.73472214  182.44999695    4.90999985    2.09999990
   12.73805618  173.47999573    4.90999985    2.19000006
   12.74111176  175.21299744    4.90999985    2.23000002
   12.74444485  161.72700500    4.90999985    2.25000000
   12.74777794  173.46299744    4.90999985    2.26999998
   12.75361156  173.46299744    4.90999985    2.30999994
   12.75777817  152.86199951    4.90999985    2.32999992
   12.76083374  157.25000000    4.90999985    2.34999990
   12.76444435  165.48500061    4.90999985    2.34999990
   12.76777744  173.26499939    4.90999985    2.30999994
   12.77083302  164.92599487    4.90999985    2.28999996
   12.77416611  158.32200623    4.90999985    2.28999996
   12.77722168  169.09100342    4.90999985    2.28999996
   12.78055573  144.96200562    4.90999985    2.30999994
   12.78388977  159.80499268    4.90999985    2.34999990
   12.78583336  158.44299316    4.90999985    2.34999990
   12.78722286  166.45799255    4.90999985    2.36999989
   12.79055595  171.45300293    4.90999985    2.32999992
   12.79638958  171.45300293    4.90999985    2.34999990
   12.80055618  198.74499512    4.90999985    2.25000000
   12.80361176  170.50799561    4.90999985    2.23000002
   12.80694485  165.56900024    4.90999985    2.28999996
   12.81027794  164.81199646    4.90999985    2.32999992
   12.81333351  171.86399841    4.90999985    2.32999992
   12.81666660  172.28399658    4.90999985    2.30999994
   12.81916618  166.33900452    4.90999985    2.30999994
   12.82027817  180.53500366    4.90999985    2.28999996
   12.82361126  161.05499268    4.90999985    2.30999994
   12.82694435  176.53500366    4.90999985    2.32999992
   12.82999992  190.43499756    4.90999985    2.30999994
   12.83333302  185.14300537    4.90999985    2.23000002
   12.83916664  185.14300537    4.90999985    2.21000004
   12.84333324  216.71400452    4.90999985    2.13000011
   12.84666634  237.06900024    4.90999985    2.00000000
   12.84972191  200.84599304    4.90999985    1.98000002
   12.85249996  216.70899963    4.90999985    1.98000002
   12.85333347  219.81900024    4.90999985    1.96000004
   12.85666752  242.78999329    4.90999985    1.91999996
   12.85972214  256.48999023    4.90999985    1.91999996
   12.86305618  237.33099365    4.90999985    1.85000002
   12.86638927  226.90199280    4.90999985    1.85000002
   12.86944485  270.76699829    4.90999985    1.91999996
   12.87277794  236.02699280    4.90999985    1.88000000
   12.87611103  204.24499512    4.90999985    1.85000002
   12.88194466  204.24499512    4.90999985    1.75000000
   12.88611126  248.52299500    4.90999985    1.78999996
   12.88944435  240.49899292    4.90999985    1.85000002
   12.89249992  263.25201416    4.90999985    1.88000000
   12.89583302  259.77200317    4.90999985    1.91999996
   12.89916611  219.55700684    4.90999985    1.96000004
   12.90222168  240.88600159    4.90999985    2.00000000
   12.90555477  270.95498657    4.90999985    2.00000000
   12.90861034  262.23498535    4.90999985    1.94000006
   12.91194439  269.14001465    4.90999985    1.86000001
   12.91527748  241.80599976    4.90999985    1.83000004
   12.91833401  283.78201294    4.90999985    1.85000002
   12.91916656  276.83200073    4.90999985    1.85000002
   12.92472267  276.83200073    4.90999985    1.88000000
   12.92888927  307.39401245    4.90999985    1.88000000
   12.93222237  248.62399292    4.90999985    1.89999998
   12.93555546  280.28298950    4.90999985    1.91999996
   12.93861103  252.83399963    4.90999985    1.96000004
   12.94194412  222.67100525    4.90999985    1.98000002
   12.94527817  230.83799744    4.90999985    2.03999996
   12.94833374  239.80999756    4.90999985    2.01999998
   12.95166683  250.92100525    4.90999985    1.96000004
   12.95277786  265.08300781    4.90999985    1.98000002
   12.95555496  229.23800659    4.90999985    1.98000002
   12.95861053  211.09899902    4.90999985    2.01999998
   12.96194458  212.45500183    4.90999985    2.07999992
   12.96777725  212.45500183    4.90999985    2.00000000
   12.97194386  307.97399902    4.90999985    1.98000002
   12.97499943  266.60900879    4.90999985    1.91999996
   12.97833252  230.55499268    4.90999985    1.86000001
   12.98166656  145.80000305    4.90999985    1.80999994
   12.98472214  137.26899719    4.90999985    1.75000000
   12.98583317  119.22000122    4.90999985    1.73000002
   12.98861122  116.52400208    4.90999985    1.73000002
   12.99166679  133.91600037    4.90999985    1.71000004
   12.99499989  110.15499878    4.90999985    1.63000000
   12.99805546   20.41010094    4.90999985    1.60000002
   13.00138855  157.33099365    4.90999985    1.63000000
   13.00472260  143.58299255    4.90999985    1.71000004
   13.01055527  143.58299255    4.90999985    1.80999994
   13.01472187  236.01300049    4.90999985    1.78999996
   13.01805496  260.89599609    4.90999985    1.83000004
   13.01916599  315.16500854    4.90999985    1.83000004
   13.02138901  284.42001343    4.90999985    1.86000001
   13.02472210  275.03500366    4.90999985    1.91999996
   13.02805519  259.26699829    4.90999985    1.96000004
   13.03111076  269.61499023    4.90999985    1.98000002
   13.03444481  267.64999390    4.90999985    1.94000006
   13.03777790  193.81500244    4.90999985    2.00000000
   13.04083347  226.50700378    4.90999985    2.09999990
   13.04416752  203.09599304    4.90999985    2.15000010
   13.04722309  200.62800598    4.90999985    2.19000006
   13.05333328  200.62800598    4.90999985    2.11999989
   13.05749989  236.49099731    4.90999985    2.07999992
   13.06083393  225.24600220    4.90999985    2.09999990
   13.06388950  212.48300171    4.90999985    2.13000011
   13.06722260  205.82000732    4.90999985    2.17000008
   13.07055569  204.42599487    4.90999985    2.15000010
   13.07361126  225.74099731    4.90999985    2.15000010
   13.07694435  219.63400269    4.90999985    2.13000011
   13.08027744  224.74299622    4.90999985    2.11999989
   13.08333302  236.41900635    4.90999985    2.11999989
   13.08583260  222.37399292    4.90999985    2.09999990
   13.08694458  211.83399963    4.90999985    2.11999989
   13.09027767  230.21299744    4.90999985    2.13000011
   13.09638882  230.21299744    4.90999985    2.21000004
   13.10027790  190.53199768    4.90999985    2.26999998
   13.10361195  167.43200684    4.90999985    2.26999998
   13.10694504  170.56599426    4.90999985    2.28999996
   13.11000061  180.12100220    4.90999985    2.30999994
   13.11333370  172.91700745    4.90999985    2.30999994
   13.11666679  191.43899536    4.90999985    2.30999994
   13.11916637  180.05099487    4.90999985    2.30999994
   13.12027836  176.59500122    4.90999985    2.30999994
   13.12333393  183.23399353    4.90999985    2.32999992
   13.12666702  189.85899353    4.90999985    2.26999998
   13.12972260  189.24600220    4.90999985    2.21000004
   13.13305569  188.11399841    4.90999985    2.21000004
   13.13916683  188.11399841    4.90999985    2.25000000
   13.14333344  189.80999756    4.90999985    2.25000000
   13.14638901  189.45500183    4.90999985    2.28999996
   13.14972210  187.00199890    4.90999985    2.26999998
   13.15249920  203.49600220    4.90999985    2.25000000
   13.15333271  200.72300720    4.90999985    2.23000002
   13.15638828  196.43600464    4.90999985    2.17000008
   13.15972137  227.86199951    4.90999985    2.13000011
   13.16277695  254.68899536    4.90999985    2.13000011
   13.16611099  308.72799683    4.90999985    2.03999996
   13.16944504  255.40800476    4.90999985    2.01999998
   13.17250061  330.83599854    4.90999985    2.00000000
   13.17583370  262.21899414    4.90999985    2.00000000
   13.18222237  262.21899414    4.90999985    1.96000004
   13.18666649  313.40499878    4.90999985    1.86000001
   13.19000053  156.19000244    4.90999985    1.88000000
   13.19305515  227.50199890    4.90999985    1.83000004
   13.19638920  178.17399597    4.90999985    1.86000001
   13.19972229  126.97000122    4.90999985    1.83000004
   13.20277786  145.98100281    4.90999985    1.83000004
   13.20611095  120.90499878    4.90999985    1.78999996
   13.20944405   -1.00000000    4.90999985    1.69000006
   13.21249962  109.85900116    4.90999985    1.61000001
   13.21583271   -1.00000000    4.90999985    1.63000000
   13.21888828   -1.00000000    4.90999985    1.61000001
   13.22472191   -1.00000000    4.90999985    1.48000002
   13.22888851   -1.00000000    4.90999985    1.44000006
   13.23222160   -1.00000000    4.90999985    1.50000000
   13.23527813   -1.00000000    4.90999985    1.50000000
   13.23861122   -1.00000000    4.90999985    1.53999996
   13.24194431   -1.00000000   -1.00000000   -1.00000000
   13.24499989   80.10729980    4.90999985    1.61000001
   13.24833393  133.68600464    4.90999985    1.66999996
   13.25166702   -1.00000000    4.90999985    1.63000000
   13.25527763   -1.00000000    4.90999985    1.60000002
   13.25833321   -1.00000000    4.90999985    1.53999996
   13.26166630   -1.00000000    4.90999985    1.51999998
   13.26777744   -1.00000000    4.90999985    1.55999994
   13.27166653   -1.00000000    4.90999985    1.51999998
   13.27499962   -1.00000000    4.90999985    1.50000000
   13.27833271   -1.00000000    4.90999985    1.50000000
   13.28138828   -1.00000000    4.90999985    1.50000000
   13.28472233   -1.00000000    4.90999985    1.46000004
   13.28833389   -1.00000000    4.90999985    1.38000000
   13.29138947   -1.00000000    4.90999985    1.39999998
   13.29472256   -1.00000000    4.90999985    1.34000003
   13.29805565   -1.00000000    4.90999985    1.36000001
   13.30111122   -1.00000000    4.90999985    1.33000004
   13.30444431   -1.00000000    4.90999985    1.30999994
   13.31444454   -1.00000000    4.90999985    1.21000004
   13.31777763   -1.00000000    4.90999985    1.21000004
   13.32138920   -1.00000000    4.90999985    1.19000006
   13.32444477   -1.00000000    4.90999985    1.23000002
   13.32777786   -1.00000000    4.90999985    1.26999998
   13.33111095   -1.00000000    4.90999985    1.30999994
   13.33416653   -1.00000000    4.90999985    1.34000003
   13.33749962   -1.00000000    4.90999985    1.36000001
   13.34055519   -1.00000000    4.90999985    1.38000000
   13.34388828   -1.00000000    4.90999985    1.39999998
   13.34722233   -1.00000000    4.90999985    1.46000004
   13.35333347   -1.00000000    4.90999985    1.50000000
   13.35750008   -1.00000000    4.90999985    1.50000000
   13.36055565   -1.00000000    4.90999985    1.50000000
   13.36388969   -1.00000000    4.90999985    1.53999996
   13.36722279   -1.00000000    4.90999985    1.50000000
   13.37027836   -1.00000000    4.90999985    1.50000000
   13.37361145   -1.00000000    4.90999985    1.55999994
   13.37694454   32.49129868    4.90999985    1.63000000
   13.38000011   -1.00000000    4.90999985    1.63000000
   13.38333321   -1.00000000    4.90999985    1.58000004
   13.38694477   -1.00000000    4.90999985    1.60000002
   13.39000034   -1.00000000    4.90999985    1.60000002
   13.39611053   -1.00000000    4.90999985    1.66999996
   13.40027714   -1.00000000    4.90999985    1.71000004
   13.40361118   -1.00000000    4.90999985    1.64999998
   13.40666676   57.34439850    4.90999985    1.63000000
   13.40999985   -1.00000000    4.90999985    1.61000001
   13.41333294   -1.00000000    4.90999985    1.63000000
   13.41638851   -1.00000000    4.90999985    1.60000002
   13.41944504   45.81349945    4.90999985    1.61000001
   13.42000008   63.01810074    4.90999985    1.63000000
   13.42333412  114.09899902    4.90999985    1.66999996
   13.42638874   83.89769745    4.90999985    1.66999996
   13.42972279   46.79040146    4.90999985    1.64999998
   13.43305588   33.68560028    4.90999985    1.66999996
   13.43888855   33.68560028    4.90999985    1.66999996
   13.44305515  124.65299988    4.90999985    1.73000002
   13.44638920  113.73100281    4.90999985    1.76999998
   13.44972229  122.04900360    4.90999985    1.76999998
   13.45277786  120.23100281    4.90999985    1.71000004
   13.45333290  128.27400208    4.90999985    1.71000004
   13.45666695  117.45099640    4.90999985    1.75000000
   13.45972157  135.99400330    4.90999985    1.75000000
   13.46305561   90.53220367    4.90999985    1.75000000
   13.46638870   66.31539917    4.90999985    1.69000006
   13.46944427   83.18000031    4.90999985    1.66999996
   13.47277737  122.25900269    4.90999985    1.71000004
   13.47583294  105.21399689    4.90999985    1.76999998
   13.48194408  105.21399689    4.90999985    1.76999998
   13.48611164  122.09899902    4.90999985    1.85000002
   13.48666668  122.26899719    4.90999985    1.85000002
   13.48972225  137.67700195    4.90999985    1.80999994
   13.49305534  122.74400330    4.90999985    1.85000002
   13.49611092  113.43199921    4.90999985    1.78999996
   13.49944496  146.48500061    4.90999985    1.83000004
   13.50277805  138.11900330    4.90999985    1.83000004
   13.50583363  123.67299652    4.90999985    1.86000001
   13.50916672  157.53199768    4.90999985    1.86000001
   13.51249981  133.27900696    4.90999985    1.86000001
   13.51555538  135.33399963    4.90999985    1.78999996
   13.51888847  144.33099365    4.90999985    1.80999994
   13.53611183  180.17500305    4.90999985    1.91999996
   13.54027843  180.17500305    4.90999985    1.91999996
   13.54444504  156.17999268    4.90999985    1.86000001
   13.54777813  162.48100281    4.90999985    1.89999998
   13.55083370  145.10200500    4.90999985    1.83000004
   13.55416679  118.92900085    4.90999985    1.80999994
   13.55749989  124.05300140    4.90999985    1.83000004
   13.56055546  125.11499786    4.90999985    1.83000004
   13.56388950  137.18699646    4.90999985    1.78999996
   13.56694412  110.72100067    4.90999985    1.76999998
   13.56944466  132.87500000    4.90999985    1.76999998
   13.57055569  137.31199646    4.90999985    1.75000000
   13.57388878  141.88099670    4.90999985    1.78999996
   13.57722187  110.00900269    4.90999985    1.85000002
   13.58305550  110.00900269    4.90999985    1.83000004
   13.58722210  117.00299835    4.90999985    1.80999994
   13.59055519  112.67700195    4.90999985    1.78999996
   13.59388828  108.86100006    4.90999985    1.76999998
   13.59694386  101.34899902    4.90999985    1.75000000
   13.60027790  127.37400055    4.90999985    1.75000000
   13.60277843   54.20619965    4.90999985    1.71000004
   13.60388947   81.10399628    4.90999985    1.69000006
   13.60694504   76.62129974    4.90999985    1.69000006
   13.61027813   -1.00000000    4.90999985    1.64999998
   13.61333370   -1.00000000    4.90999985    1.63000000
   13.61666679   -1.00000000    4.90999985    1.61000001
   13.61999989   -1.00000000    4.90999985    1.60000002
   13.62611103   -1.00000000    4.90999985    1.60000002
   13.63000011   -1.00000000    4.90999985    1.60000002
   13.63333321   -1.00000000    4.90999985    1.60000002
   13.63694477   -1.00000000    4.90999985    1.60000002
   13.64027786   -1.00000000    4.90999985    1.55999994
   13.64333344   -1.00000000    4.90999985    1.53999996
   13.64666653   -1.00000000    4.90999985    1.55999994
   13.64999962   -1.00000000    4.90999985    1.58000004
   13.65305519   -1.00000000    4.90999985    1.60000002
   13.65638828   -1.00000000    4.90999985    1.60000002
   13.65972137   -1.00000000    4.90999985    1.60000002
   13.66277695   -1.00000000    4.90999985    1.55999994
   13.66888905   -1.00000000    4.90999985    1.53999996
   13.67305565   -1.00000000    4.90999985    1.48000002
   13.67611122   -1.00000000    4.90999985    1.41999996
   13.67944431   -1.00000000    4.90999985    1.44000006
   13.68277836   -1.00000000    4.90999985    1.48000002
   13.68583298   -1.00000000    4.90999985    1.51999998
   13.68916702   -1.00000000    4.90999985    1.50000000
   13.69222260   -1.00000000    4.90999985    1.48000002
   13.69555569   -1.00000000    4.90999985    1.51999998
   13.69888878   23.57019997    4.90999985    1.55999994
   13.70194435   -1.00000000    4.90999985    1.58000004
   13.70555496   -1.00000000    4.90999985    1.48000002
   13.71166611   -1.00000000    4.90999985    1.58000004
   13.71583271  120.13999939    4.90999985    1.66999996
   13.71916580  155.68099976    4.90999985    1.78999996
   13.72222137  135.91400146    4.90999985    1.86000001
   13.72555542  132.69200134    4.90999985    1.86000001
   13.72861099  162.63999939    4.90999985    1.86000001
   13.73194408  157.48199463    4.90999985    1.85000002
   13.73527813  129.83399963    4.90999985    1.85000002
   13.73722267  128.83999634    4.90999985    1.85000002
   13.73888874  127.79399872    4.90999985    1.85000002
   13.74194431  228.62899780    4.90999985    1.88000000
   13.74527836  143.01100159    4.90999985    1.91999996
   13.74861145  149.74400330    4.90999985    1.88000000
   13.75444412  149.74400330    4.90999985    1.83000004
   13.75861073  264.53601074    4.90999985    1.91999996
   13.76194477  317.76300049    4.90999985    1.98000002
   13.76500034  308.32501221    4.90999985    2.01999998
   13.76833344  234.12800598    4.90999985    2.03999996
   13.77083302  205.10899353    4.90999985    2.00000000
   13.77194405  207.64300537    4.90999985    1.98000002
   13.77527714  313.20800781    4.90999985    2.05999994
   13.77861118  232.81700134    4.90999985    2.05999994
   13.78166676  244.37500000    4.90999985    2.00000000
   13.78500080  278.02899170    4.90999985    2.07999992
   13.78833389  139.11799622    4.90999985    1.98000002
   13.79138947  284.88198853    4.90999985    1.94000006
   13.79750061  284.88198853    4.90999985    1.89999998
   13.80138874  139.48199463    4.90999985    1.91999996
   13.80416679  141.78300476    4.90999985    1.91999996
   13.80500031  244.76300049    4.90999985    1.89999998
   13.80833340  136.38499451    4.90999985    1.98000002
   13.81166649  290.08499146    4.90999985    1.88000000
   13.81472206  305.25900269    4.90999985    1.98000002
   13.81805515  252.28999329    4.90999985    2.07999992
   13.82138920  265.53500366    4.90999985    2.07999992
   13.82444477  282.00900269    4.90999985    2.07999992
   13.82777786  260.48498535    4.90999985    2.13000011
   13.83083344  269.37701416    4.90999985    2.09999990
   13.83416653  244.69999695    4.90999985    2.07999992
   13.84027767  244.69999695    4.90999985    2.00000000
   13.84444427  159.53799438    4.90999985    1.98000002
   13.84749985  182.09800720    4.90999985    1.91999996
   13.85083389  175.49699402    4.90999985    1.91999996
   13.85416698  196.80700684    4.90999985    1.96000004
   13.85722256  192.43800354    4.90999985    1.96000004
   13.86055565  241.46000671    4.90999985    1.96000004
   13.86388969  203.43400574    4.90999985    1.98000002
   13.86694431  179.33099365    4.90999985    1.94000006
   13.87027836  147.36999512    4.90999985    1.96000004
   13.87111092  131.71400452    4.90999985    1.94000006
   13.87388897  125.57900238    4.90999985    1.86000001
   13.87694454  117.62599945    4.90999985    1.85000002
   13.88305569  117.62599945    4.90999985    1.83000004
   13.88722229  137.38299561    4.90999985    1.85000002
   13.89055538  150.30400085    4.90999985    1.86000001
   13.89361095  114.26499939    4.90999985    1.83000004
   13.89694405  104.30999756    4.90999985    1.78999996
   13.89999962  144.38200378    4.90999985    1.75000000
   13.90333271   79.98359680    4.90999985    1.71000004
   13.90666676   23.57019997    4.90999985    1.69000006
   13.90999985   -1.00000000    4.90999985    1.64999998
   13.91333294   -1.00000000    4.90999985    1.64999998
   13.91638851   -1.00000000    4.90999985    1.60000002
   13.91972256   -1.00000000    4.90999985    1.60000002
   13.92583370   -1.00000000    4.90999985    1.48000002
   13.93000031   -1.00000000    4.90999985    1.60000002
   13.93333340   -1.00000000    4.90999985    1.53999996
   13.93638897   -1.00000000    4.90999985    1.53999996
   13.94000053   -1.00000000    4.90999985    1.46000004
   13.94333363   -1.00000000    4.90999985    1.44000006
   13.94666672   -1.00000000    4.90999985    1.50000000
   13.94972229   -1.00000000    4.90999985    1.46000004
   13.95305538   -1.00000000    4.90999985    1.38000000
   13.95611095   -1.00000000    4.90999985    1.34000003
   13.95944405   -1.00000000    4.90999985    1.38000000
   13.96277714   -1.00000000    4.90999985    1.38000000
   13.97277737   -1.00000000    4.90999985    1.30999994
   13.97611046   -1.00000000    4.90999985    1.28999996
   13.97916603   -1.00000000    4.90999985    1.25000000
   13.98249912   -1.00000000    4.90999985    1.23000002
   13.98583317   -1.00000000    4.90999985    1.19000006
   13.98888874   -1.00000000    4.90999985    1.19000006
   13.99222279   -1.00000000    4.90999985    1.16999996
   13.99555588   -1.00000000    4.90999985    1.21000004
   13.99861145   -1.00000000    4.90999985    1.25000000
   14.00194454   -1.00000000    4.90999985    1.25000000
   14.00527763   -1.00000000    4.90999985    1.25000000
   14.01555538   -1.00000000    4.90999985    1.23000002
   14.01888847   -1.00000000    4.90999985    1.19000006
   14.02222157   -1.00000000    4.90999985    1.19000006
   14.02527714   -1.00000000    4.90999985    1.16999996
   14.02861118   -1.00000000    4.90999985    1.19000006
   14.03194427   -1.00000000    4.90999985    1.14999998
   14.03500080   -1.00000000    4.90999985    1.16999996
   14.03861141   -1.00000000    4.90999985    1.16999996
   14.04194450   -1.00000000    4.90999985    1.13000000
   14.04500008   -1.00000000    4.90999985    1.14999998
   14.04833412   -1.00000000    4.90999985    1.19000006
   14.05861092   -1.00000000    4.90999985    1.30999994
   14.06166649   -1.00000000    4.90999985    1.30999994
   14.06500053   -1.00000000    4.90999985    1.26999998
   14.06833363   -1.00000000    4.90999985    1.26999998
   14.07166672   -1.00000000    4.90999985    1.26999998
   14.07499981   -1.00000000    4.90999985    1.26999998
   14.07805538   -1.00000000    4.90999985    1.30999994
   14.08138847   -1.00000000    4.90999985    1.30999994
   14.08472157   -1.00000000    4.90999985    1.34000003
   14.08777714   -1.00000000    4.90999985    1.30999994
   14.09111118   -1.00000000    4.90999985    1.26999998
   14.10138893   -1.00000000    4.90999985    1.19000006
   14.10500050   -1.00000000    4.90999985    1.16999996
   14.10833359   -1.00000000    4.90999985    1.16999996
   14.11138916   -1.00000000    4.90999985    1.14999998
   14.11472225   -1.00000000    4.90999985    1.07000005
   14.11805534   -1.00000000    4.90999985    1.07000005
   14.12111092   -1.00000000    4.90999985    1.13000000
   14.12444496   -1.00000000    4.90999985    1.16999996
   14.12777805   -1.00000000    4.90999985    1.19000006
   14.13083363   -1.00000000    4.90999985    1.25000000
   14.13416672   -1.00000000    4.90999985    1.26999998
   14.14416695   -1.00000000    4.90999985    1.34000003
   14.14750004   -1.00000000    4.90999985    1.41999996
   14.15055561   -1.00000000    4.90999985    1.41999996
   14.15388870   -1.00000000    4.90999985    1.38000000
   14.15722179   -1.00000000    4.90999985    1.44000006
   14.16027737   -1.00000000    4.90999985    1.46000004
   14.16361046   -1.00000000    4.90999985    1.48000002
   14.16694450   -1.00000000    4.90999985    1.44000006
   14.17000008   -1.00000000    4.90999985    1.44000006
   14.17361164   -1.00000000    4.90999985    1.39999998
   14.17694473   -1.00000000    4.90999985    1.36000001
   14.18694496   -1.00000000    4.90999985    1.41999996
   14.19027805   -1.00000000    4.90999985    1.36000001
   14.19361115   -1.00000000    4.90999985    1.28999996
   14.19666672   -1.00000000    4.90999985    1.25000000
   14.19999981   -1.00000000    4.90999985    1.23000002
   14.20333290   -1.00000000    4.90999985    1.30999994
   14.20666695   -1.00000000    4.90999985    1.33000004
   14.21000004   -1.00000000    4.90999985    1.30999994
   14.21333313   -1.00000000    4.90999985    1.33000004
   14.21638870   -1.00000000    4.90999985    1.19000006
   14.21972179   -1.00000000    4.90999985    1.30999994
   14.22999954   -1.00000000    4.90999985    1.39999998
   14.23305511   -1.00000000    4.90999985    1.33000004
   14.23638916   -1.00000000    4.90999985    1.34000003
   14.24000072   -1.00000000    4.90999985    1.36000001
   14.24333382   -1.00000000    4.90999985    1.28999996
   14.24638939   -1.00000000    4.90999985    1.25000000
   14.24972248   -1.00000000    4.90999985    1.21000004
   14.25305557   -1.00000000    4.90999985    1.21000004
   14.25611115   -1.00000000    4.90999985    1.23000002
   14.25944424   -1.00000000    4.90999985    1.26999998
   14.26249981   -1.00000000    4.90999985    1.33000004
   14.27277756   -1.00000000    4.90999985    1.48000002
   14.27611065   -1.00000000    4.90999985    1.48000002
   14.27916622   -1.00000000    4.90999985    1.50000000
   14.28249931   -1.00000000    4.90999985    1.50000000
   14.28555584   -1.00000000    4.90999985    1.50000000
   14.28888893   -1.00000000    4.90999985    1.48000002
   14.29222298   -1.00000000    4.90999985    1.64999998
   14.29527855   61.79639816    4.90999985    1.64999998
   14.29861164  128.88699341    4.90999985    1.73000002
   14.30194473   83.48059845    4.90999985    1.88000000
   14.30500031  126.83499908    4.90999985    1.71000004
   14.30527782  116.77600098    4.90999985    1.71000004
   14.31166649  116.77600098    4.90999985    1.86000001
   14.31555557  306.53201294    4.90999985    2.00000000
   14.31888866  286.65499878    4.90999985    2.03999996
   14.32222176  253.64700317    4.90999985    2.07999992
   14.32527733  317.55599976    4.90999985    2.11999989
   14.32861137  267.56799316    4.90999985    2.03999996
   14.33194447  283.90600586    4.90999985    2.05999994
   14.33500004  289.45498657    4.90999985    2.09999990
   14.33833313  286.90301514    4.90999985    2.05999994
   14.33861065  252.66299438    4.90999985    2.05999994
   14.34194374  275.26300049    4.90999985    2.07999992
   14.34527779  266.60299683    4.90999985    2.07999992
   14.34833336  275.15798950    4.90999985    2.11999989
   14.35444450  275.15798950    4.90999985    2.19000006
   14.35861111  232.91600037    4.90999985    2.17000008
   14.36166668  242.88299561    4.90999985    2.19000006
   14.36500072  238.12899780    4.90999985    2.15000010
   14.36833382  205.62699890    4.90999985    2.21000004
   14.37138939  206.30599976    4.90999985    2.32999992
   14.37194443  187.05900574    4.90999985    2.32999992
   14.37527752  205.54899597    4.90999985    2.32999992
   14.37833309  205.34700012    4.90999985    2.34999990
   14.38166714  240.68899536    4.90999985    2.21000004
   14.38500023  229.15899658    4.90999985    2.21000004
   14.38805580  204.81500244    4.90999985    2.21000004
   14.39138889  236.50999451    4.90999985    2.26999998
   14.39722252  236.50999451    4.90999985    2.25000000
   14.40138817  232.41900635    4.90999985    2.26999998
   14.40472221  185.83200073    4.90999985    2.26999998
   14.40527725  197.64900208    4.90999985    2.28999996
   14.40833282  221.02499390    4.90999985    2.30999994
   14.41138840  199.97799683    4.90999985    2.25000000
   14.41472149  220.78100586    4.90999985    2.26999998
   14.41805553  206.93499756    4.90999985    2.25000000
   14.42111111  200.90499878    4.90999985    2.30999994
   14.42444515  184.06799316    4.90999985    2.30999994
   14.42777824  184.27099609    4.90999985    2.36999989
   14.43083382  179.29600525    4.90999985    2.36999989
   14.43416691  222.94299316    4.90999985    2.34999990
   14.44000053  222.94299316    4.90999985    2.30999994
   14.44416714  180.42199707    4.90999985    2.30999994
   14.44750023  194.47399902    4.90999985    2.34999990
   14.45055580  189.92500305    4.90999985    2.26999998
   14.45388889  175.05799866    4.90999985    2.42000008
   14.45722198  193.57499695    4.90999985    2.34999990
   14.46055508  172.55299377    4.90999985    2.34999990
   14.46388912  197.42799377    4.90999985    2.32999992
   14.46722221  178.98599243    4.90999985    2.30999994
   14.47027779  196.88499451    4.90999985    2.42000008
   14.47194386  192.59500122    4.90999985    2.32999992
   14.47416592  174.60099792    4.90999985    2.34999990
   14.47722149  191.89599609    4.90999985    2.32999992
   14.48305511  191.89599609    4.90999985    2.26999998
   14.48694515  179.02099609    4.90999985    2.26999998
   14.49027824  180.47900391    4.90999985    2.25000000
   14.49361134  200.03300476    4.90999985    2.21000004
   14.49666691  251.38099670    4.90999985    2.23000002
   14.50000000  235.33599854    4.90999985    2.19000006
   14.50333309  232.59800720    4.90999985    2.17000008
   14.50527763  246.46800232    4.90999985    2.13000011
   14.50694466  248.96299744    4.90999985    2.15000010
   14.51000023  238.59800720    4.90999985    2.19000006
   14.51333332  231.50900269    4.90999985    2.17000008
   14.51666641  245.01300049    4.90999985    2.17000008
   14.51972198  253.06700134    4.90999985    2.17000008
   14.52583313  253.06700134    4.90999985    2.19000006
   14.52999973  265.04199219    4.90999985    2.17000008
   14.53305531  300.14999390    4.90999985    2.17000008
   14.53638935  250.23699951    4.90999985    2.15000010
   14.55333328  257.61401367    4.90999985    2.09999990
   14.55638885  265.70999146    4.90999985    2.15000010
   14.55972195  281.60400391    4.90999985    2.11999989
   14.56277752  332.62799072    4.90999985    2.13000011
   14.56888866  332.62799072    4.90999985    2.05999994
   14.57305527  274.96701050    4.90999985    2.05999994
   14.57611084  287.15200806    4.90999985    2.05999994
   14.57944393  255.11599731    4.90999985    1.98000002
   14.58277798  310.54699707    4.90999985    2.03999996
   14.58583260  261.97399902    4.90999985    2.07999992
   14.58666611  301.84201050    4.90999985    2.05999994
   14.58972168  333.41299438    4.90999985    2.05999994
   14.59277725  183.07899475    4.90999985    2.05999994
   14.59611034  291.77801514    4.90999985    1.96000004
   14.59944439  293.23599243    4.90999985    2.03999996
   14.60249996  247.44299316    4.90999985    2.00000000
   14.60583401  165.38600159    4.90999985    2.00000000
   14.61166668  165.38600159    4.90999985    1.96000004
   14.61583328  281.29299927    4.90999985    2.07999992
   14.61916637  283.31799316    4.90999985    2.07999992
   14.61999989  287.73800659    4.90999985    2.07999992
   14.62277794  255.83999634    4.90999985    2.05999994
   14.62583351  289.41699219    4.90999985    2.01999998
   14.62916660  278.81698608    4.90999985    2.11999989
   14.63249969  290.05099487    4.90999985    2.13000011
   14.63555527  263.60101318    4.90999985    2.15000010
   14.63888836  292.42001343    4.90999985    2.15000010
   14.64222240  244.08399963    4.90999985    2.09999990
   14.64527798  235.04699707    4.90999985    2.17000008
   14.64861107  235.44099426    4.90999985    2.17000008
   14.65444374  235.44099426    4.90999985    2.23000002
   14.65861034  248.54800415    4.90999985    2.23000002
   14.66194439  246.43600464    4.90999985    2.19000006
   14.66499996  234.82699585    4.90999985    2.23000002
   14.66833401  215.17900085    4.90999985    2.23000002
   14.67166710  239.50500488    4.90999985    2.26999998
   14.67472267  215.34700012    4.90999985    2.23000002
   14.67805576  202.52400208    4.90999985    2.26999998
   14.68138885  233.87100220    4.90999985    2.26999998
   14.68444443  192.26300049    4.90999985    2.26999998
   14.68666649  216.74099731    4.90999985    2.30999994
   14.68833351  206.94299316    4.90999985    2.30999994
   14.69138908  215.40600586    4.90999985    2.28999996
   14.69750023  215.40600586    4.90999985    2.32999992
   14.70138836  209.88299561    4.90999985    2.28999996
   14.70472240  205.06199646    4.90999985    2.28999996
   14.70805550  197.60000610    4.90999985    2.25000000
   14.71111107  227.95199585    4.90999985    2.25000000
   14.71444416  223.23300171    4.90999985    2.23000002
   14.71777725  191.07000732    4.90999985    2.25000000
   14.71999931  215.66900635    4.90999985    2.30999994
   14.72138882  181.71299744    4.90999985    2.26999998
   14.72444439  208.52299500    4.90999985    2.30999994
   14.72777748  210.94799805    4.90999985    2.23000002
   14.73111057  199.53300476    4.90999985    2.25000000
   14.73416710  196.96699524    4.90999985    2.32999992
   14.74027824  196.96699524    4.90999985    2.28999996
   14.74444485  220.20700073    4.90999985    2.26999998
   14.74750042  202.10699463    4.90999985    2.23000002
   14.75083351  207.77000427    4.90999985    2.23000002
   14.75333309  215.95899963    4.90999985    2.28999996
   14.75444412  190.09199524    4.90999985    2.30999994
   14.75749969  204.32400513    4.90999985    2.30999994
   14.76083374  215.13900757    4.90999985    2.28999996
   14.76416683  237.18600464    4.90999985    2.21000004
   14.76722240  224.93299866    4.90999985    2.26999998
   14.77055550  211.36700439    4.90999985    2.25000000
   14.77388859  216.50700378    4.90999985    2.21000004
   14.77694416  219.52400208    4.90999985    2.23000002
   14.78305531  219.52400208    4.90999985    2.23000002
   14.78722286  234.51499939    4.90999985    2.23000002
   14.79055595  236.55200195    4.90999985    2.21000004
   14.79361153  233.59899902    4.90999985    2.23000002
   14.79694462  255.53300476    4.90999985    2.17000008
   14.80000019  227.05999756    4.90999985    2.23000002
   14.80333328  196.07299805    4.90999985    2.19000006
   14.80666733  212.33099365    4.90999985    2.30999994
   14.80972195  204.58599854    4.90999985    2.28999996
   14.81305599  227.00799561    4.90999985    2.21000004
   14.81638908  226.90400696    4.90999985    2.21000004
   14.81944466  243.20899963    4.90999985    2.23000002
   14.81999969  252.21699524    4.90999985    2.25000000
   14.82583332  252.21699524    4.90999985    2.15000010
   14.82999992  296.14099121    4.90999985    2.11999989
   14.83333302  331.97299194    4.90999985    2.13000011
   14.83638859  286.99099731    4.90999985    2.09999990
   14.83972168  317.66799927    4.90999985    2.11999989
   14.84305477  346.61199951    4.90999985    2.05999994
   14.84611034  320.68600464    4.90999985    2.11999989
   14.84944439  286.99499512    4.90999985    2.09999990
   14.85277843  272.28100586    4.90999985    2.13000011
   14.85333347  293.54998779    4.90999985    2.13000011
   14.85638905  268.92700195    4.90999985    2.15000010
   14.85944462  270.51300049    4.90999985    2.13000011
   14.86277771  228.64700317    4.90999985    2.15000010
   14.86888885  228.64700317    4.90999985    2.19000006
   14.87277794  247.43699646    4.90999985    2.15000010
   14.87611103  274.40200806    4.90999985    2.17000008
   14.87944412  270.20800781    4.90999985    2.17000008
   14.88249969  259.91799927    4.90999985    2.17000008
   14.88583279  281.67098999    4.90999985    2.17000008
   14.88666630  287.53698730    4.90999985    2.19000006
   14.88944435  255.39599609    4.90999985    2.19000006
   14.89277744  227.56799316    4.90999985    2.21000004
   14.89583302  227.95500183    4.90999985    2.21000004
   14.89916611  245.91400146    4.90999985    2.23000002
   14.90222168  261.55499268    4.90999985    2.21000004
   14.90555477  297.93099976    4.90999985    2.15000010
   14.91166592  297.93099976    4.90999985    2.19000006
   14.91583252  223.39700317    4.90999985    2.19000006
   14.91888905  232.55099487    4.90999985    2.19000006
   14.92000008  234.52200317    4.90999985    2.19000006
   14.92250061  290.91400146    4.90999985    2.15000010
   14.92583370  242.57000732    4.90999985    2.17000008
   14.92888927  230.84800720    4.90999985    2.17000008
   14.93222237  259.03201294    4.90999985    2.17000008
   14.93527794  235.31399536    4.90999985    2.15000010
   14.93861103  238.30999756    4.90999985    2.19000006
   14.94194412  228.47099304    4.90999985    2.19000006
   14.94499969  209.32800293    4.90999985    2.21000004
   14.94833374  216.62899780    4.90999985    2.19000006
   14.95444393  216.62899780    4.90999985    2.21000004
   14.95861053  238.58500671    4.90999985    2.21000004
   14.96194458  225.01899719    4.90999985    2.19000006
   14.96500015  239.59300232    4.90999985    2.21000004
   14.96833324  231.41799927    4.90999985    2.21000004
   14.97166634  221.65699768    4.90999985    2.19000006
   14.97472191  223.01699829    4.90999985    2.23000002
   14.97805500  213.75399780    4.90999985    2.26999998
   14.98138809  227.83399963    4.90999985    2.23000002
   14.98444462  214.97000122    4.90999985    2.25000000
   14.98666668  231.87800598    4.90999985    2.21000004
   14.98805618  216.35299683    4.90999985    2.17000008
   14.99138927  207.13600159    4.90999985    2.23000002
   14.99722290  207.13600159    4.90999985    2.21000004
   15.00138855  219.51800537    4.90999985    2.11999989
   15.00472260  219.77000427    4.90999985    2.25000000
   15.00777817  261.32199097    4.90999985    2.25000000
   15.01111126  239.85299683    4.90999985    2.19000006
   15.01444435  268.54901123    4.90999985    2.23000002
   15.01749992  257.99700928    4.90999985    2.17000008
   15.01999950  219.40299988    4.90999985    2.17000008
   15.02111053  219.05099487    4.90999985    2.19000006
   15.02444458  228.05900574    4.90999985    2.19000006
   15.02750015  218.25300598    4.90999985    2.21000004
   15.03083324  245.64900208    4.90999985    2.23000002
   15.03388977  215.24899292    4.90999985    2.13000011
   15.04027843  215.24899292    4.90999985    2.21000004
   15.04444504  214.23399353    4.90999985    2.19000006
   15.04750061  209.63600159    4.90999985    2.21000004
   15.05083370  214.14700317    4.90999985    2.23000002
   15.05333328  214.40899658    4.90999985    2.23000002
   15.05444431  203.70799255    4.90999985    2.21000004
   15.05777836  218.87199402    4.90999985    2.26999998
   15.06083393  201.17599487    4.90999985    2.28999996
   15.06416702  176.07600403    4.90999985    2.32999992
   15.06722260  192.42599487    4.90999985    2.30999994
   15.07055569  167.85200500    4.90999985    2.39000010
   15.07388878  171.66099548    4.90999985    2.42000008
   15.07694435  180.39799500    4.90999985    2.36999989
   15.08333302  180.39799500    4.90999985    2.42000008
   15.08749962  171.31900024    4.90999985    2.39000010
   15.09083271  188.41700745    4.90999985    2.44000006
   15.09388828  171.82099915    4.90999985    2.46000004
   15.09722233  182.35600281    4.90999985    2.46000004
   15.10027790  157.34599304    4.90999985    2.53999996
   15.10361195  148.85800171    4.90999985    2.50000000
   15.10694504  176.14100647    4.90999985    2.53999996
   15.11000061  184.89500427    4.90999985    2.51999998
   15.11333370  169.91099548    4.90999985    2.46000004
   15.11666679  165.72500610    4.90999985    2.51999998
   15.11972237  164.28300476    4.90999985    2.48000002
   15.12027836  154.22200012    4.90999985    2.48000002
   15.12583351  154.22200012    4.90999985    2.39000010
   15.13000011  169.10499573    4.90999985    2.39000010
   15.13333321  168.70399475    4.90999985    2.50000000
   15.13638878  187.79100037    4.90999985    2.48000002
   15.13972187  152.86300659    4.90999985    2.48000002
   15.14305496  178.58000183    4.90999985    2.51999998
   15.14611053  158.28799438    4.90999985    2.50000000
   15.14944458  164.79600525    4.90999985    2.50000000
   15.15277767  159.39900208    4.90999985    2.51999998
   15.15361118  150.40899658    4.90999985    2.51999998
   15.15638828  176.84399414    4.90999985    2.51999998
   15.15944386  150.38499451    4.90999985    2.46000004
   15.16277695  155.23399353    4.90999985    2.48000002
   15.16861153  155.23399353    4.90999985    2.40000010
   15.17277813  158.23800659    4.90999985    2.46000004
   15.17611122  165.25700378    4.90999985    2.53999996
   15.17916679  154.59399414    4.90999985    2.51999998
   15.18249989  150.77600098    4.90999985    2.51999998
   15.18583298  171.88900757    4.90999985    2.55999994
   15.18694496  159.08500671    4.90999985    2.53999996
   15.18944454  169.59300232    4.90999985    2.48000002
   15.19250011  174.07299805    4.90999985    2.46000004
   15.19583321  181.68400574    4.90999985    2.46000004
   15.19916630  180.01100159    4.90999985    2.44000006
   15.20222187  186.42199707    4.90999985    2.44000006
   15.20555496  171.24800110    4.90999985    2.42000008
   15.21166611  171.24800110    4.90999985    2.42000008
   15.21555519  178.34599304    4.90999985    2.40000010
   15.21888828  177.32099915    4.90999985    2.42000008
   15.22027779  183.41499329    4.90999985    2.42000008
   15.22249985  181.95500183    4.90999985    2.42000008
   15.22555542  174.66000366    4.90999985    2.44000006
   15.22888851  176.90899658    4.90999985    2.44000006
   15.23222160  172.10899353    4.90999985    2.40000010
   15.23527813  173.65499878    4.90999985    2.40000010
   15.23861122  202.82099915    4.90999985    2.39000010
   15.24194431  192.14999390    4.90999985    2.39000010
   15.24499989  170.54299927    4.90999985    2.39000010
   15.24833393  180.33299255    4.90999985    2.42000008
   15.25444412  180.33299255    4.90999985    2.44000006
   15.25861073  203.26300049    4.90999985    2.40000010
   15.26166630  177.06399536    4.90999985    2.46000004
   15.26500034  183.41999817    4.90999985    2.46000004
   15.26833344  183.38699341    4.90999985    2.42000008
   15.27138901  202.46699524    4.90999985    2.40000010
   15.27472210  182.22399902    4.90999985    2.46000004
   15.27777767  184.97300720    4.90999985    2.46000004
   15.28111076  164.87899780    4.90999985    2.51999998
   15.28444481  154.51499939    4.90999985    2.51999998
   15.28694534  152.13600159    4.90999985    2.51999998
   15.28805637  171.37600708    4.90999985    2.48000002
   15.29111195  195.37800598    4.90999985    2.53999996
   15.29722309  195.37800598    4.90999985    2.51999998
   15.30138874  159.78700256    4.90999985    2.51999998
   15.30472279  165.21800232    4.90999985    2.53999996
   15.30777836  176.42199707    4.90999985    2.55999994
   15.31111145  171.11900330    4.90999985    2.51999998
   15.31416702  156.69200134    4.90999985    2.57999992
   15.31750011  152.56100464    4.90999985    2.61999989
   15.32027817  143.65299988    4.90999985    2.59999990
   15.32111073  171.16200256    4.90999985    2.64000010
   15.32416630   -1.00000000    4.90999985    2.66000009
   15.41194439   -1.00000000   -1.00000000   -1.00000000
   15.59166622   -1.00000000   -1.00000000   -1.00000000
   15.78833389   -1.00000000   -1.00000000   -1.00000000
   15.86944485   96.49440002    4.90999985    2.84999990
   15.87277794  145.29800415    4.90999985    2.82999992
   15.87611103  142.66000366    4.90999985    2.84999990
   15.87916660  147.24299622    4.90999985    2.84999990
   15.88249969  140.86700439    4.90999985    2.84999990
   15.88555527  140.73500061    4.90999985    2.84999990
   15.88972187  140.73500061    4.90999985    2.84999990
   15.89388847  139.44799805    4.90999985    2.84999990
   15.89722252  139.60699463    4.90999985    2.84999990
   15.90027714  129.80900574    4.90999985    2.84999990
   15.90277767  135.97300720    4.90999985    2.84999990
   15.90416622  138.35099792    4.90999985    2.84999990
   15.90749931  129.88999939    4.90999985    2.84999990
   15.91055489  134.95599365    4.90999985    2.82999992
   15.91388893  144.05000305    4.90999985    2.84999990
   15.91694450  142.07400513    4.90999985    2.84999990
   15.92027855  138.02900696    4.90999985    2.84999990
   15.92361164  135.25500488    4.90999985    2.84999990
   15.92666721  144.34199524    4.90999985    2.84999990
   15.93277836  144.34199524    4.90999985    2.84999990
   15.93666649  143.17199707    4.90999985    2.82999992
   15.94000053  141.54699707    4.90999985    2.82999992
   15.94361115  131.75599670    4.90999985    2.82999992
   15.94666672  142.41700745    4.90999985    2.82999992
   15.94999981  147.93699646    4.90999985    2.84999990
   15.95333290  139.05799866    4.90999985    2.84999990
   15.95694447  136.71499634    4.90999985    2.82999992
   15.96000004  143.56700134    4.90999985    2.82999992
   15.96333313  138.12699890    4.90999985    2.84999990
   15.96638870  142.35000610    4.90999985    2.84999990
   15.96944427  138.37199402    4.90999985    2.84999990
   15.96999931  132.36999512    4.90999985    2.84999990
   15.97555542  132.36999512    4.90999985    2.82999992
   15.97972202  135.09700012    4.90999985    2.84999990
   15.98277760  135.42599487    4.90999985    2.84999990
   15.98611164  137.07699585    4.90999985    2.86999989
   15.98944473  136.66499329    4.90999985    2.86999989
   15.99250031  132.49699402    4.90999985    2.84999990
   15.99583340  132.65100098    4.90999985    2.84999990
   15.99888897  134.54699707    4.90999985    2.84999990
   16.00222206  129.69200134    4.90999985    2.84999990
   16.00277710  134.66900635    4.90999985    2.84999990
   16.00583267  132.60200500    4.90999985    2.84999990
   16.00916672  133.26100159    4.90999985    2.84999990
   16.01222229  135.38200378    4.90999985    2.84999990
   16.01833344  135.38200378    4.90999985    2.84999990
   16.02249908  132.96600342    4.90999985    2.84999990
   16.02583313  139.47000122    4.90999985    2.84999990
   16.02888870  138.15100098    4.90999985    2.84999990
   16.03222275  136.24899292    4.90999985    2.84999990
   16.03527641  137.47700500    4.90999985    2.84999990
   16.03610992  135.11599731    4.90999985    2.84999990
   16.03888893  133.97500610    4.90999985    2.82999992
   16.04222107  131.58799744    4.90999985    2.84999990
   16.04527664  134.88800049    4.90999985    2.84999990
   16.04861069  133.65800476    4.90999985    2.84999990
   16.05194283  131.88299561    4.90999985    2.84999990
   16.05499840  139.48300171    4.90999985    2.84999990
   16.06110954  139.48300171    4.90999985    2.84999990
   16.06527710  135.65800476    4.90999985    2.84999990
   16.06861115  130.60600281    4.90999985    2.84999990
   16.06944466  137.97099304    4.90999985    2.84999990
   16.07222366  130.36099243    4.90999985    2.84999990
   16.07555580  130.58700562    4.90999985    2.84999990
   16.07861137  137.55099487    4.90999985    2.84999990
   16.08194542  133.00500488    4.90999985    2.84999990
   16.08527756  137.42500305    4.90999985    2.84999990
   16.08833313  134.52000427    4.90999985    2.84999990
   16.09166718  127.51300049    4.90999985    2.84999990
   16.09472275  136.46499634    4.90999985    2.84999990
   16.09805679  134.44500732    4.90999985    2.84999990
   16.10416794  134.44500732    4.90999985    2.84999990
   16.10833359  132.22000122    4.90999985    2.82999992
   16.11138916  139.63699341    4.90999985    2.84999990
   16.11472321  133.85800171    4.90999985    2.84999990
   16.11777878  131.49200439    4.90999985    2.84999990
   16.12111092  124.13999939    4.90999985    2.84999990
   16.12444496  132.18699646    4.90999985    2.84999990
   16.12750053  134.31700134    4.90999985    2.84999990
   16.13083267  129.00300598    4.90999985    2.82999992
   16.13416672  140.61300659    4.90999985    2.84999990
   16.13611031  140.82800293    4.90999985    2.86999989
   16.13777733  134.88900757    4.90999985    2.84999990
   16.14111137  143.37699890    4.90999985    2.84999990
   16.14694405  143.37699890    4.90999985    2.84999990
   16.15111160  136.68800354    4.90999985    2.84999990
   16.15416718  141.46400452    4.90999985    2.84999990
   16.15749931  129.66200256    4.90999985    2.84999990
   16.16083336  133.76600647    4.90999985    2.84999990
   16.16388893  135.01600647    4.90999985    2.84999990
   16.16722107  133.63900757    4.90999985    2.84999990
   16.16972160  130.58799744    4.90999985    2.82999992
   16.17083359  145.20799255    4.90999985    2.84999990
   16.17416573  137.63200378    4.90999985    2.84999990
   16.17722130  139.09300232    4.90999985    2.84999990
   16.18055534  133.09199524    4.90999985    2.84999990
   16.18388748  135.67700195    4.90999985    2.84999990
   16.18972206  135.67700195    4.90999985    2.84999990
   16.19388771  142.10299683    4.90999985    2.84999990
   16.19722176  132.31700134    4.90999985    2.84999990
   16.20027924  135.60400391    4.90999985    2.84999990
   16.20305634  131.30700684    4.90999985    2.84999990
   16.20388985  134.49600220    4.90999985    2.84999990
   16.20722389  137.21499634    4.90999985    2.84999990
   16.21027946  137.47099304    4.90999985    2.84999990
   16.21361160  135.14399719    4.90999985    2.84999990
   16.21694565  135.80900574    4.90999985    2.84999990
   16.22000122  139.37300110    4.90999985    2.84999990
   16.22333336  141.04600525    4.90999985    2.84999990
   16.22638893  134.58900452    4.90999985    2.84999990
   16.23250008  134.58900452    4.90999985    2.84999990
   16.23666763  134.24200439    4.90999985    2.84999990
   16.23999977  132.00100708    4.90999985    2.84999990
   16.24333382  136.09800720    4.90999985    2.84999990
   16.24638939  122.07099915    4.90999985    2.82999992
   16.24972153  127.60399628    4.90999985    2.84999990
   16.25277710  131.86799622    4.90999985    2.84999990
   16.25611115  130.84599304    4.90999985    2.84999990
   16.25944519  137.40699768    4.90999985    2.84999990
   16.26250076  128.51100159    4.90999985    2.84999990
   16.26583290  139.23199463    4.90999985    2.84999990
   16.26916695  136.89900208    4.90999985    2.84999990
   16.26972198  136.47999573    4.90999985    2.84999990
   16.27555466  136.47999573    4.90999985    2.84999990
   16.27944374  135.45799255    4.90999985    2.86999989
   16.28277779  126.18099976    4.90999985    2.84999990
   16.28610992  133.72000122    4.90999985    2.84999990
   16.28916550  138.36700439    4.90999985    2.84999990
   16.29249954  139.99400330    4.90999985    2.84999990
   16.29583359  131.35600281    4.90999985    2.84999990
   16.29888916  134.36900330    4.90999985    2.82999992
   16.30222130  135.70599365    4.90999985    2.84999990
   16.30305481  121.64399719    4.90999985    2.84999990
   16.30583191  127.72100067    4.90999985    2.84999990
   16.30916595  128.10699463    4.90999985    2.84999990
   16.31222153  134.92500305    4.90999985    2.86999989
   16.31833458  134.92500305    4.90999985    2.84999990
   16.32250023  134.57400513    4.90999985    2.84999990
   16.32555580  129.89199829    4.90999985    2.84999990
   16.32888985  130.13699341    4.90999985    2.84999990
   16.33222389  133.64799500    4.90999985    2.86999989
   16.33527756  137.55900574    4.90999985    2.84999990
   16.33638954  133.29200745    4.90999985    2.86999989
   16.33889008  132.48100281    4.90999985    2.84999990
   16.34222221  130.99800110    4.90999985    2.86999989
   16.34555626  141.36799622    4.90999985    2.84999990
   16.34861183  140.05299377    4.90999985    2.86999989
   16.35194397  135.49600220    4.90999985    2.84999990
   16.35499954  134.36300659    4.90999985    2.84999990
   16.36111069  134.36300659    4.90999985    2.84999990
   16.36527824  128.22000122    4.90999985    2.84999990
   16.36861038  139.53399658    4.90999985    2.84999990
   16.36972237  136.33399963    4.90999985    2.84999990
   16.37194443  127.32800293    4.90999985    2.84999990
   16.37527847  127.06700134    4.90999985    2.84999990
   16.37861061  130.82400513    4.90999985    2.86999989
   16.38166618  131.13600159    4.90999985    2.84999990
   16.38500023  133.60699463    4.90999985    2.84999990
   16.38833237  133.40699768    4.90999985    2.84999990
   16.39138794  138.83799744    4.90999985    2.86999989
   16.39472198  135.37100220    4.90999985    2.86999989
   16.39805603  132.12600708    4.90999985    2.84999990
   16.40388870  132.12600708    4.90999985    2.84999990
   16.40805435  126.49299622    4.90999985    2.84999990
   16.41138840  130.85499573    4.90999985    2.84999990
   16.41472244  133.47500610    4.90999985    2.84999990
   16.41777802  138.86500549    4.90999985    2.86999989
   16.42111015  135.12199402    4.90999985    2.84999990
   16.42416573  132.69299316    4.90999985    2.86999989
   16.42749977  131.44299316    4.90999985    2.84999990
   16.43083191  137.45700073    4.90999985    2.84999990
   16.43388748  127.05599976    4.90999985    2.84999990
   16.43638802  132.99000549    4.90999985    2.84999990
   16.43750000  124.51899719    4.90999985    2.84999990
   16.44083214  131.24499512    4.90999985    2.84999990
   16.44694328  131.24499512    4.90999985    2.86999989
   16.45111275  128.02099609    4.90999985    2.86999989
   16.45416832  130.37100220    4.90999985    2.86999989
   16.45750046  135.09899902    4.90999985    2.86999989
   16.46055603  128.75100708    4.90999985    2.84999990
   16.46389008  130.75599670    4.90999985    2.84999990
   16.46722221  134.51899719    4.90999985    2.84999990
   16.46972275  141.25199890    4.90999985    2.84999990
   16.47083473  130.15299988    4.90999985    2.84999990
   16.47416687  136.79400635    4.90999985    2.84999990
   16.47750092  138.31700134    4.90999985    2.86999989
   16.48055649  138.74800110    4.90999985    2.84999990
   16.48388863  148.57800293    4.90999985    2.86999989
   16.48972321  148.57800293    4.90999985    2.86999989
   16.49388885  132.38900757    4.90999985    2.86999989
   16.49694443  137.80999756    4.90999985    2.84999990
   16.50027847  134.40199280    4.90999985    2.84999990
   16.50305557  129.83999634    4.90999985    2.86999989
   16.50388908  136.91700745    4.90999985    2.84999990
   16.50722313  127.84400177    4.90999985    2.84999990
   16.51055527  132.66000366    4.90999985    2.84999990
   16.51361084  127.13300323    4.90999985    2.86999989
   16.51694489  138.19900513    4.90999985    2.86999989
   16.52000046  138.36099243    4.90999985    2.84999990
   16.52333260  127.37599945    4.90999985    2.86999989
   16.52666664  130.82600403    4.90999985    2.86999989
   16.53249931  130.82600403    4.90999985    2.84999990
   16.53666687  134.36199951    4.90999985    2.86999989
   16.53999901  133.19299316    4.90999985    2.86999989
   16.54305458  144.38400269    4.90999985    2.84999990
   16.54638863  131.54200745    4.90999985    2.86999989
   16.54972076  134.66200256    4.90999985    2.84999990
   16.55277634  136.36999512    4.90999985    2.84999990
   16.55611038  135.33200073    4.90999985    2.84999990
   16.55916595  132.50399780    4.90999985    2.84999990
   16.56250000  130.09700012    4.90999985    2.84999990
   16.56583214  137.32299805    4.90999985    2.84999990
   16.56888962  131.33299255    4.90999985    2.84999990
   16.56972313  135.63699341    4.90999985    2.86999989
   16.57527924  135.63699341    4.90999985    2.84999990
   16.57944489  134.91499329    4.90999985    2.84999990
   16.58277893  133.78399658    4.90999985    2.84999990
   16.58611107  131.81300354    4.90999985    2.86999989
   16.58916664  132.19900513    4.90999985    2.84999990
   16.59250069  132.82499695    4.90999985    2.86999989
   16.59555626  132.96699524    4.90999985    2.84999990
   16.59889030  141.05200195    4.90999985    2.84999990
   16.60222244  136.11300659    4.90999985    2.84999990
   16.60305595  136.61900330    4.90999985    2.84999990
   16.60555649  133.92999268    4.90999985    2.84999990
   16.60888863  136.43200684    4.90999985    2.86999989
   16.61222267  130.32699585    4.90999985    2.84999990
   16.61833382  130.32699585    4.90999985    2.84999990
   16.62249947  138.09199524    4.90999985    2.84999990
   16.62555504  132.50900269    4.90999985    2.86999989
   16.62888908  141.29400635    4.90999985    2.84999990
   16.63194466  138.42900085    4.90999985    2.84999990
   16.63527679  135.45100403    4.90999985    2.84999990
   16.63638878  131.29899597    4.90999985    2.84999990
   16.63888931  130.92300415    4.90999985    2.84999990
   16.64222145  136.02499390    4.90999985    2.84999990
   16.64555550  126.53500366    4.90999985    2.84999990
   16.64861107  139.57699585    4.90999985    2.84999990
   16.65194321  138.28100586    4.90999985    2.84999990
   16.65527725  137.33599854    4.90999985    2.86999989
   16.66110992  137.33599854    4.90999985    2.84999990
   16.66527748  132.30999756    4.90999985    2.84999990
   16.66833305  131.99800110    4.90999985    2.86999989
   16.66972160  132.79200745    4.90999985    2.84999990
   16.67194366  138.98100281    4.90999985    2.84999990
   16.67527771  132.39500427    4.90999985    2.84999990
   16.67860985  135.04400635    4.90999985    2.84999990
   16.68166542  136.33399963    4.90999985    2.84999990
   16.68499947  135.70700073    4.90999985    2.84999990
   16.68833160  144.46800232    4.90999985    2.84999990
   16.69138718  145.21099854    4.90999985    2.84999990
   16.69472122  135.61199951    4.90999985    2.84999990
   16.69777679  133.25700378    4.90999985    2.86999989
   16.70388985  133.25700378    4.90999985    2.84999990
   16.70805550  139.66000366    4.90999985    2.84999990
   16.71138954  143.70500183    4.90999985    2.84999990
   16.71444511  140.74200439    4.90999985    2.84999990
   16.71777916  141.47999573    4.90999985    2.86999989
   16.72083473  130.25199890    4.90999985    2.84999990
   16.72416687  153.44299316    4.90999985    2.84999990
   16.72750092  138.97900391    4.90999985    2.84999990
   16.73055649  152.19799805    4.90999985    2.86999989
   16.73388863  144.06799316    4.90999985    2.84999990
   16.73638916  144.63800049    4.90999985    2.84999990
   16.73750114  139.72700500    4.90999985    2.84999990
   16.74083328  147.02200317    4.90999985    2.84999990
   16.74666786  147.02200317    4.90999985    2.84999990
   16.75083351  142.55099487    4.90999985    2.84999990
   16.75416756  139.08500671    4.90999985    2.84999990
   16.75749969  145.54899597    4.90999985    2.84999990
   16.76055527  138.47099304    4.90999985    2.84999990
   16.76388931  137.06599426    4.90999985    2.84999990
   16.76694489  138.74400330    4.90999985    2.84999990
   16.76972198  141.51400757    4.90999985    2.84999990
   16.77055550  144.07699585    4.90999985    2.84999990
   16.77388954  137.84899902    4.90999985    2.84999990
   16.77722168  139.02699280    4.90999985    2.84999990
   16.78027725  151.18600464    4.90999985    2.84999990
   16.78361130  133.37500000    4.90999985    2.84999990
   16.78972244  133.37500000    4.90999985    2.84999990
   16.79361153  141.00700378    4.90999985    2.84999990
   16.79694366  152.91900635    4.90999985    2.84999990
   16.80027771  145.16200256    4.90999985    2.84999990
   16.80305481  134.76699829    4.90999985    2.86999989
   16.80360985  149.05099487    4.90999985    2.86999989
   16.80694389  140.25599670    4.90999985    2.84999990
   16.81027794  130.83900452    4.90999985    2.84999990
   16.81333351  131.28700256    4.90999985    2.84999990
   16.81666756  148.61000061    4.90999985    2.84999990
   16.81972313  142.02299500    4.90999985    2.84999990
   16.82305717  143.94400024    4.90999985    2.86999989
   16.82638931  137.62699890    4.90999985    2.84999990
   16.83250046  137.62699890    4.90999985    2.86999989
   16.83666801  135.37399292    4.90999985    2.86999989
   16.83972359  140.65100098    4.90999985    2.86999989
   16.84305573  133.96800232    4.90999985    2.86999989
   16.84638977  132.41600037    4.90999985    2.84999990
   16.84944534  136.79899597    4.90999985    2.86999989
   16.85277748  147.25000000    4.90999985    2.84999990
   16.85583305  136.76899719    4.90999985    2.84999990
   16.85916710  140.25900269    4.90999985    2.86999989
   16.86250114  141.15199280    4.90999985    2.86999989
   16.86555672  148.36000061    4.90999985    2.84999990
   16.86888885  134.69599915    4.90999985    2.84999990
   16.86972237  137.33399963    4.90999985    2.86999989
   16.89055634  137.33399963    4.90999985    2.86999989
   16.89444351  142.24899292    4.90999985    2.84999990
   16.89777756  139.97700500    4.90999985    2.84999990
   16.90111160  152.01100159    4.90999985    2.84999990
   16.90305519  141.31399536    4.90999985    2.84999990
   16.90444374  141.50199890    4.90999985    2.86999989
   16.90777779  135.53100586    4.90999985    2.86999989
   16.91110992  141.66200256    4.90999985    2.84999990
   16.91416550  138.01800537    4.90999985    2.86999989
   16.91749954  143.82499695    4.90999985    2.84999990
   16.92083359  158.44299316    4.90999985    2.84999990
   16.92388916  129.49200439    4.90999985    2.84999990
   16.92722130  141.11700439    4.90999985    2.84999990
   16.93305397  141.11700439    4.90999985    2.84999990
   16.93722153  152.68699646    4.90999985    2.86999989
   16.94055557  154.40299988    4.90999985    2.86999989
   16.94361115  136.45700073    4.90999985    2.84999990
   16.94694328  158.27099609    4.90999985    2.86999989
   16.95027924  138.70500183    4.90999985    2.86999989
   16.95333481  140.65600586    4.90999985    2.84999990
   16.95666695  139.71699524    4.90999985    2.89000010
   16.96000099  140.93400574    4.90999985    2.86999989
   16.96305656  145.54200745    4.90999985    2.84999990
   16.96638870  150.08000183    4.90999985    2.84999990
   16.96944427  145.64399719    4.90999985    2.84999990
   16.97000122  147.62800598    4.90999985    2.84999990
   16.97611237  147.62800598    4.90999985    2.86999989
   16.98000145  148.54100037    4.90999985    2.86999989
   16.98333359  160.02999878    4.90999985    2.84999990
   16.98666763  139.09800720    4.90999985    2.86999989
   16.98972321  146.06500244    4.90999985    2.84999990
   16.99305534  132.02900696    4.90999985    2.84999990
   16.99638939  139.92900085    4.90999985    2.86999989
   16.99944496  136.81199646    4.90999985    2.84999990
   17.00277710  172.18499756    4.90999985    2.84999990
   17.00333405  156.43499756    4.90999985    2.84999990
   17.00638962  149.43099976    4.90999985    2.86999989
   17.00972176  136.30499268    4.90999985    2.86999989
   17.01277733  144.35499573    4.90999985    2.84999990
   17.01888847  144.35499573    4.90999985    2.86999989
   17.02305603  150.36700439    4.90999985    2.86999989
   17.02611160  140.64900208    4.90999985    2.84999990
   17.02944374  158.00199890    4.90999985    2.86999989
   17.03277779  159.49800110    4.90999985    2.84999990
   17.03583336  161.90199280    4.90999985    2.84999990
   17.03666687  143.59300232    4.90999985    2.84999990
   17.03944397  140.24400330    4.90999985    2.86999989
   17.04277802  154.48599243    4.90999985    2.86999989
   17.04583359  146.04400635    4.90999985    2.86999989
   17.04916573  163.70799255    4.90999985    2.86999989
   17.05249977  146.75300598    4.90999985    2.86999989
   17.05555534  142.07600403    4.90999985    2.89000010
   17.06166649  142.07600403    4.90999985    2.84999990
   17.06583214  147.68600464    4.90999985    2.86999989
   17.06916809  162.60200500    4.90999985    2.82999992
   17.07000160  158.56900024    4.90999985    2.84999990
   17.07277870  139.88099670    4.90999985    2.84999990
   17.07611275  161.39199829    4.90999985    2.86999989
   17.07916832  144.15600586    4.90999985    2.86999989
   17.08250046  150.32800293    4.90999985    2.86999989
   17.08583450  151.07000732    4.90999985    2.86999989
   17.08889008  153.50799561    4.90999985    2.86999989
   17.09222221  153.46800232    4.90999985    2.86999989
   17.09527779  159.09700012    4.90999985    2.84999990
   17.09861183  157.56300354    4.90999985    2.86999989
   17.10444450  157.56300354    4.90999985    2.84999990
   17.10861206  145.15699768    4.90999985    2.84999990
   17.11194420  157.48100281    4.90999985    2.86999989
   17.11499977  148.17300415    4.90999985    2.86999989
   17.11833382  166.17500305    4.90999985    2.86999989
   17.12166595  154.30599976    4.90999985    2.86999989
   17.12472153  155.39100647    4.90999985    2.86999989
   17.12805557  155.93899536    4.90999985    2.84999990
   17.13138962  144.48399353    4.90999985    2.86999989
   17.13444519  153.91000366    4.90999985    2.84999990
   17.13666725  149.51300049    4.90999985    2.86999989
   17.13805580  166.29299927    4.90999985    2.84999990
   17.14138794  148.66700745    4.90999985    2.84999990
   17.14749908  148.66700745    4.90999985    2.84999990
   17.15138817  157.00300598    4.90999985    2.84999990
   17.15472221  149.07499695    4.90999985    2.86999989
   17.15805435  157.04299927    4.90999985    2.86999989
   17.16110992  154.26899719    4.90999985    2.86999989
   17.16444397  149.65100098    4.90999985    2.84999990
   17.16777802  156.22700500    4.90999985    2.84999990
   17.17000008  150.01800537    4.90999985    2.84999990
   17.17138863  152.80400085    4.90999985    2.84999990
   17.17472076  149.67199707    4.90999985    2.84999990
   17.17777634  135.50599670    4.90999985    2.84999990
   17.18111038  151.63999939    4.90999985    2.84999990
   17.18444443  157.60800171    4.90999985    2.86999989
   17.19027710  157.60800171    4.90999985    2.84999990
   17.19444275  154.04100037    4.90999985    2.84999990
   17.19749832  156.85400391    4.90999985    2.82999992
   17.20083427  144.28900146    4.90999985    2.86999989
   17.20333481  163.44599915    4.90999985    2.84999990
   17.20444489  141.94999695    4.90999985    2.84999990
   17.20777893  151.45300293    4.90999985    2.84999990
   17.21083450  151.46600342    4.90999985    2.84999990
   17.21416664  144.71000671    4.90999985    2.84999990
   17.21750069  159.44299316    4.90999985    2.84999990
   17.22055626  141.91900635    4.90999985    2.84999990
   17.22389030  154.68299866    4.90999985    2.86999989
   17.22722244  136.29299927    4.90999985    2.86999989
   17.23305511  136.29299927    4.90999985    2.84999990
   17.23722267  159.43699646    4.90999985    2.84999990
   17.24055672  163.64399719    4.90999985    2.84999990
   17.24361229  155.02799988    4.90999985    2.84999990
   17.24694443  160.91299438    4.90999985    2.84999990
   17.25000000  145.88999939    4.90999985    2.84999990
   17.25333405  158.26100159    4.90999985    2.86999989
   17.25666618  155.03100586    4.90999985    2.84999990
   17.25972176  138.70300293    4.90999985    2.84999990
   17.26305580  151.96800232    4.90999985    2.84999990
   17.26638794  144.33700562    4.90999985    2.84999990
   17.26944351  147.82600403    4.90999985    2.84999990
   17.27000046  158.42900085    4.90999985    2.84999990
   17.27583313  158.42900085    4.90999985    2.84999990
   17.28000069  155.05599976    4.90999985    2.86999989
   17.28333282  156.61799622    4.90999985    2.84999990
   17.28638840  159.00900269    4.90999985    2.84999990
   17.28972244  140.34500122    4.90999985    2.84999990
   17.29305458  144.15499878    4.90999985    2.86999989
   17.29611015  155.51499939    4.90999985    2.86999989
   17.29944420  154.89799500    4.90999985    2.84999990
   17.30277634  141.23399353    4.90999985    2.84999990
   17.30360985  153.93800354    4.90999985    2.84999990
   17.30611038  151.95300293    4.90999985    2.84999990
   17.30944443  151.09399414    4.90999985    2.84999990
   17.31277657  144.74699402    4.90999985    2.84999990
   17.31888962  144.74699402    4.90999985    2.86999989
   17.32277870  152.83599854    4.90999985    2.84999990
   17.32611275  145.42100525    4.90999985    2.86999989
   17.32944489  151.65800476    4.90999985    2.84999990
   17.33250046  145.48800659    4.90999985    2.86999989
   17.33583450  144.35400391    4.90999985    2.84999990
   17.33694458  148.82200623    4.90999985    2.84999990
   17.33944511  148.66000366    4.90999985    2.84999990
   17.34277916  146.20799255    4.90999985    2.84999990
   17.34583473  152.67399597    4.90999985    2.84999990
   17.34916687  145.67599487    4.90999985    2.84999990
   17.35250092  146.88400269    4.90999985    2.84999990
   17.35555649  132.45100403    4.90999985    2.84999990
   17.36166763  132.45100403    4.90999985    2.86999989
   17.36583328  139.44599915    4.90999985    2.84999990
   17.36888885  150.99099731    4.90999985    2.84999990
   17.37027740  150.96899414    4.90999985    2.84999990
   17.37249947  152.66999817    4.90999985    2.84999990
   17.37583351  136.08500671    4.90999985    2.84999990
   17.37888908  146.02699280    4.90999985    2.86999989
   17.38222313  143.38900757    4.90999985    2.84999990
   17.38555527  136.79400635    4.90999985    2.86999989
   17.38888931  146.58599854    4.90999985    2.84999990
   17.39194489  155.51800537    4.90999985    2.84999990
   17.39527702  143.80400085    4.90999985    2.84999990
   17.39833260  149.08500671    4.90999985    2.84999990
   17.40444374  149.08500671    4.90999985    2.84999990
   17.40861130  142.84300232    4.90999985    2.84999990
   17.41194344  130.86999512    4.90999985    2.84999990
   17.41499901  144.98100281    4.90999985    2.84999990
   17.41833305  146.06799316    4.90999985    2.84999990
   17.42138863  143.32800293    4.90999985    2.84999990
   17.42472076  149.48800659    4.90999985    2.84999990
   17.42805481  142.78500366    4.90999985    2.84999990
   17.43111038  149.92799377    4.90999985    2.84999990
   17.43444443  147.05599976    4.90999985    2.84999990
   17.43694305  143.08399963    4.90999985    2.84999990
   17.43805504  146.37500000    4.90999985    2.82999992
   17.44138718  149.36900330    4.90999985    2.84999990
   17.44722176  149.36900330    4.90999985    2.84999990
   17.45138931  157.31399536    4.90999985    2.84999990
   17.45472336  136.72500610    4.90999985    2.84999990
   17.45777893  143.79400635    4.90999985    2.84999990
   17.46111107  150.81799316    4.90999985    2.84999990
   17.46444511  138.80799866    4.90999985    2.84999990
   17.46750069  141.04899597    4.90999985    2.84999990
   17.47027779  150.83000183    4.90999985    2.86999989
   17.47111130  146.96000671    4.90999985    2.84999990
   17.47444534  151.42799377    4.90999985    2.84999990
   17.47750092  141.04499817    4.90999985    2.84999990
   17.48083305  149.78799438    4.90999985    2.84999990
   17.48416710  146.10699463    4.90999985    2.84999990
   17.49027824  146.10699463    4.90999985    2.86999989
   17.49416733  134.41900635    4.90999985    2.86999989
   17.49749947  147.26100159    4.90999985    2.84999990
   17.50083351  138.02999878    4.90999985    2.84999990
   17.50361061  143.39100647    4.90999985    2.84999990
   17.50444412  153.04299927    4.90999985    2.84999990
   17.50777817  142.15499878    4.90999985    2.84999990
   17.51083374  135.49299622    4.90999985    2.84999990
   17.51416588  143.37600708    4.90999985    2.84999990
   17.51749992  139.59399414    4.90999985    2.84999990
   17.52055550  142.04200745    4.90999985    2.84999990
   17.52388954  142.50100708    4.90999985    2.75000000
   17.52722168  143.19900513    4.90999985    2.73000002
   17.53305435  143.19900513    1.36000001    2.73000002
   17.53722191  146.00799561    0.50000000    2.73000002
   17.54027748  148.31300354    0.46000001    2.73000002
   17.54361153  151.68699646    0.44000000    2.73000002
   17.54694366  144.34300232    0.46000001    2.75000000
   17.54999924  141.97099304    0.44000000    2.73000002
   17.55333328  138.40899658    0.44000000    2.71000004
   17.55638885  143.25599670    0.44000000    2.75000000
   17.55972099  143.50500488    0.41999999    2.73000002
   17.56305504  138.40499878    0.41999999    2.73000002
   17.56611061  133.18200684    0.44000000    2.73000002
   17.56944466  150.13600159    0.40000001    2.73000002
   17.57027817  142.79400635    0.40000001    2.71000004
   17.57583427  142.79400635    0.46000001    2.73000002
   17.58000183  145.23800659    0.46000001    2.73000002
   17.58333397  138.05000305    0.46000001    2.73000002
   17.58638954  132.23800659    0.46000001    2.73000002
   17.58972359  141.57000732    0.47999999    2.73000002
   17.59277916  133.60200500    0.47999999    2.73000002
   17.59611130  147.47200012    0.47999999    2.73000002
   17.59944534  142.20100403    0.47999999    2.73000002
   17.60250092  139.92599487    0.47999999    2.73000002
   17.60361099  127.42199707    0.47999999    2.73000002
   17.60611153  138.92500305    0.47999999    2.73000002
   17.60944557  138.56500244    0.46000001    2.73000002
   17.61250114  143.66200256    0.44000000    2.71000004
   17.61861038  143.66200256    0.44000000    2.75000000
   17.62277794  144.84899902    0.41999999    2.73000002
   17.62611198  140.35400391    0.40000001    2.73000002
   17.62916756  150.80099487    0.38000000    2.73000002
   17.63249969  143.92799377    0.40000001    2.73000002
   17.63583374  147.82299805    0.38000000    2.73000002
   17.63694382  139.63000488    0.38000000    2.73000002
   17.63916588  146.77099609    0.38000000    2.71000004
   17.64249992  134.67999268    0.38000000    2.71000004
   17.64555550  145.91099548    0.34000000    2.71000004
   17.64888954  139.53700256    0.34000000    2.73000002
   17.65222168  120.43299866    0.34000000    2.73000002
   17.65527725  131.93299866    0.31999999    2.73000002
   17.66166687  131.93299866    0.31999999    2.71000004
   17.66555595  138.57899475    0.31999999    2.71000004
   17.66888809  141.56300354    0.31999999    2.73000002
   17.67027664  132.37899780    0.31999999    2.73000002
   17.67249870  138.05099487    0.36000001    2.71000004
   17.67583275  128.00700378    0.38000000    2.73000002
   17.67888832  140.21600342    0.38000000    2.73000002
   17.68222237  136.78300476    0.41999999    2.73000002
   17.68555450  134.23599243    0.44000000    2.73000002
   17.68861008  134.20199585    0.44000000    2.73000002
   17.69194412  135.22900391    0.41999999    2.73000002
   17.69527626  136.86099243    0.44000000    2.73000002
   17.69833183  139.60600281    0.41999999    2.71000004
   17.70444489  139.60600281    0.38000000    2.73000002
   17.70861244  127.74900055    0.40000001    2.71000004
   17.71166801  136.62699890    0.41999999    2.73000002
   17.71500015  142.07000732    0.41999999    2.73000002
   17.71833420  134.07400513    0.41999999    2.73000002
   17.72138977  144.22000122    0.41999999    2.73000002
   17.72472191  129.62300110    0.41999999    2.71000004
   17.72805595  134.99499512    0.41999999    2.71000004
   17.73139000  136.21299744    0.44000000    2.73000002
   17.73444557  143.06599426    0.40000001    2.73000002
   17.73694420  134.09199524    0.40000001    2.73000002
   17.73805618  141.25000000    0.40000001    2.73000002
   17.74138832  134.46200562    0.38000000    2.73000002
   17.74722290  134.46200562    0.38000000    2.73000002
   17.75138855  134.45599365    0.38000000    2.73000002
   17.75472260  136.34199524    0.38000000    2.71000004
   17.75777817  136.35299683    0.40000001    2.75000000
   17.76111031  132.14300537    0.40000001    2.75000000
   17.76416588  139.19400024    0.38000000    2.73000002
   17.76749992  139.27999878    0.38000000    2.71000004
   17.77027702  128.69999695    0.38000000    2.73000002
   17.77111053  139.55499268    0.38000000    2.73000002
   17.77444458  128.06100464    0.38000000    2.73000002
   17.77750015  135.76499939    0.38000000    2.71000004
   17.78083229  133.66000366    0.38000000    2.71000004
   17.78416634  133.98699951    0.38000000    2.73000002
   17.78999901  133.98699951    0.36000001    2.73000002
   17.79416656  138.78599548    0.36000001    2.73000002
   17.79749870  134.82499695    0.40000001    2.73000002
   17.80055428  137.72700500    0.40000001    2.73000002
   17.80360985  144.43499756    0.41999999    2.71000004
   17.80416679  124.73300171    0.41999999    2.71000004
   17.80749893  132.34500122    0.40000001    2.71000004
   17.81055450  134.94500732    0.38000000    2.73000002
   17.81388855  131.83299255    0.36000001    2.73000002
   17.81722260  137.08399963    0.40000001    2.71000004
   17.82027817  130.41999817    0.40000001    2.71000004
   17.82361221  138.47099304    0.38000000    2.71000004
   17.82694626  133.59100342    0.38000000    2.73000002
   17.83305550  133.59100342    0.38000000    2.71000004
   17.83694458  132.97999573    0.36000001    2.71000004
   17.84027863  132.88699341    0.36000001    2.71000004
   17.84361267  138.41400146    0.36000001    2.71000004
   17.84666824  137.67799377    0.36000001    2.71000004
   17.85000038  131.38999939    0.36000001    2.71000004
   17.85305595  134.05999756    0.40000001    2.73000002
   17.85639000  133.79400635    0.40000001    2.71000004
   17.85972214  131.68699646    0.41999999    2.73000002
   17.86277771  137.59500122    0.41999999    2.71000004
   17.86611176  132.82000732    0.41999999    2.71000004
   17.86944389  132.65800476    0.41999999    2.71000004
   17.87027740  129.82400513    0.58999997    2.71000004
   17.87583351  129.82400513    0.98000002    2.71000004
   17.88000107  136.59800720    0.86000001    2.71000004
   17.88305473  133.10499573    0.86000001    2.71000004
   17.88638878  132.02900696    0.70999998    2.71000004
   17.90388870  125.44499969    0.63000000    2.71000004
   17.90638924  132.11900330    0.63000000    2.71000004
   17.90972137  135.45700073    0.56999999    2.71000004
   17.91277695  127.93199921    0.56999999    2.71000004
   17.91888809  127.93199921    0.52999997    2.71000004
   17.92305565  134.62800598    0.50000000    2.71000004
   17.92611122  129.19200134    0.50000000    2.71000004
   17.92944336  129.95700073    0.47999999    2.73000002
   17.93249893  133.55799866    0.44000000    2.73000002
   17.93583298  132.19400024    0.41999999    2.71000004
   17.93722153  133.77200317    0.41999999    2.71000004
   17.93944359  139.52600098    0.40000001    2.73000002
   17.94249916  135.42199707    0.40000001    2.71000004
   17.94583321  138.03399658    0.38000000    2.71000004
   17.94916534  130.30099487    0.38000000    2.71000004
   17.95222282  130.44200134    0.41999999    2.71000004
   17.95555687  131.77299500    0.41999999    2.71000004
   17.96166801  131.77299500    0.50000000    2.71000004
   17.96583366  134.57099915    0.50000000    2.71000004
   17.96888924  127.88800049    0.52999997    2.71000004
   17.97055626  129.93899536    0.52999997    2.71000004
   17.97277832  135.19400024    0.52999997    2.71000004
   17.97583389  136.68400574    0.52999997    2.73000002
   17.97916794  130.68299866    0.52999997    2.71000004
   17.98250008  134.00000000    0.51999998    2.71000004
   17.98555565  129.35400391    0.51999998    2.71000004
   17.98888969  132.58799744    0.47999999    2.71000004
   17.99222183  130.49299622    0.44000000    2.71000004
   17.99527740  127.35199738    0.44000000    2.71000004
   17.99861145  134.77999878    0.41999999    2.71000004
   18.00444412  134.77999878    0.36000001    2.73000002
   18.00861168  126.32299805    0.36000001    2.73000002
   18.01194382  133.63900757    0.34000000    2.73000002
   18.01499939  139.85800171    0.34000000    2.73000002
   18.01833344  135.38200378    0.34000000    2.71000004
   18.02166557  133.76800537    0.31999999    2.71000004
   18.02472115  130.84300232    0.31999999    2.71000004
   18.02805519  132.56399536    0.31999999    2.71000004
   18.03111076  128.18600464    0.31999999    2.71000004
   18.03444481  129.63200378    0.31999999    2.71000004
   18.03722191  135.80599976    0.30000001    2.73000002
   18.03805542  129.97399902    0.30000001    2.73000002
   18.04111099  126.39199829    0.31999999    2.71000004
   18.04749870  126.39199829    0.36000001    2.71000004
   18.05138779  123.73999786    0.40000001    2.71000004
   18.05472183  129.83200073    0.44000000    2.71000004
   18.05805397  128.24200439    0.46000001    2.71000004
   18.06110954  126.71299744    0.47999999    2.71000004
   18.06444359  126.97299957    0.47999999    2.71000004
   18.06777954  126.66000366    0.47999999    2.71000004
   18.07055664  131.36799622    0.47999999    2.71000004
   18.07139015  131.48500061    0.47999999    2.71000004
   18.07444572  131.08099365    0.50000000    2.73000002
   18.07777786  122.81300354    0.47999999    2.71000004
   18.08111191  129.74400330    0.50000000    2.71000004
   18.08416748  126.29599762    0.50000000    2.71000004
   18.09027863  126.29599762    0.51999998    2.71000004
   18.09444427  129.99000549    0.55000001    2.71000004
   18.09749985  131.04699707    0.55000001    2.71000004
   18.10083389  129.38000488    0.51999998    2.71000004
   18.10388947  128.49000549    0.50000000    2.71000004
   18.10444450  129.97700500    0.50000000    2.71000004
   18.10750008  126.47699738    0.50000000    2.71000004
   18.11083412  128.27799988    0.50000000    2.71000004
   18.11416626  125.65799713    0.47999999    2.71000004
   18.11722183  124.31600189    0.47999999    2.71000004
   18.12055588  126.93199921    0.47999999    2.71000004
   18.12361145  126.27899933    0.47999999    2.71000004
   18.12694550  125.59100342    0.46000001    2.71000004
   18.13305473  125.59100342    0.47999999    2.71000004
   18.13722229  124.42400360    0.47999999    2.73000002
   18.13777733  122.62500000    0.47999999    2.73000002
   18.14083290  125.50900269    0.47999999    2.71000004
   18.14416695  129.06100464    0.47999999    2.71000004
   18.14749908  125.13800049    0.50000000    2.71000004
   18.15055466  123.43399811    0.52999997    2.71000004
   18.15388870  124.92900085    0.56999999    2.71000004
   18.15722275  129.09899902    0.64999998    2.71000004
   18.16027832  127.19999695    0.67000002    2.71000004
   18.16361046  125.26999664    0.67000002    2.71000004
   18.16666603  125.98600006    0.73000002    2.71000004
   18.17000008  125.72599792    0.75000000    2.71000004
   18.17055511  122.18599701    0.75000000    2.71000004
   18.17583275  122.18599701    0.70999998    2.71000004
   18.18000031  129.49099731    0.70999998    2.69000006
   18.18333244  126.99199677    0.69000000    2.71000004
   18.18638802  124.43900299    0.67000002    2.71000004
   18.18972206  124.01200104    0.63000000    2.71000004
   18.19305420  124.96099854    0.63000000    2.71000004
   18.19610977  130.51499939    0.58999997    2.71000004
   18.19944382  120.81900024    0.55000001    2.71000004
   18.20277786  124.64299774    0.55000001    2.71000004
   18.20388985  125.00900269    0.51999998    2.71000004
   18.20639038  124.48600006    0.51999998    2.71000004
   18.20972252  128.59100342    0.50000000    2.71000004
   18.21277809  124.42299652    0.50000000    2.71000004
   18.21861076  124.42299652    0.47999999    2.71000004
   18.22277832  131.13900757    0.50000000    2.71000004
   18.22611237  129.95300293    0.50000000    2.71000004
   18.22944450  128.30799866    0.51999998    2.71000004
   18.23250008  127.06500244    0.52999997    2.71000004
   18.23583412  126.16699982    0.52999997    2.71000004
   18.23750114  128.82099915    0.55000001    2.71000004
   18.23944473  129.73399353    0.55000001    2.71000004
   18.24277878  127.09999847    0.56999999    2.71000004
   18.24611092  127.94300079    0.56999999    2.71000004
   18.24916649  124.52500153    0.58999997    2.71000004
   18.25250053  122.32900238    0.58999997    2.71000004
   18.25555611  125.58599854    0.58999997    2.71000004
   18.26166725  125.58599854    0.58999997    2.71000004
   18.26583290  123.91100311    0.58999997    2.71000004
   18.26888847  124.24900055    0.58999997    2.71000004
   18.27055550  129.01800537    0.61000001    2.71000004
   18.27277756  126.80200195    0.61000001    2.71000004
   18.27583313  124.58599854    0.58999997    2.71000004
   18.27916718  119.10800171    0.56999999    2.71000004
   18.28249931  126.09999847    0.56999999    2.71000004
   18.28555489  123.56500244    0.55000001    2.71000004
   18.28888893  128.40299988    0.55000001    2.71000004
   18.29222107  124.93900299    0.55000001    2.71000004
   18.29527664  130.09500122    0.55000001    2.71000004
   18.29861069  128.40100098    0.51999998    2.71000004
   18.30444336  128.40100098    0.52999997    2.69000006
   18.30861092  124.35600281    0.52999997    2.71000004
   18.31166649  124.48699951    0.52999997    2.69000006
   18.31499863  132.51199341    0.51999998    2.69000006
   18.31833458  127.30599976    0.50000000    2.71000004
   18.32139015  122.16200256    0.50000000    2.71000004
   18.32472229  122.65299988    0.50000000    2.71000004
   18.32805634  125.73799896    0.46000001    2.71000004
   18.33111191  126.54699707    0.46000001    2.71000004
   18.33444595  125.08000183    0.46000001    2.71000004
   18.33722305  128.22099304    0.44000000    2.69000006
   18.33805656  124.98999786    0.44000000    2.69000006
   18.34111214  122.62100220    0.44000000    2.71000004
   18.34722328  122.62100220    0.44000000    2.71000004
   18.35138893  169.16200256    0.44000000    2.71000004
   18.35472298  125.74800110    0.46000001    2.69000006
   18.35777855  126.19699860    0.46000001    2.69000006
   18.36111069  126.38300323    0.46000001    2.71000004
   18.36444473  124.48799896    0.47999999    2.71000004
   18.36750031  126.73200226    0.47999999    2.69000006
   18.37055588  125.34999847    0.46000001    2.69000006
   18.37138939  120.52200317    0.46000001    2.69000006
   18.37444496  124.07499695    0.46000001    2.69000006
   18.37777710  127.34200287    0.46000001    2.71000004
   18.38111115  128.80400085    0.46000001    2.71000004
   18.38416672  123.26300049    0.47999999    2.69000006
   18.38999939  123.26300049    0.47999999    2.71000004
   18.39416695  127.45099640    0.47999999    2.71000004
   18.39749908  132.10099792    0.47999999    2.71000004
   18.40083313  127.30799866    0.46000001    2.71000004
   18.40388870  128.50900269    0.46000001    2.71000004
   18.40444374  126.53399658    0.46000001    2.71000004
   18.40777779  131.16900635    0.46000001    2.71000004
   18.41083336  122.59300232    0.46000001    2.71000004
   18.41416550  129.88499451    0.46000001    2.71000004
   18.41722107  129.11199951    0.46000001    2.71000004
   18.42055511  126.25599670    0.46000001    2.69000006
   18.42388916  120.86599731    0.46000001    2.69000006
   18.42694473  131.18299866    0.46000001    2.71000004
   18.43305397  131.18299866    0.46000001    2.71000004
   18.43722153  127.71199799    0.46000001    2.71000004
   18.43750000  127.68199921    0.46000001    2.69000006
   18.44083214  125.35600281    0.46000001    2.69000006
   18.44416618  134.30099487    0.47999999    2.71000004
   18.44722176  132.06500244    0.50000000    2.69000006
   18.45055580  124.03099823    0.55000001    2.69000006
   18.45388985  119.80500031    0.56999999    2.69000006
   18.45694542  130.44799805    0.58999997    2.71000004
   18.46027946  124.97000122    0.56999999    2.71000004
   18.46333504  126.62999725    0.56999999    2.71000004
   18.46666718  130.94299316    0.55000001    2.69000006
   18.47000122  124.71499634    0.51999998    2.69000006
   18.47083473  129.29899597    0.51999998    2.71000004
   18.47583389  129.29899597    0.50000000    2.71000004
   18.48000145  123.12500000    0.50000000    2.69000006
   18.48305511  125.94100189    0.50000000    2.69000006
   18.48638916  122.15000153    0.46000001    2.71000004
   18.48972321  124.80799866    0.44000000    2.69000006
   18.49305534  123.05899811    0.44000000    2.71000004
   18.49611092  120.19599915    0.44000000    2.71000004
   18.49944496  119.97399902    0.44000000    2.71000004
   18.50250053  127.76300049    0.44000000    2.69000006
   18.50416756  124.30899811    0.44000000    2.69000006
   18.50611115  130.65800476    0.41999999    2.69000006
   18.50944519  126.76699829    0.40000001    2.69000006
   18.51250076  129.30200195    0.40000001    2.69000006
   18.51861000  129.30200195    0.44000000    2.71000004
   18.52277756  121.29199982    0.44000000    2.69000006
   18.52611160  124.58100128    0.44000000    2.69000006
   18.52916718  123.41200256    0.44000000    2.69000006
   18.53249931  127.40899658    0.44000000    2.69000006
   18.53583336  128.54200745    0.46000001    2.71000004
   18.53777695  125.36900330    0.46000001    2.71000004
   18.53916550  122.38999939    0.46000001    2.69000006
   18.54249954  120.95099640    0.44000000    2.69000006
   18.54583359  119.65200043    0.44000000    2.69000006
   18.54888916  123.75399780    0.44000000    2.69000006
   18.55222130  133.36300659    0.44000000    2.69000006
   18.55527687  125.58100128    0.44000000    2.69000006
   18.56166649  125.58100128    0.46000001    2.69000006
   18.56555557  129.58900452    0.46000001    2.69000006
   18.56888962  125.91799927    0.46000001    2.71000004
   18.57111168  127.19499969    0.46000001    2.71000004
   18.57250023  124.99600220    0.46000001    2.69000006
   18.57583427  134.54899597    0.46000001    2.69000006
   18.57888985  122.65899658    0.46000001    2.69000006
   18.58222389  125.89099884    0.46000001    2.71000004
   18.58555603  122.67299652    0.44000000    2.69000006
   18.58861160  123.59899902    0.44000000    2.69000006
   18.59194565  124.09700012    0.44000000    2.71000004
   18.59527779  133.65600586    0.44000000    2.71000004
   18.59833336  125.96199799    0.46000001    2.69000006
   18.60444450  125.96199799    0.44000000    2.69000006
   18.60861206  120.92900085    0.44000000    2.69000006
   18.61166763  132.36900330    0.46000001    2.69000006
   18.61499977  124.87500000    0.46000001    2.69000006
   18.61833382  121.66699982    0.46000001    2.69000006
   18.62138939  132.96000671    0.46000001    2.69000006
   18.62472153  130.34800720    0.47999999    2.69000006
   18.62805557  127.08200073    0.47999999    2.67000008
   18.63111115  119.40699768    0.47999999    2.71000004
   18.63444519  136.75599670    0.47999999    2.71000004
   18.63777733  127.70099640    0.47999999    2.69000006
   18.63805580  133.65800476    0.47999999    2.69000006
   18.64138794  131.14599609    0.47999999    2.71000004
   18.64722252  131.14599609    0.47999999    2.69000006
   18.65138817  128.91499329    0.47999999    2.69000006
   18.65444374  133.33500671    0.47999999    2.69000006
   18.65777779  134.00100708    0.50000000    2.69000006
   18.66110992  131.92199707    0.51999998    2.69000006
   18.66416550  139.73500061    0.52999997    2.69000006
   18.66749954  137.93400574    0.51999998    2.69000006
   18.67083359  137.19799805    0.50000000    2.69000006
   18.67138863  137.32699585    0.50000000    2.69000006
   18.67444420  139.97799683    0.50000000    2.69000006
   18.67777634  129.89900208    0.50000000    2.69000006
   18.68111038  127.43699646    0.51999998    2.69000006
   18.68416595  127.27300262    0.50000000    2.69000006
   18.68999863  127.27300262    0.51999998    2.69000006
   18.69416618  132.06900024    0.51999998    2.69000006
   18.69749832  130.13099670    0.51999998    2.69000006
   18.70055580  135.27900696    0.51999998    2.69000006
   18.70388985  128.79299927    0.51999998    2.69000006
   18.70472336  134.36599731    0.51999998    2.69000006
   18.70750046  135.23100281    0.55000001    2.69000006
   18.71083450  134.78799438    0.56999999    2.69000006
   18.71416664  139.42399597    0.58999997    2.67000008
   18.71722221  130.77499390    0.56999999    2.69000006
   18.72055626  128.84899902    0.56999999    2.67000008
   18.72361183  133.49200439    0.56999999    2.67000008
   18.72694588  120.51599884    0.56999999    2.69000006
   18.73277855  120.51599884    0.51999998    2.69000006
   18.73694420  121.85600281    0.52999997    2.69000006
   18.73805618  126.84600067    0.52999997    2.69000006
   18.74055672  128.64599609    0.52999997    2.69000006
   18.74388885  127.59100342    0.51999998    2.69000006
   18.74694443  130.66499329    0.51999998    2.69000006
   18.75027847  132.99699402    0.50000000    2.69000006
   18.75361061  137.01699829    0.51999998    2.71000004
   18.75666618  131.30000305    0.55000001    2.69000006
   18.76000023  134.11799622    0.56999999    2.67000008
   18.76333427  130.71600342    0.56999999    2.67000008
   18.76638794  128.19999695    0.56999999    2.67000008
   18.76972198  131.66000366    0.56999999    2.69000006
   18.77138901  125.77600098    0.61000001    2.67000008
   18.77583313  125.77600098    0.61000001    2.67000008
   18.77972221  134.96400452    0.61000001    2.67000008
   18.78305435  130.94200134    0.63000000    2.67000008
   18.78638840  138.10600281    0.69000000    2.69000006
   18.78944397  136.87800598    0.69000000    2.69000006
   18.79277802  129.38099670    0.69000000    2.69000006
   18.79611015  131.41700745    0.69000000    2.69000006
   18.79916573  129.11300659    0.69000000    2.66000009
   18.80249977  125.80400085    0.69000000    2.67000008
   18.80472183  132.54800415    0.69000000    2.67000008
   18.80611038  130.76400757    0.67000002    2.67000008
   18.80944443  132.97599792    0.67000002    2.69000006
   18.81250000  138.92599487    0.67000002    2.67000008
   18.81861115  138.92599487    0.63000000    2.69000006
   18.82277870  124.80300140    0.61000001    2.67000008
   18.82611275  129.32699585    0.56999999    2.69000006
   18.82916832  139.66299438    0.52999997    2.69000006
   18.83250046  130.40800476    0.52999997    2.69000006
   18.83555603  126.57599640    0.51999998    2.69000006
   18.83805656  135.91900635    0.51999998    2.69000006
   18.83916664  134.95300293    0.51999998    2.69000006
   18.84250069  137.61000061    0.50000000    2.67000008
   18.84583473  141.59700012    0.47999999    2.67000008
   18.84889030  127.15599823    0.47999999    2.67000008
   18.85222244  134.67599487    0.46000001    2.69000006
   18.85527802  136.24099731    0.46000001    2.69000006
   18.86138916  136.24099731    0.46000001    2.67000008
   18.86555672  130.55299377    0.46000001    2.67000008
   18.86888885  134.99400330    0.47999999    2.67000008
   18.87138939  132.37100220    0.47999999    2.67000008
   18.87222290  134.17199707    0.50000000    2.69000006
   18.87555504  128.34899902    0.50000000    2.69000006
   18.87888908  126.73400116    0.56999999    2.69000006
   18.88194466  127.90100098    0.64999998    2.67000008
   18.88527679  130.21699524    0.75000000    2.67000008
   18.88833237  126.36199951    0.79000002    2.67000008
   18.89166641  142.62100220    0.81999999    2.66000009
   18.89500046  129.34100342    0.81999999    2.66000009
   18.89805603  132.50599670    0.83999997    2.67000008
   18.90416718  132.50599670    0.86000001    2.67000008
   18.92277718  126.81900024    0.89999998    2.67000008
   18.92583275  140.06900024    0.89999998    2.67000008
   18.92916679  132.96000671    0.86000001    2.67000008
   18.93222237  137.35000610    0.80000001    2.67000008
   18.93555450  141.87100220    0.75000000    2.67000008
   18.93888855  132.42900085    0.67000002    2.67000008
   18.94194412  138.17999268    0.64999998    2.66000009
   18.94749832  138.17999268    0.61000001    2.67000008
   18.95138931  132.13800049    0.58999997    2.66000009
   18.95472336  137.01499939    0.56999999    2.67000008
   18.95583344  131.88299561    0.56999999    2.67000008
   18.95833397  136.25599670    0.55000001    2.67000008
   18.96166801  145.55099487    0.56999999    2.67000008
   18.96500015  132.22200012    0.55000001    2.67000008
   18.96805573  134.93099976    0.55000001    2.67000008
   18.97138977  131.99699402    0.52999997    2.67000008
   18.97444534  135.99000549    0.52999997    2.67000008
   18.97777748  137.82600403    0.56999999    2.67000008
   18.98111153  131.13900757    0.58999997    2.67000008
   18.98416710  131.70100403    0.63000000    2.66000009
   18.99027824  131.70100403    0.63000000    2.67000008
   18.99444389  133.58099365    0.63000000    2.67000008
   18.99749947  139.31700134    0.61000001    2.66000009
   19.00083351  142.30700684    0.61000001    2.67000008
   19.00416756  135.05200195    0.58999997    2.67000008
   19.00722313  139.32699585    0.55000001    2.67000008
   19.01055527  134.61999512    0.55000001    2.67000008
   19.01361084  130.39199829    0.55000001    2.67000008
   19.01694489  133.41000366    0.55000001    2.67000008
   19.02027702  129.37399292    0.58999997    2.66000009
   19.02249908  138.03199768    0.61000001    2.66000009
   19.02388954  134.75100708    0.61000001    2.66000009
   19.02722168  145.18400574    0.61000001    2.66000009
   19.03305435  145.18400574    0.56999999    2.66000009
   19.03722191  138.65699768    0.52999997    2.67000008
   19.04055595  133.18200684    0.52999997    2.67000008
   19.04361153  136.13499451    0.58999997    2.66000009
   19.04694366  124.64399719    0.58999997    2.66000009
   19.04999924  133.63699341    0.67000002    2.67000008
   19.05333328  134.65800476    0.88000000    2.66000009
   19.05583191  138.73500061    1.21000004    2.66000009
   19.05694389  133.77200317    1.21000004    2.66000009
   19.06027794  127.30400085    1.28999996    2.66000009
   19.06361008  133.77699280    1.28999996    2.66000009
   19.06666756  140.56399536    1.28999996    2.66000009
   19.07000160  137.27000427    1.26999998    2.66000009
   19.07583427  137.27000427    1.28999996    2.66000009
   19.08000183  146.24000549    1.50000000    2.66000009
   19.08333397  130.00700378    1.63000000    2.64000010
   19.08638954  142.72500610    1.50000000    2.66000009
   19.08916664  139.88999939    1.50000000    2.66000009
   19.09000015  138.57800293    1.50000000    2.66000009
   19.09361267  138.12600708    1.19000006    2.66000009
   19.09694481  134.56300354    1.05999994    2.66000009
   19.10055542  136.25399780    0.95999998    2.66000009
   19.10361099  140.96400452    0.88000000    2.66000009
   19.10694504  135.00599670    0.69000000    2.66000009
   19.11000061  138.37199402    0.67000002    2.67000008
   19.11333466  140.89799500    0.67000002    2.67000008
   19.11861038  140.89799500    0.63000000    2.64000010
   19.12277794  135.14599609    0.56999999    2.66000009
   19.12611198  139.24099731    0.52999997    2.66000009
   19.12944412  131.33500671    0.50000000    2.66000009
   19.13249969  135.36599731    0.47999999    2.66000009
   19.13583374  137.61500549    0.47999999    2.66000009
   19.13916588  136.79100037    0.44000000    2.66000009
   19.14222145  134.41000366    0.52999997    2.67000008
   19.14555550  137.08099365    0.51999998    2.66000009
   19.14861107  136.47500610    0.50000000    2.66000009
   19.15194321  132.29200745    0.51999998    2.64000010
   19.15527725  132.32499695    0.51999998    2.64000010
   19.15583229  131.16400146    0.51999998    2.64000010
   19.16166687  131.16400146    0.50000000    2.66000009
   19.16583252  140.53799438    0.51999998    2.66000009
   19.16888809  139.50700378    0.51999998    2.66000009
   19.17222214  133.50399780    0.50000000    2.66000009
   19.17555428  134.92599487    0.51999998    2.67000008
   19.17860985  137.47300720    0.51999998    2.64000010
   19.18194389  132.43600464    0.52999997    2.66000009
   19.18499947  130.16799927    0.52999997    2.64000010
   19.18833160  137.68600464    0.51999998    2.66000009
   19.18916512  134.66799927    0.51999998    2.66000009
   19.19194412  136.52099609    0.51999998    2.66000009
   19.19527626  131.98899841    0.51999998    2.66000009
   19.19861031  138.70799255    0.51999998    2.64000010
   19.20444489  138.70799255    0.47999999    2.66000009
   19.20861244  138.36999512    0.51999998    2.66000009
   19.21194458  131.73399353    0.58999997    2.66000009
   19.21500015  132.21299744    0.63000000    2.64000010
   19.21833420  132.86700439    0.67000002    2.64000010
   19.22138977  138.08700562    0.67000002    2.64000010
   19.22249985  141.22700500    0.67000002    2.64000010
   19.22500038  129.74499512    0.64999998    2.64000010
   19.22833443  144.18099976    0.64999998    2.64000010
   19.23166656  132.88299561    0.64999998    2.64000010
   19.23472214  132.03399658    0.63000000    2.64000010
   19.23805618  129.86199951    0.63000000    2.64000010
   19.24111176  127.90599823    0.63000000    2.64000010
   19.24722290  127.90599823    0.52999997    2.66000009
   19.25138855  131.41600037    0.52999997    2.64000010
   19.25472260  138.11799622    0.51999998    2.64000010
   19.25583267  137.80299377    0.51999998    2.64000010
   19.25805473  131.27699280    0.51999998    2.64000010
   19.26138878  131.56900024    0.47999999    2.64000010
   19.26472282  137.24499512    0.46000001    2.64000010
   19.26777840  131.90499878    0.44000000    2.64000010
   19.27111053  132.89199829    0.44000000    2.64000010
   19.27444458  138.77400208    0.44000000    2.64000010
   19.27750015  136.62600708    0.44000000    2.64000010
   19.28083229  125.84400177    0.46000001    2.64000010
   19.28388786  133.15899658    0.46000001    2.64000010
   19.28999901  133.15899658    0.46000001    2.64000010
   19.29416656  126.91699982    0.47999999    2.64000010
   19.29749870  126.83200073    0.47999999    2.64000010
   19.30083275  125.59200287    0.47999999    2.64000010
   19.30388832  124.30100250    0.47999999    2.64000010
   19.30722237  129.38900757    0.50000000    2.64000010
   19.31027794  124.23600006    0.50000000    2.64000010
   19.31361008  130.71899414    0.50000000    2.64000010
   19.31694603  128.75399780    0.50000000    2.61999989
   19.32000160  131.00500488    0.50000000    2.64000010
   19.32250023  132.20599365    0.47999999    2.64000010
   19.32361221  132.02799988    0.47999999    2.64000010
   19.32694626  131.30799866    0.47999999    2.64000010
   19.33305550  131.30799866    0.47999999    2.64000010
   19.33722305  143.22999573    0.47999999    2.64000010
   19.34055710  135.70500183    0.50000000    2.64000010
   19.34388924  132.52799988    0.50000000    2.64000010
   19.34694481  134.85099792    0.50000000    2.64000010
   19.35027885  137.77999878    0.51999998    2.64000010
   19.35333443  134.19299316    0.51999998    2.64000010
   19.35583305  135.41499329    0.50000000    2.64000010
   19.35694504  135.65199280    0.50000000    2.64000010
   19.36027908  141.18600464    0.50000000    2.64000010
   19.36361122  134.43499756    0.52999997    2.64000010
   19.36666679  136.43600464    0.51999998    2.64000010
   19.37000084  129.95599365    0.51999998    2.64000010
   19.37583351  129.95599365    0.50000000    2.61999989
   19.38000107  140.57000732    0.51999998    2.64000010
   19.38305473  135.40800476    0.51999998    2.64000010
   19.38638878  132.31199646    0.51999998    2.64000010
   19.38916588  130.56700134    0.52999997    2.64000010
   19.38999939  137.31500244    0.52999997    2.64000010
   19.39333344  131.28199768    0.51999998    2.64000010
   19.39666748  129.52900696    0.52999997    2.61999989
   19.39972115  145.76499939    0.55000001    2.64000010
   19.40305519  134.40100098    0.55000001    2.61999989
   19.40638924  129.62500000    0.55000001    2.61999989
   19.40944481  134.10899353    0.55000001    2.61999989
   19.41277695  130.70100403    0.55000001    2.61999989
   19.41860962  130.70100403    0.55000001    2.61999989
   19.42277718  129.65199280    0.56999999    2.64000010
   19.42611122  130.92799377    0.56999999    2.64000010
   19.42916679  134.30200195    0.55000001    2.64000010
   19.43249893  130.05700684    0.52999997    2.64000010
   19.43583298  119.73799896    0.51999998    2.61999989
   19.43888855  131.76199341    0.51999998    2.61999989
   19.44222069  126.13300323    0.50000000    2.61999989
   19.44555473  125.90200043    0.50000000    2.61999989
   19.44861031  128.35400391    0.47999999    2.61999989
   19.45194435  132.16900635    0.50000000    2.61999989
   19.45527840  135.72700500    0.47999999    2.64000010
   19.45583344  129.91799927    0.47999999    2.64000010
   19.46166801  129.91799927    0.47999999    2.61999989
   19.46555710  134.24699402    0.47999999    2.61999989
   19.46888924  135.51300049    0.47999999    2.64000010
   19.47222328  137.55700684    0.50000000    2.61999989
   19.47527885  131.78399658    0.50000000    2.61999989
   19.47861099  137.79200745    0.50000000    2.61999989
   19.48194504  133.56500244    0.51999998    2.61999989
   19.48500061  136.85099792    0.51999998    2.61999989
   19.48833275  129.17700195    0.51999998    2.61999989
   19.48916626  130.33200073    0.51999998    2.61999989
   19.49194527  131.63499451    0.50000000    2.61999989
   19.49500084  133.80299377    0.50000000    2.61999989
   19.49833298  138.77299500    0.51999998    2.61999989
   19.50444412  138.77299500    0.50000000    2.61999989
   19.50861168  128.65899658    0.50000000    2.61999989
   19.51166725  134.77600098    0.50000000    2.61999989
   19.51499939  131.70899963    0.50000000    2.61999989
   19.51805496  132.98699951    0.50000000    2.61999989
   19.52138901  135.30499268    0.50000000    2.61999989
   19.52249908  128.78300476    0.50000000    2.61999989
   19.52499962  131.71099854    0.50000000    2.61999989
   19.52833366  131.60699463    0.50000000    2.61999989
   19.53166580  129.48800659    0.47999999    2.61999989
   19.53472137  130.46600342    0.47999999    2.61999989
   19.53805542  132.22700500    0.47999999    2.61999989
   19.54138756  132.24299622    0.47999999    2.61999989
   19.54722214  132.24299622    0.47999999    2.61999989
   19.55138779  127.43900299    0.47999999    2.61999989
   19.55444336  132.87399292    0.47999999    2.61999989
   19.55583191  132.24499512    0.47999999    2.61999989
   19.55805397  135.56700134    0.47999999    2.59999990
   19.56138802  132.79499817    0.47999999    2.59999990
   19.56472206  133.89900208    0.50000000    2.61999989
   19.56777954  125.45200348    0.50000000    2.61999989
   19.57111168  145.30400085    0.50000000    2.61999989
   19.57444572  133.33399963    0.52999997    2.59999990
   19.57750130  129.04800415    0.52999997    2.59999990
   19.58083344  125.45500183    0.51999998    2.59999990
   19.58416748  135.00300598    0.56999999    2.59999990
   19.59000015  135.00300598    0.56999999    2.59999990
   19.59416771  133.47500610    0.55000001    2.59999990
   19.59749985  143.38800049    0.52999997    2.59999990
   19.60055542  126.36699677    0.52999997    2.59999990
   19.60388947  135.22099304    0.52999997    2.61999989
   19.60722351  139.11300659    0.55000001    2.59999990
   19.61027908  144.40499878    0.55000001    2.59999990
   19.61361122  144.36599731    0.55000001    2.59999990
   19.61666679  133.46800232    0.56999999    2.61999989
   19.62000084  141.94700623    0.55000001    2.59999990
   19.62249947  139.33399963    0.55000001    2.59999990
   19.62388992  139.29100037    0.55000001    2.59999990
   19.62694550  136.40800476    0.56999999    2.59999990
   19.63277817  136.40800476    0.56999999    2.61999989
   19.63694382  137.42999268    0.56999999    2.59999990
   19.64027786  134.01899719    0.56999999    2.59999990
   19.64333344  145.92599487    0.55000001    2.59999990
   19.64666748  143.06100464    0.55000001    2.59999990
   19.64999962  144.49200439    0.55000001    2.59999990
   19.65305519  139.18899536    0.52999997    2.57999992
   19.65583229  148.92100525    0.52999997    2.57999992
   19.65694427  141.58000183    0.52999997    2.57999992
   19.65999985  130.94799805    0.51999998    2.59999990
   19.66333389  141.22700500    0.50000000    2.57999992
   19.66638756  142.39300537    0.50000000    2.59999990
   19.66972160  139.88600159    0.50000000    2.59999990
   19.67583275  139.88600159    0.50000000    2.59999990
   19.68000031  146.32699585    0.50000000    2.59999990
   19.68305397  141.47200012    0.50000000    2.59999990
   19.68638802  138.98599243    0.50000000    2.59999990
   19.68916512  139.99899292    0.50000000    2.59999990
   19.68999863  134.58700562    0.50000000    2.59999990
   19.69305420  133.09399414    0.50000000    2.57999992
   19.69638824  130.37899780    0.51999998    2.57999992
   19.69944382  137.95599365    0.50000000    2.57999992
   19.70277786  138.53399658    0.51999998    2.57999992
   19.70611191  140.41799927    0.51999998    2.57999992
   19.70916748  142.78500366    0.51999998    2.57999992
   19.71250153  147.98800659    0.50000000    2.57999992
   19.71861076  147.98800659    0.50000000    2.57999992
   19.72277832  150.14399719    0.50000000    2.57999992
   19.72583389  149.85200500    0.50000000    2.57999992
   19.72916794  136.22500610    0.50000000    2.57999992
   19.73250008  149.64500427    0.50000000    2.57999992
   19.73555565  148.04400635    0.50000000    2.57999992
   19.73888969  142.63299561    0.50000000    2.59999990
   19.74194527  142.84800720    0.50000000    2.59999990
   19.74527740  138.31300354    0.47999999    2.59999990
   19.74861145  141.69500732    0.47999999    2.57999992
   19.75166702  144.08799744    0.47999999    2.57999992
   19.75499916  138.86500549    0.46000001    2.57999992
   19.75583267  143.36999512    0.46000001    2.57999992
   19.76138878  143.36999512    0.46000001    2.57999992
   19.76555634  134.57000732    0.46000001    2.57999992
   19.76888847  142.73599243    0.44000000    2.57999992
   19.77194405  145.02900696    0.44000000    2.57999992
   19.77527809  145.07899475    0.44000000    2.57999992
   19.77861023  146.45799255    0.44000000    2.57999992
   19.78166580  137.40400696    0.44000000    2.57999992
   19.78499985  133.92700195    0.44000000    2.57999992
   19.78833199  139.52999878    0.44000000    2.57999992
   19.78916550  147.29299927    0.44000000    2.57999992
   19.79194450  160.95599365    0.44000000    2.57999992
   19.79500008  178.50000000    0.46000001    2.57999992
   19.79833221  198.30200195    0.46000001    2.57999992
