    HOUR (UT)   FLARE FACTOR    SKY TESTER    SUN TESTER
   17.53750038   -1.00000000   -1.00000000   -1.00000000
   18.58194542   84.98999786    2.57999992    2.78999996
   18.58527756   81.67990112    2.57999992    2.78999996
   18.58833313   82.11019897    2.57999992    2.78999996
   18.59166718   87.41999817    2.57999992    2.78999996
   18.59472275   91.16979980    2.59999990    2.76999998
   18.59805679   86.27929688    2.61999989    2.76999998
   18.60222244   86.27929688    2.61999989    2.76999998
   18.60639000   92.74880219    2.61999989    2.76999998
   18.60944557   92.51830292    2.61999989    2.76999998
   18.61277771   92.15910339    2.59999990    2.78999996
   18.61527824   98.69490051    2.59999990    2.78999996
   18.61638832   97.40720367    2.59999990    2.78999996
   18.61972237  100.49400330    2.59999990    2.78999996
   18.62277794  105.10500336    2.57999992    2.78999996
   18.62611198  100.04000092    2.59999990    2.76999998
   18.62944412  101.14600372    2.59999990    2.78999996
   18.63249969  104.32499695    2.59999990    2.76999998
   18.63583374  103.77999878    2.59999990    2.76999998
   18.63916588  105.02600098    2.59999990    2.78999996
   18.64500046  105.02600098    2.64000010    2.78999996
   18.64916611  110.36499786    2.64000010    2.76999998
   18.65250015  108.44499969    2.64000010    2.76999998
   18.65555573  108.45999908    2.66000009    2.78999996
   18.65888786  109.48500061    2.64000010    2.78999996
   18.66194344  111.23200226    2.64000010    2.76999998
   18.66527748  109.06300354    2.64000010    2.76999998
   18.66860962  115.63400269    2.64000010    2.76999998
   18.67166519  104.17600250    2.64000010    2.76999998
   18.67499924  113.23000336    2.66000009    2.76999998
   18.67833328  116.51699829    2.66000009    2.78999996
   18.68138885  114.41999817    2.67000008    2.76999998
   18.68194389  107.41000366    2.67000008    2.78999996
   18.68777657  107.41000366    2.66000009    2.78999996
   18.69194412  112.78399658    2.64000010    2.78999996
   18.69527626  113.11000061    2.66000009    2.78999996
   18.69861031  118.13600159    2.67000008    2.76999998
   18.70166779  111.19300079    2.67000008    2.76999998
   18.70499992  115.93199921    2.71000004    2.76999998
   18.70805550  119.03399658    2.73000002    2.76999998
   18.71138954  120.23500061    2.73000002    2.76999998
   18.71472359  116.04900360    2.75000000    2.76999998
   18.71527863  114.07800293    2.75000000    2.76999998
   18.71833420  114.24199677    2.76999998    2.76999998
   18.72138977  113.30300140    2.78999996    2.76999998
   18.72472191  118.68900299    2.80999994    2.76999998
   18.73083305  118.68900299    2.82999992    2.75000000
   18.73472214  112.17500305    2.82999992    2.78999996
   18.73805618  124.35099792    2.86999989    2.76999998
   18.74138832  125.97899628    2.84999990    2.75000000
   18.74444389  120.13600159    2.82999992    2.75000000
   18.74777794  125.82900238    2.80999994    2.76999998
   18.74861145  126.06700134    2.78999996    2.76999998
   18.75138855  121.94599915    2.78999996    2.78999996
   18.75444412  122.77600098    2.78999996    2.76999998
   18.75777817  120.76599884    2.76999998    2.78999996
   18.76111031  117.20700073    2.75000000    2.76999998
   18.76416588  120.18499756    2.75000000    2.78999996
   18.76749992  116.33999634    2.75000000    2.76999998
   18.77361107  116.33999634    2.71000004    2.76999998
   18.77777672  121.29699707    2.71000004    2.76999998
   18.78083229  123.23400116    2.71000004    2.78999996
   18.78194427  126.72100067    2.71000004    2.76999998
   18.78472137  119.65000153    2.69000006    2.76999998
   18.78777695  119.70700073    2.69000006    2.76999998
   18.79111099  118.76399994    2.67000008    2.76999998
   18.79444313  121.29900360    2.71000004    2.78999996
   18.79749870  128.67100525    2.73000002    2.76999998
   18.80083275  132.55000305    2.73000002    2.76999998
   18.80388832  131.57400513    2.76999998    2.76999998
   18.80722237  127.55999756    2.76999998    2.76999998
   18.81055450  124.10299683    2.76999998    2.76999998
   18.81638718  124.10299683    2.78999996    2.76999998
   18.82055664  119.61499786    2.80999994    2.76999998
   18.82389069  124.10099792    2.78999996    2.75000000
   18.82694626  128.71400452    2.78999996    2.76999998
   18.83027840  126.13600159    2.78999996    2.78999996
   18.83333397  121.22299957    2.80999994    2.76999998
   18.83666801  129.24400330    2.82999992    2.76999998
   18.84000015  125.81700134    2.82999992    2.75000000
   18.84305573  120.63500214    2.84999990    2.76999998
   18.84638977  124.89399719    2.82999992    2.76999998
   18.84861183  127.26399994    2.82999992    2.75000000
   18.85000038  126.83999634    2.82999992    2.76999998
   18.85305595  134.66999817    2.80999994    2.75000000
   18.85916710  134.66999817    2.78999996    2.76999998
   18.86333466  134.44900513    2.76999998    2.76999998
   18.86666679  135.48800659    2.75000000    2.75000000
   18.86972237  135.94799805    2.75000000    2.76999998
   18.87305641  134.73899841    2.73000002    2.76999998
   18.87638855  132.21600342    2.71000004    2.76999998
   18.87944412  134.91900635    2.73000002    2.75000000
   18.88194466  133.69700623    2.73000002    2.76999998
   18.88333321  126.83300018    2.73000002    2.76999998
   18.88638878  133.59599304    2.73000002    2.76999998
   18.88972282  138.75199890    2.73000002    2.76999998
   18.89305496  131.40600586    2.71000004    2.76999998
   18.89611053  141.14199829    2.71000004    2.76999998
   18.90222168  141.14199829    2.71000004    2.75000000
   18.90611076  126.43399811    2.71000004    2.75000000
   18.90944481  131.53100586    2.71000004    2.76999998
   18.91277695  143.37699890    2.69000006    2.76999998
   18.91527748  133.73399353    2.71000004    2.75000000
   18.91638756  136.96699524    2.69000006    2.76999998
   18.91944313  130.59800720    2.71000004    2.75000000
   18.92277718  130.05000305    2.73000002    2.76999998
   18.92611122  136.50500488    2.76999998    2.78999996
   18.92916679  138.20799255    2.80999994    2.75000000
   18.93249893  139.67799377    2.86999989    2.76999998
   18.93555450  136.17399597    2.91000009    2.75000000
   18.93888855  134.09100342    2.96000004    2.75000000
   18.94499969  134.09100342    3.01999998    2.76999998
   18.94916534  139.77600098    3.03999996    2.76999998
   18.95222282  140.10400391    3.07999992    2.75000000
   18.95555687  139.10099792    3.05999994    2.75000000
   18.95888901  131.88200378    3.07999992    2.75000000
   18.96194458  134.88099670    3.09999990    2.75000000
   18.96527863  128.79899597    3.09999990    2.75000000
   18.96833420  137.03300476    3.11999989    2.76999998
   18.97166634  133.39100647    3.11999989    2.75000000
   18.97500038  134.77699280    3.11999989    2.75000000
   18.97805595  137.85000610    3.11999989    2.75000000
   18.98139000  133.07899475    3.11999989    2.75000000
   18.98194504  129.23699951    3.11999989    2.75000000
   18.98777771  129.23699951    3.14000010    2.75000000
   18.99194527  143.77499390    3.16000009    2.75000000
   18.99527740  146.62300110    3.18000007    2.75000000
   18.99833298  144.57699585    3.18000007    2.75000000
   19.00166702  130.54499817    3.20000005    2.75000000
   19.00472260  137.66299438    3.20000005    2.75000000
   19.00805473  135.77400208    3.18000007    2.75000000
   19.01138878  137.16200256    3.16000009    2.75000000
   19.01444435  150.91099548    3.14000010    2.75000000
   19.01527786  140.52299500    3.14000010    2.75000000
   19.01805496  139.28799438    3.11999989    2.75000000
   19.02111053  143.18699646    3.09999990    2.73000002
   19.02444458  144.16999817    3.07999992    2.75000000
   19.03055573  144.16999817    3.05999994    2.75000000
   19.03472137  140.25999451    3.09999990    2.75000000
   19.03805542  147.27600098    3.09999990    2.75000000
   19.04111099  141.55400085    3.09999990    2.75000000
   19.04444313  135.68299866    3.09999990    2.73000002
   19.04777718  135.97399902    3.09999990    2.75000000
   19.04861069  142.67900085    3.09999990    2.73000002
   19.05138779  136.72500610    3.07999992    2.73000002
   19.05444336  135.85200500    3.07999992    2.73000002
   19.05777740  138.25300598    3.05999994    2.75000000
   19.06110954  134.40100098    3.05999994    2.73000002
   19.06416512  139.35200500    3.03999996    2.75000000
   19.06750107  131.23899841    3.01999998    2.75000000
   19.07361221  131.23899841    3.03999996    2.75000000
   19.07750130  138.78399658    3.07999992    2.75000000
   19.08083344  147.40400696    3.09999990    2.75000000
   19.08194542  137.74299622    3.09999990    2.75000000
   19.08444595  139.06700134    3.11999989    2.75000000
   19.08750153  143.28900146    3.11999989    2.73000002
   19.09083366  139.70899963    3.14000010    2.75000000
   19.09416771  135.48500061    3.14000010    2.73000002
   19.09722328  140.89100647    3.14000010    2.75000000
   19.10055542  140.69900513    3.14000010    2.75000000
   19.10388947  144.71600342    3.11999989    2.75000000
   19.10694504  142.69799805    3.11999989    2.73000002
   19.11027908  145.77900696    3.11999989    2.75000000
   19.11638832  145.77900696    3.11999989    2.73000002
   19.12055588  138.17199707    3.14000010    2.75000000
   19.12361145  140.06500244    3.14000010    2.73000002
   19.12694550  131.73500061    3.14000010    2.73000002
   19.13027763  142.59100342    3.14000010    2.73000002
   19.13333321  139.88400269    3.14000010    2.75000000
   19.13666725  144.51300049    3.14000010    2.73000002
   19.13972282  144.22399902    3.16000009    2.73000002
   19.14305496  139.82499695    3.16000009    2.75000000
   19.14638901  135.24899292    3.16000009    2.73000002
   19.14861107  138.80999756    3.16000009    2.73000002
   19.14999962  144.40100098    3.14000010    2.73000002
   19.15305519  137.08500671    3.11999989    2.73000002
   19.15916634  137.08500671    3.07999992    2.75000000
   19.16333389  146.30099487    3.07999992    2.75000000
   19.16666603  147.39399719    3.07999992    2.75000000
   19.16972160  142.61000061    3.07999992    2.73000002
   19.17305565  149.00100708    3.09999990    2.75000000
   19.17611122  153.89300537    3.09999990    2.73000002
   19.17944336  143.05900574    3.07999992    2.75000000
   19.18194389  152.73800659    3.07999992    2.73000002
   19.18305397  152.61300659    3.07999992    2.73000002
   19.18610954  151.45199585    3.07999992    2.73000002
   19.18944359  148.62500000    3.07999992    2.73000002
   19.19277763  151.76400757    3.09999990    2.75000000
   19.19583321  149.83799744    3.09999990    2.73000002
   19.20194435  149.83799744    3.09999990    2.75000000
   19.20611191  139.96499634    3.09999990    2.75000000
   19.20944595  143.46800232    3.09999990    2.73000002
   19.21250153  143.92300415    3.07999992    2.73000002
   19.21527863  144.21600342    3.09999990    2.73000002
   19.21638870  146.64199829    3.07999992    2.75000000
   19.21944427  144.62399292    3.07999992    2.75000000
   19.22277832  143.32800293    3.07999992    2.73000002
   19.22611237  148.50700378    3.05999994    2.73000002
   19.22916794  149.02699280    3.07999992    2.73000002
   19.23250008  145.03700256    3.09999990    2.73000002
   19.23583412  142.54899597    3.09999990    2.75000000
   19.23888969  137.51600647    3.05999994    2.75000000
   19.24500084  137.51600647    3.05999994    2.75000000
   19.24888992  139.62300110    3.09999990    2.75000000
   19.25222206  133.78700256    3.07999992    2.73000002
   19.25555611  139.23800659    3.05999994    2.73000002
   19.25861168  138.17999268    3.01999998    2.73000002
   19.26194382  138.88000488    3.00000000    2.73000002
   19.26527786  133.22700500    2.98000002    2.73000002
   19.26833344  141.09300232    2.98000002    2.75000000
   19.27166557  137.89199829    2.96000004    2.75000000
   19.27472115  140.74899292    2.94000006    2.75000000
   19.27805519  146.62600708    2.94000006    2.75000000
   19.28138924  143.14700317    2.93000007    2.75000000
   19.28194427  139.63499451    2.93000007    2.75000000
   19.28777695  139.63499451    2.93000007    2.75000000
   19.29194450  144.55599976    2.91000009    2.75000000
   19.29500008  140.59599304    2.93000007    2.75000000
   19.29833221  135.65600586    2.93000007    2.75000000
   19.30166626  144.47500610    2.93000007    2.75000000
   19.30472183  143.04100037    2.93000007    2.73000002
   19.30805397  134.93499756    2.93000007    2.73000002
   19.31110954  137.04800415    2.93000007    2.75000000
   19.31444359  146.90800476    2.93000007    2.75000000
   19.31527710  143.78700256    2.93000007    2.75000000
   19.31805611  141.86599731    2.93000007    2.75000000
   19.32139015  147.12100220    2.93000007    2.73000002
   19.32444572  142.81300354    2.93000007    2.73000002
   19.33055687  142.81300354    2.93000007    2.75000000
   19.33472252  144.24000549    2.93000007    2.73000002
   19.33805656  135.61900330    2.93000007    2.75000000
   19.34111214  149.12399292    2.93000007    2.75000000
   19.34444427  137.11599731    2.94000006    2.75000000
   19.34749985  149.83599854    2.93000007    2.73000002
   19.34861183  144.60800171    2.93000007    2.75000000
   19.35111237  140.99600220    2.93000007    2.73000002
   19.35444450  144.39399719    2.91000009    2.75000000
   19.35750008  139.27200317    2.91000009    2.75000000
   19.36083412  145.18600464    2.91000009    2.73000002
   19.36388969  148.67100525    2.89000010    2.75000000
   19.36722183  145.85400391    2.86999989    2.73000002
   19.37333298  145.85400391    2.86999989    2.75000000
   19.37750053  147.81199646    2.86999989    2.75000000
   19.38083267  142.13000488    2.89000010    2.75000000
   19.38194466  146.44999695    2.91000009    2.73000002
   19.38444519  145.35400391    2.91000009    2.75000000
   19.38777733  146.68899536    2.93000007    2.75000000
   19.39083290  142.86500549    2.94000006    2.73000002
   19.39416695  140.86599731    2.94000006    2.73000002
   19.39722252  142.24499512    2.96000004    2.75000000
   19.40055466  136.70799255    3.00000000    2.73000002
   19.40388870  135.49800110    3.00000000    2.73000002
   19.40694427  134.88600159    3.01999998    2.73000002
   19.41027832  135.35899353    3.03999996    2.73000002
   19.41638756  135.35899353    3.05999994    2.73000002
   19.42027664  130.64500427    3.05999994    2.73000002
   19.42361069  136.12199402    3.09999990    2.73000002
   19.42694473  131.93299866    3.07999992    2.73000002
   19.43000031  140.25900269    3.05999994    2.73000002
   19.43333244  133.29100037    3.09999990    2.75000000
   19.43666649  133.36199951    3.09999990    2.73000002
   19.43972206  134.09899902    3.09999990    2.75000000
   19.44305420  142.86000061    3.07999992    2.73000002
   19.44610977  138.91299438    3.09999990    2.75000000
   19.44861031  131.01199341    3.11999989    2.73000002
   19.44972038  137.63699341    3.11999989    2.73000002
   19.45305634  130.80499268    3.11999989    2.75000000
   19.45916748  130.80499268    3.16000009    2.75000000
   19.46333504  136.27499390    3.18000007    2.73000002
   19.46638870  129.85000610    3.34999990    2.71000004
   19.46972275  140.75700378    3.34999990    2.73000002
   19.47305679  136.69500732    3.20000005    2.73000002
   19.47611237  140.78900146    3.20000005    2.71000004
   19.47944450  138.14999390    3.20000005    2.73000002
   19.48194504  139.28300476    3.20000005    2.73000002
   19.48305511  144.29800415    3.20000005    2.73000002
   19.48638916  139.97900391    3.20000005    2.73000002
   19.48944473  139.05700684    3.20000005    2.73000002
   19.49277878  137.15899658    3.21000004    2.73000002
   19.49583435  134.83900452    3.20000005    2.73000002
   19.50194359  134.83900452    3.20000005    2.73000002
   19.50611115  140.73500061    3.21000004    2.71000004
   19.50944519  135.07499695    3.23000002    2.71000004
   19.51250076  136.77499390    3.25000000    2.71000004
   19.51527786  141.12899780    3.32999992    2.73000002
   19.51611137  134.44299316    3.30999994    2.73000002
   19.51944351  145.51800537    3.28999996    2.73000002
   19.52249908  133.23100281    3.34999990    2.73000002
   19.52583313  141.49099731    3.28999996    2.71000004
   19.52916718  139.91299438    3.39000010    2.71000004
   19.53222275  129.64300537    3.43000007    2.71000004
   19.53555489  141.36199951    3.51999998    2.71000004
   19.53861046  147.82200623    3.55999994    2.71000004
   19.54472160  147.82200623    3.53999996    2.71000004
   19.54888916  127.88500214    3.55999994    2.71000004
   19.55222130  133.20700073    3.55999994    2.71000004
   19.55527687  143.70399475    3.61999989    2.71000004
   19.55861092  130.70899963    3.51999998    2.71000004
   19.56194305  137.17300415    3.55999994    2.69000006
   19.56499863  133.01800537    3.57999992    2.71000004
   19.56833458  139.10000610    3.59999990    2.69000006
   19.57166672  143.12100220    3.59999990    2.69000006
   19.57472229  132.76800537    3.61999989    2.69000006
   19.57805634  129.96099854    3.64000010    2.71000004
   19.58111191  139.74099731    3.61999989    2.71000004
   19.58194542  138.84800720    3.61999989    2.71000004
   19.60277748  138.84800720    3.64000010    2.69000006
   19.60694504  138.78700256    3.64000010    2.69000006
   19.61000061  135.83299255    3.66000009    2.69000006
   19.61333466  139.10800171    3.70000005    2.69000006
   19.61527824  137.08099365    3.73000002    2.71000004
   19.61694527  141.72799683    3.76999998    2.71000004
   19.62027740  144.78799438    3.86999989    2.69000006
   19.62333298  143.85000610    3.97000003    2.69000006
   19.62666702  129.25000000    4.05999994    2.69000006
   19.63000107  140.78999329    4.13999987    2.69000006
   19.63305473  148.83200073    4.26999998    2.67000008
   19.63638878  142.60000610    4.40999985    2.66000009
   19.63944435  144.94000244    4.51000023    2.66000009
   19.64555550  144.94000244    4.69999981    2.66000009
   19.64972115  143.17999268    4.76000023    2.64000010
   19.65277672  142.23100281    4.76000023    2.64000010
   19.65611076  139.62100220    4.78000021    2.64000010
   19.65916634  144.29800415    4.78000021    2.64000010
   19.66250038  148.30700684    4.76000023    2.64000010
   19.66583252  145.07400513    4.73999977    2.66000009
   19.66888809  151.05299377    4.73999977    2.66000009
   19.67222214  153.24800110    4.76000023    2.66000009
   19.67555428  144.65499878    4.80000019    2.66000009
   19.67860985  149.68600464    4.90999985    2.67000008
   19.68194389  143.79200745    4.90999985    2.67000008
   19.68249893  148.22000122    4.90999985    2.67000008
   19.68833160  148.22000122    4.90999985    2.69000006
   19.69249916  140.65199280    4.90999985    2.69000006
   19.69555473  147.61700439    4.90999985    2.69000006
   19.69888878  143.52400208    4.90999985    2.67000008
   19.70222282  144.91499329    4.90999985    2.66000009
   19.70527840  147.42900085    4.90999985    2.66000009
   19.70861244  144.68099976    4.86999989    2.64000010
   19.71194458  138.55700684    4.84999990    2.64000010
   19.71500015  135.23500061    4.84999990    2.64000010
   19.71583366  142.71400452    4.84999990    2.64000010
   19.71861076  138.47999573    4.86999989    2.64000010
   19.72194481  150.07000732    4.84999990    2.64000010
   19.72527885  137.89999390    4.86999989    2.64000010
   19.73111153  137.89999390    4.86999989    2.64000010
   19.73527718  140.80700684    4.88999987    2.64000010
   19.73861122  137.52299500    4.88999987    2.61999989
   19.74166679  139.89599609    4.88999987    2.64000010
   19.74500084  135.99400330    4.90999985    2.64000010
   19.74833298  141.38800049    4.90999985    2.61999989
   19.74916649  136.57800293    4.90999985    2.61999989
   19.75166702  138.60200500    4.90999985    2.64000010
   19.75499916  148.08599854    4.90999985    2.64000010
   19.75833321  141.06799316    4.88999987    2.64000010
   19.76138878  147.86399841    4.88999987    2.61999989
   19.76472282  141.49800110    4.88999987    2.64000010
   19.76777840  145.75799561    4.88999987    2.64000010
   19.77388954  145.75799561    4.88999987    2.64000010
   19.77805519  144.22300720    4.88999987    2.64000010
   19.78138924  136.61500549    4.86999989    2.61999989
   19.78249931  150.30000305    4.86999989    2.64000010
   19.78499985  141.41099548    4.88999987    2.64000010
   19.78833199  132.93600464    4.90999985    2.64000010
   19.79166603  145.11099243    4.90999985    2.64000010
   19.79472160  143.17500305    4.90999985    2.64000010
   19.79805565  145.63400269    4.88999987    2.64000010
   19.80111122  139.00500488    4.88999987    2.64000010
   19.80444336  144.11999512    4.88999987    2.61999989
   19.80777740  144.00000000    4.90999985    2.64000010
   19.81083298  141.10200500    4.90999985    2.61999989
   19.81694603  141.10200500    4.90999985    2.64000010
   19.82111168  136.60099792    4.90999985    2.61999989
   19.82416725  135.00599670    4.90999985    2.64000010
   19.82750130  136.54800415    4.90999985    2.61999989
   19.83055687  135.73100281    4.90999985    2.61999989
   19.83388901  147.18099976    4.90999985    2.64000010
   19.83722305  145.63900757    4.90999985    2.64000010
   19.84027863  141.36599731    4.90999985    2.64000010
   19.84361267  148.38699341    4.90999985    2.64000010
   19.84694481  143.24699402    4.90999985    2.61999989
   19.84916687  137.63000488    4.90999985    2.61999989
   19.85027885  133.78900146    4.90999985    2.61999989
   19.85361099  146.05900574    4.90999985    2.61999989
   19.85972214  146.05900574    4.90999985    2.64000010
   19.86388969  121.44200134    4.86999989    2.64000010
   19.86694527  142.26400757    4.88999987    2.64000010
   19.87027740  143.54299927    4.88999987    2.64000010
   19.87361145  135.25500488    4.88999987    2.64000010
   19.87666702  140.88600159    4.88999987    2.61999989
   19.88000107  145.26300049    4.88999987    2.61999989
   19.88249969  145.16499329    4.90999985    2.64000010
   19.88361168  143.66499329    4.90999985    2.61999989
   19.88694382  140.58999634    4.90999985    2.61999989
   19.89027786  142.10600281    4.90999985    2.61999989
   19.89333344  138.97799683    4.90999985    2.61999989
   19.89666748  140.82899475    4.90999985    2.61999989
   19.90250015  140.82899475    4.90999985    2.59999990
   19.90666580  144.40100098    4.90999985    2.61999989
   19.90999985  147.39799500    4.90999985    2.61999989
   19.91305542  148.39900208    4.90999985    2.61999989
   19.91583252  148.10600281    4.90999985    2.59999990
   19.91694450  144.03700256    4.90999985    2.59999990
   19.92000008  143.63699341    4.90999985    2.59999990
   19.92333221  143.63600159    4.90999985    2.59999990
   19.92638779  149.00000000    4.90999985    2.61999989
   19.92972183  153.53799438    4.90999985    2.59999990
   19.93305397  152.88099670    4.90999985    2.59999990
   19.93610954  143.69500732    4.90999985    2.59999990
   19.93944359  144.15899658    4.90999985    2.59999990
   19.94527626  144.15899658    4.90999985    2.59999990
   19.94944382  155.12300110    4.90999985    2.57999992
   19.95277786  157.51600647    4.90999985    2.59999990
   19.95611191  148.28100586    4.90999985    2.59999990
   19.95916748  146.71299744    4.90999985    2.59999990
   19.96250153  142.10200500    4.90999985    2.59999990
   19.96555710  150.85000610    4.90999985    2.59999990
   19.96888924  144.00500488    4.90999985    2.59999990
   19.97222328  143.79400635    4.90999985    2.59999990
   19.97527885  145.42300415    4.90999985    2.59999990
   19.97861099  145.66799927    4.90999985    2.59999990
   19.98194504  144.26400757    4.90999985    2.59999990
   19.98250008  139.21600342    4.90999985    2.59999990
   19.98833275  139.21600342    4.90999985    2.59999990
   19.99250031  159.09100342    4.90999985    2.57999992
   19.99555588  146.24099731    4.90999985    2.59999990
   19.99888992  150.66200256    4.90999985    2.57999992
   20.00194359  146.96699524    4.90999985    2.57999992
   20.00527763  139.88999939    4.90999985    2.59999990
   20.00861168  145.67300415    4.90999985    2.59999990
   20.01166725  144.60600281    4.90999985    2.59999990
   20.01499939  148.10099792    4.90999985    2.59999990
   20.01583290  155.84399414    4.90999985    2.57999992
   20.01833344  149.58900452    4.90999985    2.57999992
   20.02166557  139.13800049    4.90999985    2.57999992
   20.02499962  146.06599426    4.90999985    2.57999992
   20.03111076  146.06599426    4.90999985    2.57999992
   20.03527641  143.86399841    4.90999985    2.57999992
   20.03833199  142.94900513    4.90999985    2.59999990
   20.04166603  149.53799438    4.90999985    2.59999990
   20.04500008  149.03700256    4.90999985    2.59999990
   20.04805565  145.43099976    4.90999985    2.59999990
   20.04916573  138.59500122    4.90999985    2.59999990
   20.05166626  137.82600403    4.90999985    2.57999992
   20.05499840  140.14900208    4.90999985    2.57999992
   20.05833244  108.87100220    4.90999985    2.59999990
   20.06138802  140.17500305    4.90999985    2.57999992
   20.06472206  145.47599792    4.90999985    2.57999992
   20.06777954  143.00199890    4.90999985    2.57999992
   20.07389069  143.00199890    4.90999985    2.57999992
   20.07805634  142.14500427    4.90999985    2.57999992
   20.08139038  135.55299377    4.90999985    2.57999992
   20.08250046  135.95500183    4.90999985    2.57999992
   20.08472252  134.76100159    4.90999985    2.57999992
   20.08805656  143.95799255    4.90999985    2.57999992
   20.09138870  143.38600159    4.90999985    2.57999992
   20.09444427  144.09399414    4.90999985    2.57999992
   20.09777832  140.09899902    4.90999985    2.57999992
   20.10111237  143.25199890    4.90999985    2.57999992
   20.10416794  141.72399902    4.90999985    2.57999992
   20.10750008  148.67500305    4.90999985    2.57999992
   20.11055565  151.73899841    4.90999985    2.57999992
   20.11666679  151.73899841    4.90999985    2.57999992
   20.12083435  149.39799500    4.90999985    2.57999992
   20.12416649  143.34700012    4.90999985    2.57999992
   20.12750053  146.96600342    4.90999985    2.57999992
   20.13055611  138.91400146    4.90999985    2.57999992
   20.13388824  135.52299500    4.90999985    2.57999992
   20.13694382  140.50700378    4.90999985    2.55999994
   20.14027786  145.19900513    4.90999985    2.57999992
   20.14361191  151.77200317    4.90999985    2.57999992
   20.14666748  147.53900146    4.90999985    2.57999992
   20.14916611  143.10600281    4.90999985    2.57999992
   20.15027809  149.25199890    4.90999985    2.59999990
   20.15361023  136.39799500    4.90999985    2.57999992
   20.15972137  136.39799500    4.90999985    2.57999992
   20.16388893  147.74899292    4.90999985    2.57999992
   20.16694450  166.22300720    4.90999985    2.59999990
   20.17027664  139.89799500    4.90999985    2.59999990
   20.17333221  149.53900146    4.90999985    2.59999990
   20.17666626  166.54400635    4.90999985    2.57999992
   20.18000031  168.01100159    4.90999985    2.59999990
   20.18249893  167.97700500    4.90999985    2.59999990
   20.18333244  153.60699463    4.90999985    2.59999990
   20.18666649  156.72399902    4.90999985    2.59999990
   20.18999863  182.54800415    4.90999985    2.59999990
   20.19305420  169.41200256    4.90999985    2.59999990
   20.19638824  174.98399353    4.90999985    2.57999992
   20.20250130  174.98399353    4.90999985    2.57999992
   20.20666695  219.86399841    4.90999985    2.57999992
   20.20972252  220.55400085    4.90999985    2.57999992
   20.21305656  207.63699341    4.90999985    2.57999992
   20.21583366  219.62500000    4.90999985    2.59999990
   20.21666718  201.39900208    4.90999985    2.59999990
   20.22000122  190.85600281    4.90999985    2.59999990
   20.22333336  238.88400269    4.90999985    2.57999992
   20.22638893  229.06100464    4.90999985    2.57999992
   20.22972298  224.07099915    4.90999985    2.59999990
   20.23305511  224.66299438    4.90999985    2.59999990
   20.23611069  201.69900513    4.90999985    2.59999990
   20.23944473  235.00300598    4.90999985    2.57999992
   20.24527740  235.00300598    4.90999985    2.59999990
   20.24944496  208.22500610    4.90999985    2.57999992
   20.25277710  212.88000488    4.90999985    2.59999990
   20.25611115  237.10099792    4.90999985    2.59999990
   20.25916672  177.19700623    4.90999985    2.59999990
   20.26250076  244.76600647    4.90999985    2.59999990
   20.26583290  214.93400574    4.90999985    2.57999992
   20.26888847  225.96099854    4.90999985    2.57999992
   20.27222252  226.49099731    4.90999985    2.57999992
   20.27527809  230.61300659    4.90999985    2.57999992
   20.27861023  236.53100586    4.90999985    2.57999992
   20.28194427  215.53799438    4.90999985    2.57999992
   20.28249931  231.16900635    4.90999985    2.57999992
   20.28805542  231.16900635    4.90999985    2.57999992
   20.29222107  207.50199890    4.90999985    2.57999992
   20.29555511  197.87800598    4.90999985    2.57999992
   20.29888916  192.09399414    4.90999985    2.57999992
   20.30194283  203.91799927    4.90999985    2.57999992
   20.30527687  202.47099304    4.90999985    2.57999992
   20.30833244  210.36300659    4.90999985    2.57999992
   20.31166649  205.63099670    4.90999985    2.57999992
   20.31499863  189.73500061    4.90999985    2.57999992
   20.31583214  192.68400574    4.90999985    2.57999992
   20.31833458  200.46499634    4.90999985    2.57999992
   20.32166672  212.10099792    4.90999985    2.55999994
   20.32500076  203.03799438    4.90999985    2.55999994
   20.33111191  203.03799438    4.90999985    2.55999994
   20.33527756  205.55099487    4.90999985    2.57999992
   20.33833313  187.85400391    4.90999985    2.55999994
   20.34166718  189.77299500    4.90999985    2.55999994
   20.34472275  190.69000244    4.90999985    2.57999992
   20.34805679  196.25000000    4.90999985    2.57999992
   20.34916687  195.15600586    4.90999985    2.55999994
   20.35166740  187.34700012    4.90999985    2.57999992
   20.35472298  188.83299255    4.90999985    2.57999992
   20.35805511  184.72099304    4.90999985    2.55999994
   20.36111069  194.36900330    4.90999985    2.57999992
   20.36444473  194.22099304    4.90999985    2.55999994
   20.36777878  191.07200623    4.90999985    2.55999994
   20.37388992  191.07200623    4.90999985    2.55999994
   20.37805557  186.04800415    4.90999985    2.55999994
   20.38111115  179.19500732    4.90999985    2.55999994
   20.38249969  191.73199463    4.90999985    2.55999994
   20.38500023  181.91700745    4.90999985    2.55999994
   20.38805580  180.78900146    4.90999985    2.55999994
   20.39138794  190.43099976    4.90999985    2.55999994
   20.39444351  180.57299805    4.90999985    2.53999996
   20.39777756  179.05499268    4.90999985    2.55999994
   20.40111160  181.28500366    4.90999985    2.55999994
   20.40416718  180.74899292    4.90999985    2.55999994
   20.40749931  184.51400757    4.90999985    2.55999994
   20.41083336  195.59100342    4.90999985    2.55999994
   20.41666603  195.59100342    4.90999985    2.55999994
   20.42083359  192.23599243    4.90999985    2.55999994
   20.42416573  203.17399597    4.90999985    2.53999996
   20.42722130  186.58399963    4.90999985    2.55999994
   20.43055534  184.35499573    4.90999985    2.53999996
   20.43388748  188.15400696    4.90999985    2.53999996
   20.43694305  179.52900696    4.90999985    2.53999996
   20.44027710  176.29299927    4.90999985    2.55999994
   20.44333267  186.94900513    4.90999985    2.53999996
   20.44666672  186.83099365    4.90999985    2.53999996
   20.44916534  183.66099548    4.90999985    2.53999996
   20.45027924  188.38699341    4.90999985    2.53999996
   20.45333481  187.44400024    4.90999985    2.53999996
   20.45944595  187.44400024    4.90999985    2.55999994
   20.46361160  180.12600708    4.90999985    2.55999994
   20.46694565  190.49400330    4.90999985    2.55999994
   20.47027779  179.93600464    4.90999985    2.55999994
   20.47333336  186.05099487    4.90999985    2.53999996
   20.47666740  195.53500366    4.90999985    2.53999996
   20.47972298  185.11199951    4.90999985    2.53999996
   20.48250008  188.26100159    4.90999985    2.53999996
   20.48361206  187.50000000    4.90999985    2.55999994
   20.48666763  179.84199524    4.90999985    2.53999996
   20.48999977  185.70399475    4.90999985    2.53999996
   20.49305534  183.64599609    4.90999985    2.53999996
   20.49638939  185.91000366    4.90999985    2.53999996
   20.50250053  185.91000366    4.90999985    2.53999996
   20.50666618  189.50999451    4.90999985    2.53999996
   20.50972176  192.11099243    4.90999985    2.53999996
   20.51305580  189.10800171    4.90999985    2.53999996
   20.51583290  173.64700317    4.90999985    2.53999996
   20.51666641  187.83999634    4.90999985    2.53999996
   20.51972198  189.08900452    4.90999985    2.53999996
   20.52305603  187.72399902    4.90999985    2.53999996
   20.52611160  189.12899780    4.90999985    2.51999998
   20.52944374  185.32699585    4.90999985    2.53999996
   20.53277779  180.50999451    4.90999985    2.53999996
   20.53583336  190.92999268    4.90999985    2.53999996
   20.53916550  180.52400208    4.90999985    2.53999996
   20.54527664  180.52400208    4.90999985    2.53999996
   20.54944420  182.79400635    4.90999985    2.53999996
   20.55249977  180.05099487    4.90999985    2.53999996
   20.55583191  173.36799622    4.90999985    2.51999998
   20.55916595  194.78700256    4.90999985    2.51999998
   20.56222153  190.87500000    4.90999985    2.51999998
   20.56555557  187.02099609    4.90999985    2.51999998
   20.56888962  183.53100586    4.90999985    2.51999998
   20.57194519  185.58399963    4.90999985    2.51999998
   20.57527924  182.67399597    4.90999985    2.51999998
   20.57833481  186.66700745    4.90999985    2.51999998
   20.58166695  185.02999878    4.90999985    2.51999998
   20.58250046  192.42100525    4.90999985    2.51999998
   20.58805656  192.42100525    4.90999985    2.51999998
   20.59222221  181.72999573    4.90999985    2.51999998
   20.59555626  183.94599915    4.90999985    2.51999998
   20.59861183  174.73500061    4.90999985    2.51999998
   20.61638832  176.68499756    4.90999985    2.51999998
   20.61861038  177.57899475    4.90999985    2.51999998
   20.62194443  172.65899658    4.90999985    2.50000000
   20.62527847  179.75300598    4.90999985    2.50000000
   20.63111115  179.75300598    4.90999985    2.51999998
   20.63527679  177.08599854    4.90999985    2.51999998
   20.63833237  177.03799438    4.90999985    2.51999998
   20.64166641  178.83999634    4.90999985    2.50000000
   20.64500046  179.98599243    4.90999985    2.50000000
   20.64805603  186.09199524    4.90999985    2.50000000
   20.64944458  175.63099670    4.90999985    2.50000000
   20.65166664  183.73399353    4.90999985    2.50000000
   20.65499878  175.38400269    4.90999985    2.50000000
   20.65805435  176.01899719    4.90999985    2.50000000
   20.66138840  174.13699341    4.90999985    2.50000000
   20.66444397  186.59300232    4.90999985    2.50000000
   20.66777802  174.67199707    4.90999985    2.50000000
   20.67388916  174.67199707    4.90999985    2.50000000
   20.67805481  181.93800354    4.90999985    2.50000000
   20.68138885  177.73100281    4.90999985    2.50000000
   20.68277740  179.94099426    4.90999985    2.50000000
   20.68499947  178.31599426    4.90999985    2.50000000
   20.68833160  175.02600098    4.90999985    2.48000002
   20.69138718  194.00599670    4.90999985    2.50000000
   20.69472122  185.88000488    4.90999985    2.50000000
   20.69777679  182.30000305    4.90999985    2.50000000
   20.70111275  184.25199890    4.90999985    2.50000000
   20.70444489  174.73199463    4.90999985    2.50000000
   20.70777893  175.64799500    4.90999985    2.50000000
   20.71083450  175.41099548    4.90999985    2.50000000
   20.71666718  175.41099548    4.90999985    2.50000000
   20.72083473  184.38900757    4.90999985    2.50000000
   20.72416687  179.06199646    4.90999985    2.50000000
   20.72750092  182.25100708    4.90999985    2.50000000
   20.73055649  174.10200500    4.90999985    2.50000000
   20.73388863  174.43699646    4.90999985    2.50000000
   20.73694420  170.61099243    4.90999985    2.50000000
   20.74027824  180.49299622    4.90999985    2.50000000
   20.74361229  175.31399536    4.90999985    2.48000002
   20.74666786  182.48500061    3.07999992    2.55999994
   20.74944496  182.63099670    0.41999999    0.25000000
   20.75027847  176.37600708    0.41999999    0.25000000
   20.75361061  186.24200439    0.31999999    0.05000000
   20.75972176  186.24200439    0.31999999    0.05000000
   20.76388931  181.81500244    0.31999999    0.05000000
   20.76722145  176.08500671    0.31999999    0.05000000
   20.77027702  177.30700684    0.31999999    0.05000000
   20.77361107  170.62800598    0.31999999    0.05000000
   20.77694511  172.35299683    0.31999999    0.05000000
   20.78000069  177.07800293    0.31999999    0.05000000
   20.78277779  179.46400452    0.31999999    0.05000000
   20.78361130  174.94200134    0.31999999    0.05000000
   20.78694344  187.39999390    0.31999999    0.05000000
   20.78999901  180.17399597    0.31999999    0.05000000
   20.79333305  179.18299866    0.31999999    0.05000000
   20.79638863  169.18600464    0.31999999    0.05000000
   20.80249977  169.18600464    0.31999999    0.05000000
   20.80666542  180.18699646    0.31999999    0.05000000
   20.80972099  183.41799927    0.31999999    0.05000000
   20.81305504  172.66000366    0.31999999    0.05000000
   20.81611061  178.44200134    0.31999999    0.05000000
   20.81666756  180.00399780    0.31999999    0.05000000
   20.82000160  182.03799438    0.31999999    0.05000000
   20.82305717  184.99099731    0.31999999    0.05000000
   20.82638931  181.10600281    0.31999999    0.05000000
   20.82944489  181.93299866    0.31999999    0.05000000
   20.83277893  182.52499390    0.31999999    0.05000000
   20.83611107  180.97900391    0.31999999    0.05000000
   20.83916664  183.33700562    0.31999999    0.05000000
   20.84527779  183.33700562    0.31999999    0.05000000
   20.84944534  183.33099365    0.31999999    0.05000000
   20.85000038  184.22200012    0.31999999    0.05000000
   20.85305595  191.99600220    0.31999999    0.05000000
   20.85639000  188.26199341    0.31999999    0.05000000
   20.85972214  189.48800659    0.31999999    0.05000000
   20.86277771  195.53799438    0.31999999    0.05000000
   20.86611176  183.85499573    0.31999999    0.05000000
   20.86944389  190.37199402    0.31999999    0.05000000
   20.87249947  195.70700073    0.31999999    0.05000000
   20.87583351  285.35998535    0.31999999    0.05000000
   20.87888908  284.51199341    0.31999999    0.05000000
   20.88222313  313.93600464    0.31999999    0.05000000
   20.88333321  325.24099731    0.31999999    0.05000000
   20.88805580  325.24099731    0.31999999    0.05000000
   20.89222145  422.64999390    0.31999999    0.05000000
   20.89416695  387.09799194    0.31999999    0.05000000
   20.89555550  394.58401489    0.31999999    0.05000000
   20.89694405  492.85299683    0.31999999    0.05000000
   20.89833260  430.10501099    0.31999999    0.05000000
   20.89972115  553.78601074    0.31999999    0.05000000
   20.90111160  487.03900146    0.31999999    0.05000000
   20.90250015  445.95999146    0.31999999    0.05000000
   20.90388870  504.54901123    0.31999999    0.05000000
   20.90527725  491.40499878    0.31999999    0.05000000
   20.90666580  518.42602539    0.31999999    0.05000000
   20.90805435  470.65899658    0.31999999    0.05000000
   20.90944481  483.32400513    0.31999999    0.05000000
   20.91083336  522.32598877    0.31999999    0.05000000
   20.91222191  516.45098877    0.31999999    0.05000000
   20.91361046  415.67199707    0.31999999    0.05000000
   20.91499901  470.50799561    0.31999999    0.05000000
   20.91638756  454.55599976    0.31999999    0.05000000
   20.91777802  456.59899902    0.31999999    0.05000000
   20.91916656  438.20300293    0.31999999    0.05000000
   20.92055511  490.79000854    0.31999999    0.05000000
   20.92194366  439.83599854    0.31999999    0.05000000
   20.92333221  410.92498779    0.31999999    0.05000000
   20.92472076  448.57101440    0.31999999    0.05000000
   20.92611122  342.21701050    0.31999999    0.05000000
   20.92611122  195.53799438    0.31999999    0.05000000
   20.92611122  183.85499573    0.31999999    0.05000000
   20.92638779  190.37199402    0.31999999    0.05000000
   20.92638779  195.70700073    0.31999999    0.05000000
   20.92638779  285.35998535    0.31999999    0.05000000
   20.92638779  284.51199341    0.31999999    0.05000000
   20.92638779  313.93600464    0.31999999    0.05000000
   20.92666626  422.64999390    0.31999999    0.05000000
   20.92666626  189.48800659    0.31999999    0.05000000
   20.92722130  430.73001099    0.31999999    0.05000000
   20.92916679  446.06100464    0.31999999    0.05000000
   20.93055534  478.59600830    0.31999999    0.05000000
   20.93194389  447.92199707    0.31999999    0.05000000
   20.93333244  420.13198853    0.31999999    0.05000000
   20.93472099  517.97802734    0.31999999    0.05000000
   20.93610954  413.41699219    0.31999999    0.05000000
   20.93750000  453.00900269    0.31999999    0.05000000
   20.93888855  476.39498901    0.31999999    0.05000000
   20.94027710  475.73300171    0.31999999    0.05000000
   20.94166565  506.73800659    0.31999999    0.05000000
   20.94305420  441.00201416    0.31999999    0.05000000
   20.94444275  476.00100708    0.31999999    0.05000000
   20.94583321  478.85800171    0.31999999    0.05000000
   20.94722176  418.60900879    0.31999999    0.05000000
   20.94861031  420.50500488    0.31999999    0.05000000
   20.95000076  430.94299316    0.31999999    0.05000000
   20.95138931  439.03799438    0.31999999    0.05000000
   20.95277786  462.08099365    0.31999999    0.05000000
   20.95416832  425.92498779    0.31999999    0.05000000
   20.95555687  412.16101074    0.31999999    0.05000000
   20.95694542  461.54000854    0.31999999    0.05000000
   20.95833397  390.35000610    0.31999999    0.05000000
   20.95972252  420.26098633    0.31999999    0.05000000
   20.96111107  417.02801514    0.31999999    0.05000000
   20.96250153  445.25799561    0.31999999    0.05000000
   20.96389008  401.12399292    0.31999999    0.05000000
   20.96527863  391.51199341    0.31999999    0.05000000
   20.96666718  383.95700073    0.31999999    0.05000000
   20.96805573  396.43798828    0.31999999    0.05000000
   20.96944427  355.69601440    0.31999999    0.05000000
   20.97083473  363.98098755    0.31999999    0.05000000
   20.97222328  336.35800171    0.31999999    0.05000000
   20.97222328  430.73001099    0.31999999    0.05000000
   20.97277832  347.85998535    0.31999999    0.05000000
   20.97611237  366.04299927    0.31999999    0.05000000
   20.97916794  389.08999634    0.31999999    0.05000000
   20.98250008  339.81201172    0.31999999    0.05000000
   20.98583412  372.86801147    0.31999999    0.05000000
   20.98888969  384.19900513    0.31999999    0.05000000
   20.99305534  384.19900513    0.31999999    0.05000000
   20.99722290  295.53298950    0.31999999    0.05000000
   21.00027847  294.88598633    0.31999999    0.05000000
   21.00361061  301.80300903    0.31999999    0.05000000
   21.00611115  278.41101074    0.31999999    0.05000000
   21.00722313  318.82800293    0.31999999    0.05000000
   21.01055527  283.45300293    0.31999999    0.05000000
   21.01388931  313.76501465    0.31999999    0.05000000
   21.01694489  275.13299561    0.31999999    0.05000000
   21.02027702  294.82501221    0.31999999    0.05000000
   21.02333260  296.43200684    0.31999999    0.05000000
   21.02666664  321.29800415    0.31999999    0.05000000
   21.03000069  275.05899048    0.31999999    0.05000000
   21.03583336  275.05899048    0.31999999    0.05000000
   21.03999901  284.46099854    0.31999999    0.05000000
   21.04333305  260.95401001    0.31999999    0.05000000
   21.04638863  265.25601196    0.31999999    0.05000000
   21.04972076  249.97799683    0.31999999    0.05000000
   21.05305481  302.92898560    0.31999999    0.05000000
   21.05611038  279.51199341    0.31999999    0.05000000
   21.05944443  266.26000977    0.31999999    0.05000000
   21.06250000  293.31500244    0.31999999    0.05000000
   21.06583214  268.26098633    0.31999999    0.05000000
   21.06916809  271.78601074    0.31999999    0.05000000
   21.07222366  250.81100464    0.31999999    0.05000000
   21.07277870  262.48699951    0.31999999    0.05000000
   21.07861137  262.48699951    0.31999999    0.05000000
   21.08277893  239.35899353    0.31999999    0.05000000
   21.08611107  231.26400757    0.31999999    0.05000000
   21.08944511  222.43699646    0.31999999    0.05000000
   21.09250069  228.44799805    0.31999999    0.05000000
   21.09583473  224.75399780    0.31999999    0.05000000
   21.09889030  227.34199524    0.31999999    0.05000000
   21.10222244  223.35699463    0.31999999    0.05000000
   21.10555649  235.80400085    0.31999999    0.05000000
   21.10611153  232.70399475    0.31999999    0.05000000
   21.10916710  238.87699890    0.31999999    0.05000000
   21.11222267  224.20100403    0.31999999    0.05000000
   21.11555672  226.01800537    0.31999999    0.05000000
   21.12166595  226.01800537    0.31999999    0.05000000
   21.12583351  222.01199341    0.31999999    0.05000000
   21.12888908  229.37199402    0.31999999    0.05000000
   21.13222313  240.69999695    0.31999999    0.05000000
   21.13555527  231.25399780    0.31999999    0.05000000
   21.13861084  218.73100281    0.31999999    0.05000000
   21.13944435  207.03399658    0.31999999    0.05000000
   21.14249992  249.61599731    0.31999999    0.05000000
   21.14555550  221.11900330    0.31999999    0.05000000
   21.14888954  241.84899902    0.31999999    0.05000000
   21.15222168  229.58000183    0.31999999    0.05000000
   21.15527725  233.82800293    0.31999999    0.05000000
   21.15861130  221.59100342    0.31999999    0.05000000
   21.16444397  221.59100342    0.31999999    0.05000000
   21.16860962  221.95199585    0.31999999    0.05000000
   21.17166519  248.83500671    0.31999999    0.05000000
   21.17277718  239.63299561    0.31999999    0.05000000
   21.17555428  239.28100586    0.31999999    0.05000000
   21.17860985  225.28999329    0.31999999    0.05000000
   21.18194389  221.17399597    0.31999999    0.05000000
   21.18527603  222.80299377    0.31999999    0.05000000
   21.18833160  220.83399963    0.31999999    0.05000000
   21.19166565  215.50199890    0.31999999    0.05000000
   21.19499969  231.61500549    0.31999999    0.05000000
   21.19805527  227.87800598    0.31999999    0.05000000
   21.20138931  236.54200745    0.31999999    0.05000000
   21.20722389  236.54200745    0.31999999    0.05000000
   21.21138954  215.83700562    0.31999999    0.05000000
   21.21472359  199.38699341    0.31999999    0.05000000
   21.21777916  202.65800476    0.31999999    0.05000000
   21.22111130  114.51300049    0.31999999    0.05000000
   21.22416687  212.55000305    0.31999999    0.05000000
   21.22750092  233.85899353    0.31999999    0.05000000
   21.23083305  226.63800049    0.31999999    0.05000000
   21.23388863  218.44700623    0.31999999    0.05000000
   21.23722267  224.21899414    0.31999999    0.05000000
   21.23944473  207.65299988    0.31999999    0.05000000
   21.24083328  208.34599304    0.31999999    0.05000000
   21.24388885  229.93600464    0.31999999    0.05000000
   21.25000000  229.93600464    0.31999999    0.05000000
   21.25416756  221.46000671    0.31999999    0.05000000
   21.25749969  230.23199463    0.31999999    0.05000000
   21.26055527  213.59599304    0.31999999    0.05000000
   21.26388931  225.96200562    0.31999999    0.05000000
   21.26722145  228.78799438    0.31999999    0.05000000
   21.27027702  219.86599731    0.31999999    0.05000000
   21.27277756  229.26899719    0.31999999    0.05000000
   21.27416611  206.48800659    0.31999999    0.05000000
   21.27722168  230.35699463    0.31999999    0.05000000
   21.28055573  231.85000610    0.31999999    0.05000000
   21.28388786  238.42500305    0.31999999    0.05000000
   21.28694344  219.20599365    0.31999999    0.05000000
   21.29305458  219.20599365    0.31999999    0.05000000
   21.29722214  220.57800293    0.31999999    0.05000000
   21.30027771  235.55499268    0.31999999    0.05000000
   21.30360985  233.27200317    0.31999999    0.05000000
   21.30611038  232.19700623    0.31999999    0.05000000
   21.30722237  222.80299377    0.31999999    0.05000000
   21.31027794  223.60200500    0.31999999    0.05000000
   21.31361008  216.26100159    0.31999999    0.05000000
   21.31694603  225.90199280    0.31999999    0.05000000
   21.32000160  218.19099426    0.31999999    0.05000000
   21.32333374  224.67100525    0.31999999    0.05000000
   21.32666779  220.09300232    0.31999999    0.05000000
   21.32972336  213.99899292    0.31999999    0.05000000
   21.33611107  213.99899292    0.31999999    0.05000000
   21.34027863  219.85499573    0.31999999    0.05000000
   21.34361267  206.16200256    0.31999999    0.05000000
   21.34666824  217.62600708    0.31999999    0.05000000
   21.35000038  198.15600586    0.31999999    0.05000000
   21.35333443  232.88400269    0.31999999    0.05000000
   21.35639000  216.26699829    0.31999999    0.05000000
   21.35972214  227.88299561    0.31999999    0.05000000
   21.36277771  209.66299438    0.31999999    0.05000000
   21.36611176  202.88699341    0.31999999    0.05000000
   21.36944389  211.44299316    0.31999999    0.05000000
   21.37249947  211.96499634    0.31999999    0.05000000
   21.37305641  218.13699341    0.31999999    0.05000000
   21.37861061  218.13699341    0.31999999    0.05000000
   21.38277817  210.15899658    0.31999999    0.05000000
   21.38611031  218.97500610    0.31999999    0.05000000
   21.38944435  221.74499512    0.31999999    0.05000000
   21.39249992  219.84599304    0.31999999    0.05000000
   21.39583397  216.96099854    0.31999999    0.05000000
   21.39916611  223.36999512    0.31999999    0.05000000
   21.40222168  214.77699280    0.31999999    0.05000000
   21.40555573  230.04699707    0.31999999    0.05000000
   21.40638924  227.34899902    0.31999999    0.05000000
   21.40916634  222.76699829    0.31999999    0.05000000
   21.41222191  224.64900208    0.31999999    0.05000000
   21.41555595  216.73199463    0.31999999    0.05000000
   21.42138863  216.73199463    0.31999999    0.05000000
   21.42555428  213.55599976    0.31999999    0.05000000
   21.42888832  212.50199890    0.31999999    0.05000000
   21.43222237  221.79800415    0.31999999    0.05000000
   21.43527603  226.29899597    0.31999999    0.05000000
   21.43861008  226.59100342    0.31999999    0.05000000
   21.43972206  220.57600403    0.31999999    0.05000000
   21.44222069  243.22799683    0.31999999    0.05000000
   21.44527626  216.52499390    0.31999999    0.05000000
   21.44861031  222.21899414    0.31999999    0.05000000
   21.45194435  231.89599609    0.31999999    0.05000000
   21.45499992  221.23699951    0.31999999    0.05000000
   21.45833397  236.63999939    0.31999999    0.05000000
   21.46444511  236.63999939    0.31999999    0.05000000
   21.46861076  234.65800476    0.31999999    0.05000000
   21.47166634  209.75799561    0.31999999    0.05000000
   21.47305679  236.48199463    0.31999999    0.05000000
   21.47527885  221.82000732    0.31999999    0.05000000
   21.47833443  221.78999329    0.31999999    0.05000000
   21.48166656  234.70700073    0.31999999    0.05000000
   21.48500061  222.18499756    0.31999999    0.05000000
   21.48805618  209.21299744    0.31999999    0.05000000
   21.49138832  214.89599609    0.31999999    0.05000000
   21.49472237  228.02999878    0.31999999    0.05000000
   21.49777794  220.01100159    0.31999999    0.05000000
   21.50111198  220.05999756    0.31999999    0.05000000
   21.50722313  220.05999756    0.31999999    0.05000000
   21.51138878  219.06599426    0.31999999    0.05000000
   21.51444435  242.97700500    0.31999999    0.05000000
   21.51777840  233.09399414    0.31999999    0.05000000
   21.52111053  210.88400269    0.31999999    0.05000000
   21.52416611  222.49000549    0.31999999    0.05000000
   21.52750015  227.00500488    0.31999999    0.05000000
   21.53055573  224.22900391    0.31999999    0.05000000
   21.53388786  240.24200439    0.31999999    0.05000000
   21.53722191  228.35899353    0.31999999    0.05000000
   21.53972244  233.96899414    0.31999999    0.05000000
   21.54083252  208.95599365    0.31999999    0.05000000
   21.54388809  217.97099304    0.31999999    0.05000000
   21.54999924  217.97099304    0.31999999    0.05000000
   21.55416679  213.31199646    0.31999999    0.05000000
   21.55749893  210.58999634    0.31999999    0.05000000
   21.56055450  223.57800293    0.31999999    0.05000000
   21.56388855  216.70300293    0.31999999    0.05000000
   21.56722260  220.50100708    0.31999999    0.05000000
   21.57027817  220.96299744    0.31999999    0.05000000
   21.57305717  229.43600464    0.31999999    0.05000000
   21.57389069  221.40299988    0.31999999    0.05000000
   21.57694626  216.99400330    0.31999999    0.05000000
   21.58027840  216.36199951    0.31999999    0.05000000
   21.58361244  212.42999268    0.31999999    0.05000000
   21.58694458  215.03700256    0.31999999    0.05000000
   21.59277916  215.03700256    0.31999999    0.05000000
   21.59694481  211.02099609    0.31999999    0.05000000
   21.60027885  208.44400024    0.31999999    0.05000000
   21.60361099  212.90299988    0.31999999    0.05000000
   21.60639000  232.60200500    0.31999999    0.05000000
   21.60722351  219.77999878    0.31999999    0.05000000
   21.61027908  225.53100586    0.31999999    0.05000000
   21.61361122  220.66600037    0.31999999    0.05000000
   21.63333321  217.95899963    0.31999999    0.05000000
   21.63750076  217.95899963    0.31999999    0.05000000
   21.64166641  228.98800659    0.31999999    0.05000000
   21.64500046  222.90299988    0.31999999    0.05000000
   21.64805603  227.57200623    0.31999999    0.05000000
   21.65138817  223.29699707    0.31999999    0.05000000
   21.65444374  224.16900635    0.31999999    0.05000000
   21.65777779  224.56700134    0.31999999    0.05000000
   21.66110992  235.52699280    0.31999999    0.05000000
   21.66416550  209.50799561    0.31999999    0.05000000
   21.66749954  212.57299805    0.31999999    0.05000000
   21.67055511  222.99099731    0.31999999    0.05000000
   21.67333221  221.21299744    0.31999999    0.05000000
   21.67444420  219.61500549    0.31999999    0.05000000
   21.68027687  219.61500549    0.31999999    0.05000000
   21.68444443  249.09399414    0.31999999    0.05000000
   21.68777657  244.07899475    0.31999999    0.05000000
   21.69083214  226.39199829    0.31999999    0.05000000
   21.69416618  233.11000061    0.31999999    0.05000000
   21.69749832  224.90199280    0.31999999    0.05000000
   21.70055580  222.39999390    0.31999999    0.05000000
   21.70388985  223.62600708    0.31999999    0.05000000
   21.70666695  215.90100098    0.31999999    0.05000000
   21.70750046  216.14199829    0.31999999    0.05000000
   21.71055603  212.58999634    0.31999999    0.05000000
   21.71389008  216.09100342    0.31999999    0.05000000
   21.71694565  209.44599915    0.31999999    0.05000000
   21.72305679  209.44599915    0.31999999    0.05000000
   21.72722244  226.52400208    0.31999999    0.05000000
   21.73055649  213.53399658    0.31999999    0.05000000
   21.73361206  214.05599976    0.31999999    0.05000000
   21.73694420  230.59100342    0.31999999    0.05000000
   21.73999977  205.13900757    0.31999999    0.05000000
   21.74055672  222.74000549    0.31999999    0.05000000
   21.74361229  218.39900208    0.31999999    0.05000000
   21.74694443  199.76699829    0.31999999    0.05000000
   21.75000000  239.37100220    0.31999999    0.05000000
   21.75333405  225.14700317    0.31999999    0.05000000
   21.75666618  229.13099670    0.31999999    0.05000000
   21.75972176  216.65899658    0.31999999    0.05000000
   21.76611137  216.65899658    0.31999999    0.05000000
   21.77000046  307.49600220    0.31999999    0.05000000
   21.77333260  351.37799072    0.31999999    0.05000000
   21.77388954  342.37200928    0.31999999    0.05000000
   21.77694511  263.55300903    0.31999999    0.05000000
   21.78027725  180.08299255    0.31999999    0.05000000
   21.78333282  141.11700439    0.31999999    0.05000000
   21.78666687  116.39700317    0.31999999    0.05000000
   21.78999901   85.83679962    0.31999999    0.05000000
   21.79305458   -1.00000000    0.31999999    0.05000000
   21.79638863   -1.00000000    0.31999999    0.05000000
   21.79972076   -1.00000000    0.31999999    0.05000000
   21.80277634   -1.00000000    0.31999999    0.05000000
   21.81305504   -1.00000000    0.31999999    0.05000000
   21.81611061   -1.00000000    0.31999999    0.05000000
   21.81944466   -1.00000000    0.31999999    0.05000000
   21.82250023   -1.00000000    0.31999999    0.05000000
   21.82583427   -1.00000000    0.31999999    0.05000000
   21.82916832   -1.00000000    0.31999999    0.05000000
   21.83222389   -1.00000000    0.31999999    0.05000000
   21.83555603   -1.00000000    0.31999999    0.05000000
   21.83889008   -1.00000000    0.31999999    0.05000000
   21.84222221   -1.00000000    0.31999999    0.05000000
   21.84555626   -1.00000000    0.31999999    0.05000000
   21.85583305   -1.00000000    0.31999999    0.05000000
   21.85888863   -1.00000000    0.31999999    0.05000000
   21.86222267   -1.00000000    0.31999999    0.05000000
   21.86555672   -1.00000000    0.31999999    0.05000000
   21.86861038   -1.00000000    0.31999999    0.05000000
   21.87194443   -1.00000000    0.31999999    0.05000000
   21.87527847   -1.00000000    0.31999999    0.05000000
   21.87861061   -1.00000000    0.31999999    0.05000000
   21.88194466   -1.00000000    0.31999999    0.05000000
   21.88500023   -1.00000000    0.31999999    0.05000000
   21.88833237   -1.00000000    0.31999999    0.05000000
   21.89861107   -1.00000000    0.31999999    0.05000000
   21.90194321   -1.00000000    0.31999999    0.05000000
   21.90527725   -1.00000000    0.31999999    0.05000000
   21.90888786   -1.00000000    0.31999999    0.05000000
   21.91194344   -1.00000000    0.31999999    0.05000000
   21.91527748   -1.00000000    0.31999999    0.05000000
   21.91833305   -1.00000000    0.31999999    0.05000000
   21.92166519   -1.00000000    0.31999999    0.05000000
   21.92499924   -1.00000000    0.31999999    0.05000000
   21.92805481   -1.00000000    0.31999999    0.05000000
