    HOUR (UT)   FLARE FACTOR    SKY TESTER    SUN TESTER
   12.13416672   -1.00000000   -1.00000000   -1.00000000
   12.15361118  201.23199463    0.58999997    1.75000000
   12.15861034  186.09800720    0.61000001    1.76999998
   12.16305542  193.21699524    0.61000001    1.76999998
   12.16638851  179.27900696    0.61000001    1.76999998
   12.16944504  179.32400513    0.61000001    1.76999998
   12.17277813  195.89799500    0.61000001    1.76999998
   12.17611122  185.21400452    0.61000001    1.76999998
   12.17916679  198.80700684    0.61000001    1.78999996
   12.18249989  179.51499939    0.63000000    1.78999996
   12.18583298  179.05299377    0.63000000    1.78999996
   12.18694496  162.62399292    0.63000000    1.78999996
   12.18944454  158.36399841    0.63000000    1.78999996
   12.19277763  165.70899963    0.64999998    1.78999996
   12.19583321  177.13499451    0.67000002    1.80999994
   12.19916630  179.42599487    0.70999998    1.80999994
   12.20249939  186.05700684    0.70999998    1.80999994
   12.20555496  160.06799316    0.70999998    1.80999994
   12.20888901  172.47399902    0.70999998    1.80999994
   12.21222210  164.53100586    0.73000002    1.80999994
   12.21527767  161.84800720    0.73000002    1.80999994
   12.21861076  154.58099365    0.73000002    1.80999994
   12.22027779  183.26899719    0.75000000    1.80999994
   12.22222137  166.12199402    0.75000000    1.80999994
   12.22555542  161.05099487    0.70999998    1.83000004
   12.22861099  177.92900085    0.70999998    1.83000004
   12.23194408  157.40600586    0.70999998    1.85000002
   12.23527813  160.67900085    0.70999998    1.83000004
   12.23833370  169.22099304    0.73000002    1.86000001
   12.24166679  161.68200684    0.73000002    1.86000001
   12.24499989  166.67799377    0.73000002    1.85000002
   12.24805546  158.16000366    0.73000002    1.85000002
   12.25138855  163.16600037    0.73000002    1.85000002
   12.25361156  164.42199707    0.73000002    1.85000002
   12.25500011  175.35899353    0.73000002    1.85000002
   12.25833321  157.96400452    0.75000000    1.85000002
   12.26138878  166.71800232    0.73000002    1.86000001
   12.26472187  158.55700684    0.73000002    1.86000001
   12.26805496  164.78300476    0.75000000    1.86000001
   12.27111053  150.76300049    0.75000000    1.86000001
   12.27444458  154.45899963    0.76999998    1.88000000
   12.27805519  147.88000488    0.79000002    1.88000000
   12.28111076  152.38900757    0.79000002    1.88000000
   12.28444481  161.78100586    0.79000002    1.88000000
   12.28694534  150.30400085    0.79000002    1.88000000
   12.28805637  165.69500732    0.79000002    1.88000000
   12.29138947  151.58500671    0.76999998    1.88000000
   12.29444504  149.18600464    0.76999998    1.89999998
   12.29777813  156.10299683    0.75000000    1.89999998
   12.30111122  153.56799316    0.75000000    1.89999998
   12.30416679  159.94599915    0.75000000    1.89999998
   12.30749989  156.82699585    0.73000002    1.89999998
   12.31083393  165.15800476    0.73000002    1.89999998
   12.31388950  157.21499634    0.73000002    1.89999998
   12.31722260  161.72399902    0.70999998    1.89999998
   12.32027817  163.72300720    0.70999998    1.89999998
   12.32083321  159.45300293    0.69000000    1.91999996
   12.32416630  157.98399353    0.69000000    1.91999996
   12.32722187  164.92799377    0.69000000    1.91999996
   12.33055592  154.14199829    0.70999998    1.91999996
   12.33388901  154.91600037    0.69000000    1.91999996
   12.33694458  162.53900146    0.70999998    1.91999996
   12.34027767  145.99600220    0.73000002    1.91999996
   12.34361076  152.55999756    0.73000002    1.91999996
   12.34666634  160.31300354    0.73000002    1.91999996
   12.35000038  162.33200073    0.73000002    1.94000006
   12.35305595  157.51699829    0.73000002    1.94000006
   12.35361195  162.06300354    0.73000002    1.94000006
   12.35694504  154.00799561    0.73000002    1.94000006
   12.36027813  150.72500610    0.70999998    1.94000006
   12.36333370  161.57299805    0.70999998    1.94000006
   12.36666679  157.65100098    0.70999998    1.94000006
   12.36999989  162.94599915    0.69000000    1.96000004
   12.37305546  166.34899902    0.69000000    1.96000004
   12.37638855  156.45300293    0.67000002    1.96000004
   12.37972260  158.92399597    0.67000002    1.96000004
   12.38277817  161.21699524    0.69000000    1.96000004
   12.38611126  162.16799927    0.69000000    1.96000004
   12.38694477  162.16799927    0.67000002    1.98000002
   12.38972187  169.03999329    0.67000002    1.98000002
   12.39305496  165.91799927    0.67000002    1.96000004
   12.39611053  162.04400635    0.64999998    1.96000004
   12.39944458  162.01100159    0.67000002    1.98000002
   12.40277767  164.22300720    0.64999998    2.00000000
   12.40583324  159.00300598    0.64999998    1.98000002
   12.40916634  161.77799988    0.64999998    1.98000002
   12.41222191  164.08799744    0.64999998    1.98000002
   12.41555500  165.82099915    0.64999998    1.98000002
   12.41888905  159.16000366    0.64999998    2.00000000
   12.42027855  156.16400146    0.64999998    2.00000000
   12.42250061  162.42900085    0.64999998    2.00000000
   12.42583370  158.72000122    0.64999998    2.00000000
   12.42888927  156.68299866    0.64999998    2.00000000
   12.43222237  164.18499756    0.64999998    2.00000000
   12.43555546  156.50500488    0.64999998    2.00000000
   12.43861103  159.92300415    0.64999998    2.00000000
   12.44194412  151.33599854    0.64999998    2.00000000
   12.44499969  161.47599792    0.64999998    2.01999998
   12.44833374  154.22700500    0.64999998    2.01999998
   12.45166683  165.98399353    0.67000002    2.01999998
   12.45361137  155.75900269    0.67000002    2.01999998
   12.45527744  153.59599304    0.67000002    2.01999998
   12.45861053  148.18600464    0.69000000    2.01999998
   12.46166611  154.42500305    0.67000002    2.01999998
   12.46500015  147.70700073    0.67000002    2.01999998
   12.46833324  156.58299255    0.67000002    2.01999998
   12.47138882  162.52099609    0.67000002    2.01999998
   12.47472191  144.74400330    0.67000002    2.01999998
   12.47777748  141.29200745    0.69000000    2.01999998
   12.48111057  143.15800476    0.67000002    2.03999996
   12.48444462  147.92100525    0.67000002    2.03999996
   12.48694515  154.23399353    0.67000002    2.03999996
   12.48805618  159.59899902    0.67000002    2.03999996
   12.49138927  156.59100342    0.67000002    2.05999994
   12.49444485  152.18400574    0.67000002    2.05999994
   12.49777794  156.62899780    0.67000002    2.03999996
   12.50111103  149.91799927    0.67000002    2.03999996
   12.50416660  147.63900757    0.67000002    2.03999996
   12.50749969  148.40299988    0.67000002    2.07999992
   12.51055527  149.66900635    0.67000002    2.05999994
   12.51388931  151.78300476    0.64999998    2.03999996
   12.51722240  150.16700745    0.64999998    2.05999994
   12.52027798  154.41200256    0.64999998    2.05999994
   12.52083302  166.11999512    0.64999998    2.05999994
   12.52416611  154.29499817    0.64999998    2.05999994
   12.52722168  155.50000000    0.64999998    2.05999994
   12.53055573  164.92999268    0.64999998    2.05999994
   12.53388977  152.29699707    0.63000000    2.05999994
   12.53694534  155.96099854    0.63000000    2.07999992
   12.54027843  155.09899902    0.63000000    2.07999992
   12.54333401  151.23500061    0.63000000    2.07999992
   12.54666710  156.00999451    0.63000000    2.07999992
   12.55000019  159.15499878    0.63000000    2.07999992
   12.55305576  162.85099792    0.63000000    2.07999992
   12.55361176  156.75599670    0.63000000    2.07999992
   12.55666733  151.62899780    0.63000000    2.07999992
   12.56000042  157.68499756    0.63000000    2.07999992
   12.56305599  158.91700745    0.63000000    2.07999992
   12.56638908  160.80200195    0.63000000    2.07999992
   12.56972218  153.82299805    0.63000000    2.09999990
   12.57277775  159.55200195    0.61000001    2.09999990
   12.57611084  168.05999756    0.61000001    2.09999990
   12.57944393  159.27099609    0.61000001    2.09999990
   12.58249950  160.75399780    0.61000001    2.09999990
   12.58583260  167.42900085    0.61000001    2.09999990
   12.58694458  168.66299438    0.61000001    2.09999990
   12.58944416  167.27699280    0.61000001    2.09999990
   12.59277725  154.64100647    0.61000001    2.09999990
   12.59583282  160.04899597    0.61000001    2.09999990
   12.59916592  157.53500366    0.61000001    2.11999989
   12.60249996  160.42399597    0.61000001    2.11999989
   12.60555553  157.11199951    0.61000001    2.11999989
   12.60888958  156.48100281    0.61000001    2.11999989
   12.61222267  155.25399780    0.61000001    2.11999989
   12.61527824  155.68699646    0.61000001    2.13000011
   12.61861134  165.48100281    0.61000001    2.13000011
   12.62055588  154.00100708    0.58999997    2.11999989
   12.62222195  160.70599365    0.58999997    2.11999989
   12.62555599  154.91499329    0.58999997    2.13000011
   12.62861156  158.37300110    0.61000001    2.11999989
   12.63194466  161.71400452    0.58999997    2.11999989
   12.63527775  169.17700195    0.58999997    2.13000011
   12.63833332  167.20899963    0.61000001    2.13000011
   12.64166641  162.32099915    0.61000001    2.13000011
   12.64499950  165.76499939    0.58999997    2.13000011
   12.64805508  168.86199951    0.58999997    2.13000011
   12.65138817  185.54400635    0.58999997    2.13000011
   12.65388870  180.70300293    0.58999997    2.13000011
   12.65499973  173.41600037    0.58999997    2.13000011
   12.65833282  170.64399719    0.58999997    2.13000011
   12.66138840  161.58000183    0.58999997    2.15000010
   12.66472149  168.07200623    0.58999997    2.15000010
   12.66805553  155.13999939    0.61000001    2.15000010
   12.67111111  144.72700500    0.63000000    2.15000010
   12.67444515  144.91600037    0.63000000    2.13000011
   12.67777824  142.92599487    0.63000000    2.13000011
   12.68083382  158.87199402    0.63000000    2.15000010
   12.68416691  145.97099304    0.63000000    2.17000008
   12.68722248  157.90400696    0.63000000    2.17000008
   12.68777752  164.23300171    0.63000000    2.15000010
   12.69111156  148.04800415    0.63000000    2.15000010
   12.69416714  159.52999878    0.63000000    2.15000010
   12.69750023  147.93800354    0.63000000    2.15000010
   12.70083332  146.63099670    0.61000001    2.15000010
   12.70388889  163.36199951    0.63000000    2.15000010
   12.70722198  158.86799622    0.63000000    2.15000010
   12.71055508  170.44900513    0.63000000    2.15000010
   12.71361065  168.29299927    0.63000000    2.15000010
   12.71694374  167.88000488    0.61000001    2.17000008
   12.72027779  171.09500122    0.61000001    2.17000008
   12.72083282  161.53700256    0.61000001    2.17000008
   12.72388840  174.62399292    0.58999997    2.17000008
   12.72722149  178.65400696    0.61000001    2.17000008
   12.73027706  178.41799927    0.58999997    2.17000008
   12.73361111  165.03799438    0.58999997    2.17000008
   12.73694515  165.05599976    0.61000001    2.17000008
   12.74027824  200.24400330    0.58999997    2.17000008
   12.74333382  183.21499634    0.58999997    2.17000008
   12.74666691  191.11999512    0.58999997    2.17000008
   12.75000000  178.71200562    0.58999997    2.19000006
   12.75305557  183.77299500    0.56999999    2.19000006
   12.75416660  184.35699463    0.56999999    2.19000006
   12.75666714  176.71400452    0.56999999    2.19000006
   12.76000023  197.14199829    0.56999999    2.19000006
   12.76305580  185.52999878    0.56999999    2.19000006
   12.76638889  177.16499329    0.56999999    2.19000006
   12.76972198  180.13400269    0.56999999    2.19000006
   12.77277756  200.65100098    0.56999999    2.19000006
   12.77611065  176.43699646    0.56999999    2.19000006
   12.77944374  183.71899414    0.56999999    2.21000004
   12.78249931  174.98399353    0.56999999    2.21000004
   12.78583336  179.30400085    0.56999999    2.21000004
   12.78750038  173.19200134    0.56999999    2.21000004
   12.78944492  170.85200500    0.56999999    2.21000004
   12.79277802  174.89999390    0.56999999    2.21000004
   12.79583359  166.20799255    0.56999999    2.21000004
   12.79916668  161.08299255    0.56999999    2.21000004
   12.80249977  167.73800659    0.56999999    2.21000004
   12.80555534  170.44200134    0.56999999    2.21000004
   12.80888939  166.47200012    0.56999999    2.21000004
   12.81222248  169.05000305    0.56999999    2.21000004
   12.81527805  167.19599915    0.58999997    2.23000002
   12.81861115  173.27999878    0.58999997    2.23000002
   12.82083321  182.34899902    0.61000001    2.21000004
   12.82222176  176.15800476    0.61000001    2.21000004
   12.82555580  166.91900635    0.61000001    2.21000004
   12.82861137  178.47399902    0.58999997    2.23000002
   12.83194447  170.03900146    0.58999997    2.23000002
   12.83527756  162.89399719    0.58999997    2.21000004
   12.83833313  172.61099243    0.58999997    2.23000002
   12.84166622  169.23399353    0.58999997    2.25000000
   12.84499931  176.42399597    0.58999997    2.23000002
   12.84805489  178.53100586    0.58999997    2.23000002
   12.85138893  180.70700073    0.56999999    2.25000000
   12.85416698  179.16200256    0.56999999    2.23000002
   12.85500050  181.28100586    0.56999999    2.23000002
   12.85833359  177.67500305    0.56999999    2.23000002
   12.86166668  171.85499573    0.56999999    2.23000002
   12.86472225  182.93200684    0.56999999    2.23000002
   12.86805534  185.83099365    0.56999999    2.25000000
   12.87111092  179.14900208    0.56999999    2.25000000
   12.87444496  184.89399719    0.56999999    2.25000000
   12.87777805  186.49600220    0.56999999    2.25000000
   12.88083363  182.79899597    0.55000001    2.25000000
   12.88416672  174.24699402    0.56999999    2.23000002
   12.88749981  182.74600220    0.56999999    2.25000000
   12.88777733  174.59399414    0.56999999    2.25000000
   12.89111137  169.64700317    0.55000001    2.25000000
   12.89444447  166.61500549    0.55000001    2.25000000
   12.89750004  162.61599731    0.56999999    2.25000000
   12.90083313  162.63900757    0.56999999    2.25000000
   12.90416622  172.76100159    0.56999999    2.25000000
   12.90722179  177.17100525    0.56999999    2.25000000
   12.91055489  157.31300354    0.56999999    2.25000000
   12.91361046  165.40899658    0.56999999    2.25000000
   12.91694450  162.28599548    0.56999999    2.25000000
   12.92027855  152.85200500    0.56999999    2.25000000
   12.92083359  173.92599487    0.56999999    2.25000000
   12.92361164  164.37300110    0.56999999    2.25000000
   12.92694473  171.85499573    0.56999999    2.25000000
   12.93027782  162.85200500    0.55000001    2.26999998
   12.93333340  176.55299377    0.55000001    2.26999998
   12.93666649  175.05900574    0.55000001    2.26999998
   12.94000053  175.19500732    0.55000001    2.26999998
   12.94305515  173.04400635    0.55000001    2.26999998
   12.94638920  168.64900208    0.55000001    2.26999998
   12.94972229  171.08700562    0.55000001    2.26999998
   12.95277786  161.33599854    0.55000001    2.25000000
   12.95416641  166.29499817    0.55000001    2.26999998
   12.95638847  159.91099548    0.55000001    2.26999998
   12.95972157  169.56900024    0.55000001    2.26999998
   12.96305561  167.69900513    0.55000001    2.26999998
   12.96611118  170.23699951    0.55000001    2.26999998
   12.96944427  179.03300476    0.55000001    2.26999998
   12.97277737  170.59800720    0.55000001    2.26999998
   12.97583294  175.14399719    0.55000001    2.28999996
   12.97916603  167.34100342    0.55000001    2.26999998
   12.98249912  169.81500244    0.55000001    2.26999998
   12.98555565  187.50799561    0.55000001    2.28999996
   12.98750019  164.87399292    0.55000001    2.28999996
   12.98916721  171.51899719    0.55000001    2.26999998
   12.99250031  174.98899841    0.55000001    2.26999998
   12.99583340  177.19299316    0.55000001    2.26999998
   12.99888897  176.34100342    0.55000001    2.28999996
   13.00222206  167.76400757    0.52999997    2.28999996
   13.00555515  170.86000061    0.55000001    2.28999996
   13.00861073  174.46699524    0.52999997    2.28999996
   13.01194477  178.19900513    0.52999997    2.28999996
   13.01527786  172.57400513    0.52999997    2.28999996
   13.01833344  171.17799377    0.55000001    2.28999996
   13.02083302  170.00700378    0.55000001    2.28999996
   13.02194405  185.54299927    0.55000001    2.28999996
   13.02527714  163.24400330    0.52999997    2.30999994
   13.02861118  163.35699463    0.52999997    2.30999994
   13.03166676  153.59500122    0.52999997    2.30999994
   13.03500080  173.63900757    0.52999997    2.30999994
   13.03833389  144.04600525    0.52999997    2.30999994
   13.04138947  154.59100342    0.55000001    2.30999994
   13.04472256  150.24200439    0.56999999    2.30999994
   13.04777813  148.80299377    0.56999999    2.30999994
   13.05111122  161.55499268    0.56999999    2.30999994
   13.05416679  173.26300049    0.58999997    2.30999994
   13.05472279  152.87600708    0.58999997    2.30999994
   13.05805588  160.50700378    0.56999999    2.32999992
   13.06138897  156.23800659    0.55000001    2.30999994
   13.06444454  158.82099915    0.55000001    2.30999994
   13.06777763  161.50199890    0.52999997    2.30999994
   13.07111073  153.53500366    0.55000001    2.30999994
   13.07416630  166.71400452    0.55000001    2.30999994
   13.07750034  162.90100098    0.52999997    2.30999994
   13.08055592  174.35400391    0.52999997    2.30999994
   13.08388901  168.39399719    0.52999997    2.32999992
   13.08722210  169.11099243    0.52999997    2.32999992
   13.08777714  159.93899536    0.52999997    2.32999992
   13.09083271  160.35899353    0.52999997    2.30999994
   13.09416676  161.80499268    0.52999997    2.30999994
   13.09749985  153.22200012    0.52999997    2.30999994
   13.10055637  161.86700439    0.51999998    2.32999992
   13.10388947  159.19000244    0.51999998    2.32999992
   13.10694504  159.85400391    0.51999998    2.32999992
   13.11027813  163.31700134    0.51999998    2.32999992
   13.11361122  167.30299377    0.51999998    2.32999992
   13.11666679  164.06799316    0.52999997    2.32999992
   13.11999989  153.80799866    0.51999998    2.32999992
   13.12111092  161.99200439    0.51999998    2.32999992
   13.12361145  159.37899780    0.51999998    2.32999992
   13.12694454  144.49400330    0.51999998    2.32999992
   13.13027763  157.72000122    0.52999997    2.32999992
   13.13333321  156.85400391    0.52999997    2.32999992
   13.13666630  161.58500671    0.51999998    2.32999992
   13.13972187  154.83799744    0.52999997    2.32999992
   13.14305496  156.78199768    0.52999997    2.32999992
   13.14638901  163.78100586    0.51999998    2.32999992
   13.14944458  153.69700623    0.51999998    2.32999992
   13.15277767  159.05200195    0.52999997    2.32999992
   13.17027855  162.98300171    0.51999998    2.34999990
   13.17277813  166.04800415    0.51999998    2.34999990
   13.17583370  167.07600403    0.51999998    2.34999990
   13.17916679  170.45899963    0.51999998    2.34999990
   13.18222237  161.66099548    0.51999998    2.34999990
   13.18555546  168.18899536    0.51999998    2.34999990
   13.18888855  168.57099915    0.50000000    2.34999990
   13.19194412  163.89100647    0.50000000    2.34999990
   13.19527817  166.86199951    0.50000000    2.34999990
   13.19861126  165.93400574    0.50000000    2.34999990
   13.20166683  164.20300293    0.51999998    2.34999990
   13.20361137  171.16499329    0.51999998    2.34999990
   13.20527744  162.29299927    0.51999998    2.34999990
   13.20861053  161.01600647    0.51999998    2.34999990
   13.21166611  158.19299316    0.51999998    2.34999990
   13.21500015  159.44700623    0.51999998    2.36999989
   13.21833324  160.33900452    0.50000000    2.36999989
   13.22138882  164.22000122    0.50000000    2.34999990
   13.22472191  164.94099426    0.50000000    2.34999990
   13.22805500  158.88099670    0.51999998    2.34999990
   13.23111057  169.67700195    0.50000000    2.36999989
   13.23444462  168.48300171    0.51999998    2.36999989
   13.23694515  166.52799988    0.51999998    2.36999989
   13.23805618  165.17399597    0.51999998    2.36999989
   13.24138927  162.44500732    0.51999998    2.36999989
   13.24444485  165.12100220    0.50000000    2.36999989
   13.24777794  168.84100342    0.50000000    2.36999989
   13.25111103  161.61700439    0.50000000    2.36999989
   13.25416660  162.51800537    0.50000000    2.36999989
   13.25749969  164.72300720    0.51999998    2.36999989
   13.26083374  170.86799622    0.50000000    2.36999989
   13.26416683  166.12899780    0.50000000    2.36999989
   13.26722240  160.71899414    0.50000000    2.36999989
   13.27027798  166.93899536    0.50000000    2.36999989
   13.27111053  163.82200623    0.50000000    2.36999989
   13.27416611  161.84300232    0.51999998    2.36999989
   13.27750015  169.41099548    0.50000000    2.36999989
   13.28083324  168.44000244    0.51999998    2.36999989
   13.28416729  172.13200378    0.51999998    2.36999989
   13.28722286  170.15100098    0.50000000    2.36999989
   13.29055595  164.72799683    0.50000000    2.36999989
   13.29388905  165.93600464    0.50000000    2.36999989
   13.29694462  163.48199463    0.50000000    2.39000010
   13.30027771  163.04600525    0.50000000    2.39000010
   13.30361176  164.22200012    0.50000000    2.39000010
   13.30388927  162.16299438    0.50000000    2.39000010
   13.30722237  168.40600586    0.50000000    2.39000010
   13.31027794  163.13800049    0.50000000    2.39000010
   13.31361103  167.48199463    0.47999999    2.39000010
   13.31694412  165.10600281    0.47999999    2.39000010
   13.31999969  162.08299255    0.50000000    2.39000010
   13.32333374  173.85600281    0.50000000    2.39000010
   13.32666683  162.64300537    0.47999999    2.39000010
   13.32972240  157.14500427    0.47999999    2.39000010
   13.33305550  167.11000061    0.47999999    2.39000010
   13.33638859  158.38999939    0.47999999    2.39000010
   13.33694458  156.66600037    0.47999999    2.39000010
   13.33972168  161.55000305    0.47999999    2.39000010
   13.34305477  166.28399658    0.47999999    2.39000010
   13.34638882  165.55400085    0.47999999    2.39000010
   13.34944439  166.88900757    0.47999999    2.39000010
   13.35277843  162.35099792    0.47999999    2.39000010
   13.35583401  154.62800598    0.47999999    2.39000010
   13.35916710  164.25399780    0.47999999    2.40000010
   13.36250019  163.88600159    0.47999999    2.39000010
   13.36583328  163.45199585    0.47999999    2.39000010
   13.36888885  166.91400146    0.47999999    2.39000010
   13.37027836  167.92300415    0.47999999    2.39000010
   13.37250042  176.28100586    0.47999999    2.39000010
   13.37583351  174.68200684    0.47999999    2.39000010
   13.37916660  165.27600098    0.47999999    2.39000010
   13.38222218  162.75300598    0.47999999    2.39000010
   13.38555527  163.37800598    0.47999999    2.39000010
   13.38861084  168.90899658    0.47999999    2.40000010
   13.39194393  159.92999268    0.47999999    2.40000010
   13.39527798  159.68099976    0.47999999    2.40000010
   13.39833355  155.69500732    0.47999999    2.40000010
   13.40166664  152.57299805    0.47999999    2.40000010
   13.40361118  158.64500427    0.47999999    2.40000010
   13.40527725  156.37300110    0.47999999    2.40000010
   13.40861034  159.42199707    0.47999999    2.40000010
   13.41194439  158.91000366    0.47999999    2.40000010
   13.41499996  164.73300171    0.47999999    2.40000010
   13.41833401  162.85200500    0.47999999    2.40000010
   13.42138958  155.76800537    0.47999999    2.40000010
   13.42472267  158.22200012    0.47999999    2.40000010
   13.42805576  167.59700012    0.47999999    2.40000010
   13.43111134  156.28900146    0.47999999    2.40000010
   13.43444443  159.97300720    0.47999999    2.40000010
   13.43694496  155.61799622    0.47999999    2.40000010
   13.43805599  158.07400513    0.47999999    2.40000010
   13.44138908  161.69200134    0.47999999    2.40000010
   13.44472218  160.73699951    0.47999999    2.40000010
   13.44805527  153.77999878    0.46000001    2.40000010
   13.45111084  155.23300171    0.47999999    2.40000010
   13.45444393  158.48899841    0.47999999    2.40000010
   13.45777798  163.03300476    0.46000001    2.42000008
   13.46083355  157.12500000    0.47999999    2.40000010
   13.46416664  161.83399963    0.47999999    2.40000010
   13.46722221  157.69400024    0.46000001    2.42000008
   13.47027779  161.27699280    0.46000001    2.42000008
   13.47083282  161.26100159    0.46000001    2.42000008
   13.47416592  156.15299988    0.46000001    2.42000008
   13.47749996  158.46600342    0.46000001    2.40000010
   13.48055553  167.04299927    0.46000001    2.42000008
   13.48388958  161.41299438    0.46000001    2.42000008
   13.48694515  161.98800659    0.46000001    2.42000008
   13.49027824  153.98699951    0.46000001    2.42000008
   13.49361134  153.21299744    0.46000001    2.42000008
   13.49666691  149.84800720    0.46000001    2.42000008
   13.50000000  158.30200195    0.46000001    2.42000008
   13.50333309  138.08099365    0.47999999    2.42000008
   13.50388908  138.70199585    0.47999999    2.42000008
   13.50694466  151.71000671    0.46000001    2.42000008
   13.51027775  152.35299683    0.46000001    2.42000008
   13.51333332  148.15899658    0.46000001    2.42000008
   13.51666641  141.69999695    0.46000001    2.44000006
   13.51999950  148.91200256    0.47999999    2.40000010
   13.52305508  139.03599548    0.46000001    2.44000006
   13.52638817  145.52200317    0.46000001    2.42000008
   13.52972221  158.15600586    0.46000001    2.42000008
   13.53277779  145.32099915    0.46000001    2.42000008
   13.53611183  154.38400269    0.46000001    2.42000008
   13.53722286  152.71400452    0.46000001    2.42000008
   13.53972244  155.10200500    0.46000001    2.44000006
   13.54305553  154.26899719    0.46000001    2.42000008
   13.54611111  150.30999756    0.47999999    2.42000008
   13.54944515  158.52799988    0.46000001    2.42000008
   13.55277824  161.04800415    0.46000001    2.42000008
   13.55583382  161.71499634    0.47999999    2.42000008
   13.55916691  153.13900757    0.47999999    2.44000006
   13.56250000  150.09899902    0.47999999    2.44000006
   13.56555557  160.62699890    0.47999999    2.44000006
   13.56888866  153.24099731    0.47999999    2.44000006
   13.57055569  155.20899963    0.47999999    2.44000006
   13.57250023  155.91799927    0.47999999    2.44000006
   13.57583332  149.81599426    0.46000001    2.44000006
   13.57888889  155.61199951    0.46000001    2.44000006
   13.58222198  163.24099731    0.46000001    2.42000008
   13.58555508  160.98800659    0.46000001    2.42000008
   13.58861065  154.73699951    0.46000001    2.44000006
   13.59194374  161.94200134    0.47999999    2.44000006
   13.59527779  150.56399536    0.47999999    2.44000006
   13.59833336  152.39199829    0.47999999    2.44000006
   13.60166740  163.51400757    0.47999999    2.46000004
   13.60388947  162.59700012    0.47999999    2.46000004
   13.60527802  157.32600403    0.47999999    2.46000004
   13.60861111  159.58099365    0.47999999    2.46000004
   13.71944427   -1.00000000   -1.00000000   -1.00000000
   13.81527805   -1.00000000   -1.00000000   -1.00000000
   13.92000008   -1.00000000   -1.00000000   -1.00000000
   14.01305580   -1.00000000   -1.00000000   -1.00000000
   14.11166668   -1.00000000   -1.00000000   -1.00000000
   14.21027756   -1.00000000   -1.00000000   -1.00000000
   14.30416679   -1.00000000   -1.00000000   -1.00000000
   14.39972210   -1.00000000   -1.00000000   -1.00000000
   14.49916649   -1.00000000   -1.00000000   -1.00000000
   14.53944492   95.65630341    0.36000001    2.57999992
   14.54277802  173.79800415    0.36000001    2.57999992
   14.54611111  182.46000671    0.38000000    2.57999992
   14.54916668  188.01499939    0.38000000    2.57999992
   14.55249977  177.23800659    0.36000001    2.57999992
   14.55583382  168.93800354    0.38000000    2.57999992
   14.55972195  168.93800354    0.38000000    2.57999992
   14.56388950  171.82600403    0.40000001    2.57999992
   14.56722260  175.84100342    0.38000000    2.57999992
   14.57055569  169.39300537    0.38000000    2.57999992
   14.57277775  152.14700317    0.38000000    2.57999992
   14.57416630  150.98800659    0.38000000    2.57999992
   14.57750034  159.69599915    0.36000001    2.57999992
   14.58055592  175.92100525    0.36000001    2.57999992
   14.58388901  174.02999878    0.36000001    2.57999992
   14.58694458  167.82099915    0.38000000    2.57999992
   14.59027767  172.42199707    0.38000000    2.57999992
   14.59361076  179.46299744    0.40000001    2.55999994
   14.59666634  162.02400208    0.38000000    2.57999992
   14.60277843  162.02400208    0.38000000    2.57999992
   14.60666752  142.13099670    0.38000000    2.59999990
   14.61000061  168.30700684    0.38000000    2.57999992
   14.61333370  156.02900696    0.38000000    2.57999992
   14.61638927  161.11199951    0.40000001    2.57999992
   14.61972237  164.04499817    0.40000001    2.57999992
   14.62305546  162.63699341    0.38000000    2.57999992
   14.62611103  149.13900757    0.38000000    2.57999992
   14.62944412  146.45799255    0.38000000    2.57999992
   14.63249969  157.23599243    0.38000000    2.57999992
   14.63583279  163.84100342    0.38000000    2.57999992
   14.63916683  158.38499451    0.38000000    2.57999992
   14.63972187  155.66000366    0.38000000    2.57999992
   14.64555550  155.66000366    0.38000000    2.59999990
   14.64972210  155.20199585    0.38000000    2.57999992
   14.65277767  152.86300659    0.38000000    2.57999992
   14.65611076  146.83000183    0.38000000    2.57999992
   14.65944386  149.20300293    0.36000001    2.57999992
   14.66249943  151.27400208    0.38000000    2.57999992
   14.66583252  152.38999939    0.36000001    2.59999990
   14.66916656  155.17399597    0.38000000    2.59999990
   14.67222214  156.28500366    0.36000001    2.59999990
   14.67305565  148.93400574    0.36000001    2.59999990
   14.67611122  150.72099304    0.36000001    2.59999990
   14.67916679  156.06199646    0.36000001    2.59999990
   14.68249989  144.92500305    0.36000001    2.57999992
   14.68833351  144.92500305    0.36000001    2.57999992
   14.69250011  146.44500732    0.36000001    2.59999990
   14.69583321  148.40400696    0.36000001    2.59999990
   14.69888878  144.44500732    0.38000000    2.59999990
   14.70222187  152.47700500    0.36000001    2.59999990
   14.70555496  156.73500061    0.36000001    2.59999990
   14.70638847  156.07499695    0.36000001    2.59999990
   14.70888901  145.72999573    0.36000001    2.59999990
   14.71222210  149.60899353    0.36000001    2.59999990
   14.71555519  156.92100525    0.36000001    2.57999992
   14.71861076  140.49699402    0.38000000    2.57999992
   14.72194386  149.28500366    0.38000000    2.57999992
   14.72555542  146.19599915    0.36000001    2.59999990
   14.73111057  146.19599915    0.36000001    2.57999992
   14.73527813  150.22000122    0.38000000    2.59999990
   14.73861122  141.16499329    0.36000001    2.59999990
   14.73972225  150.93400574    0.36000001    2.59999990
   14.74250031  145.03799438    0.36000001    2.57999992
   14.74555588  141.97399902    0.36000001    2.59999990
   14.74888897  144.71299744    0.36000001    2.59999990
   14.75194454  143.15400696    0.38000000    2.59999990
   14.75527763  148.25300598    0.38000000    2.59999990
   14.75861073  148.04499817    0.38000000    2.59999990
   14.76166630  146.53599548    0.38000000    2.59999990
   14.76500034  142.64999390    0.40000001    2.57999992
   14.76833344  144.90499878    0.40000001    2.59999990
   14.77416611  144.90499878    0.40000001    2.59999990
   14.77805519  148.08299255    0.40000001    2.59999990
   14.78138828  146.43299866    0.40000001    2.57999992
   14.78472233  148.67900085    0.38000000    2.59999990
   14.78777790  157.76400757    0.38000000    2.59999990
   14.79111195  158.72399902    0.38000000    2.59999990
   14.79444504  149.58500671    0.38000000    2.59999990
   14.79750061  143.27200317    0.38000000    2.59999990
   14.80083370  154.74200439    0.40000001    2.59999990
   14.80388927  143.58700562    0.40000001    2.59999990
   14.80638885  147.17100525    0.40000001    2.59999990
   14.80749989  154.45599365    0.40000001    2.59999990
   14.81083393  150.48800659    0.40000001    2.59999990
   14.81694412  150.48800659    0.40000001    2.59999990
   14.82111073  153.17399597    0.40000001    2.57999992
   14.82416630  144.36199951    0.40000001    2.57999992
   14.82750034  141.99800110    0.40000001    2.59999990
   14.83083344  141.35499573    0.38000000    2.59999990
   14.83388901  144.20799255    0.38000000    2.59999990
   14.83722210  144.25100708    0.40000001    2.59999990
   14.83972168  140.19999695    0.38000000    2.59999990
   14.84083271  126.35299683    0.38000000    2.59999990
   14.84416676  136.98399353    0.40000001    2.57999992
   14.84749985  147.23100281    0.40000001    2.57999992
   14.85055637  140.50199890    0.40000001    2.59999990
   14.85388947  141.32600403    0.38000000    2.59999990
   14.85972214  141.32600403    0.36000001    2.59999990
   14.86388969  144.38699341    0.36000001    2.59999990
   14.86722279  149.89100647    0.34000000    2.59999990
   14.87027836  144.52600098    0.34000000    2.59999990
   14.87305546  146.63699341    0.34000000    2.59999990
   14.87388897  136.24400330    0.34000000    2.59999990
   14.87722206  139.75900269    0.34000000    2.59999990
   14.88055611  147.22900391    0.34000000    2.59999990
   14.88361073  150.06199646    0.36000001    2.59999990
   14.88694477  146.18400574    0.34000000    2.59999990
   14.89027786  142.79299927    0.34000000    2.59999990
   14.89361095  144.67900085    0.34000000    2.59999990
   14.89666653  140.05200195    0.34000000    2.59999990
   14.90249920  140.05200195    0.34000000    2.61999989
   14.90666676  137.58999634    0.31999999    2.59999990
   14.90999985  142.84199524    0.31999999    2.59999990
   14.91305542  144.62399292    0.31999999    2.61999989
   14.91638851  140.13299561    0.31999999    2.61999989
   14.91972256  137.42300415    0.31999999    2.61999989
   14.92277813  137.34599304    0.31999999    2.61999989
   14.92611122  138.57699585    0.31999999    2.59999990
   14.92972279  143.43600464    0.31999999    2.59999990
   14.93277836  141.54699707    0.34000000    2.61999989
   14.93638897  148.76699829    0.31999999    2.61999989
   14.93944454  144.53700256    0.31999999    2.61999989
   14.94000053  146.31799316    0.31999999    2.61999989
   14.94555569  146.31799316    0.31999999    2.61999989
   14.94944477  145.92799377    0.31999999    2.61999989
   14.95277786  143.75399780    0.31999999    2.59999990
   14.95611095  136.64300537    0.34000000    2.61999989
   14.95916653  139.27699280    0.31999999    2.59999990
   14.96249962  143.33399963    0.31999999    2.59999990
   14.96583271  140.19500732    0.34000000    2.61999989
   14.96888828  142.35299683    0.34000000    2.61999989
   14.97222137  143.44700623    0.31999999    2.61999989
   14.97333336  149.87300110    0.31999999    2.61999989
   14.97583294  140.50300598    0.31999999    2.59999990
   14.97916603  147.20500183    0.31999999    2.59999990
   14.98222160  144.22999573    0.31999999    2.61999989
   14.98833370  144.22999573    0.31999999    2.61999989
   14.99250031  140.54600525    0.31999999    2.61999989
   14.99555588  142.67199707    0.34000000    2.61999989
   14.99888897  142.16000366    0.34000000    2.61999989
   15.00222206  144.05000305    0.31999999    2.61999989
   15.00527763  146.46899414    0.31999999    2.61999989
   15.00666714  138.03100586    0.31999999    2.61999989
   15.00888920  140.76199341    0.31999999    2.61999989
   15.01222229  143.33399963    0.31999999    2.61999989
   15.01527786  144.96499634    0.31999999    2.61999989
   15.01861095  143.00500488    0.31999999    2.61999989
   15.02166653  135.73800659    0.30000001    2.61999989
   15.02499962  139.93400574    0.30000001    2.61999989
   15.03111076  139.93400574    0.31999999    2.59999990
   15.03527832  141.96800232    0.31999999    2.59999990
   15.03861141  143.03500366    0.31999999    2.59999990
   15.04000092  139.15600586    0.30000001    2.59999990
   15.04222298  135.89999390    0.30000001    2.59999990
   15.04555607  139.68899536    0.30000001    2.61999989
   15.04861164  143.56399536    0.30000001    2.59999990
   15.05194473  140.97999573    0.30000001    2.59999990
   15.05527782  141.18699646    0.30000001    2.61999989
   15.05833340  146.22900391    0.30000001    2.61999989
   15.06166649  144.99899292    0.30000001    2.61999989
   15.06472206  151.00199890    0.30000001    2.61999989
   15.06805515  149.53799438    0.30000001    2.61999989
   15.07388878  149.53799438    0.31999999    2.61999989
   15.07805538  140.01600647    0.31999999    2.61999989
   15.08138847  143.54600525    0.31999999    2.61999989
   15.08444405  141.94500732    0.31999999    2.61999989
   15.08777714  145.17599487    0.31999999    2.61999989
   15.09111118  137.63400269    0.31999999    2.61999989
   15.09416676  144.96400452    0.31999999    2.61999989
   15.09749985  139.05499268    0.30000001    2.61999989
   15.10083389  140.52900696    0.31999999    2.61999989
   15.10388947  140.66700745    0.31999999    2.61999989
   15.10666752  140.37199402    0.31999999    2.61999989
   15.10750008  139.44599915    0.31999999    2.61999989
   15.11083412  131.43499756    0.31999999    2.61999989
   15.11694431  131.43499756    0.31999999    2.61999989
   15.12111092  144.91299438    0.31999999    2.64000010
   15.12416649  136.62699890    0.31999999    2.64000010
   15.12750053  143.29299927    0.34000000    2.64000010
   15.13055611  145.11999512    0.34000000    2.61999989
   15.13388920  143.70100403    0.34000000    2.61999989
   15.13722229  124.58300018    0.31999999    2.61999989
   15.14027786  143.43699646    0.31999999    2.61999989
   15.14111137  138.97200012    0.31999999    2.61999989
   15.14444447  137.58299255    0.31999999    2.61999989
   15.14777756  150.84500122    0.31999999    2.61999989
   15.15083313  143.67399597    0.31999999    2.61999989
   15.15416622  142.06300354    0.31999999    2.61999989
   15.15972137  142.06300354    0.31999999    2.61999989
   15.16388893  149.32800293    0.34000000    2.61999989
   15.16694450  143.68899536    0.34000000    2.61999989
   15.17027855  139.27200317    0.34000000    2.61999989
   15.17361164  138.50599670    0.34000000    2.61999989
   15.17388916  139.13999939    0.31999999    2.61999989
   15.17722225  142.74000549    0.31999999    2.61999989
   15.18027782  141.36399841    0.31999999    2.61999989
   15.18361092  145.35299683    0.31999999    2.61999989
   15.18694496  144.99499512    0.31999999    2.61999989
   15.19000053  139.72399902    0.31999999    2.64000010
   15.19333363  138.02799988    0.31999999    2.64000010
   15.19666672  140.18400574    0.31999999    2.61999989
   15.20249939  140.18400574    0.34000000    2.61999989
   15.20666695  141.33799744    0.34000000    2.61999989
   15.20722198  140.27200317    0.34000000    2.61999989
   15.21055508  139.14599609    0.34000000    2.61999989
   15.21361065  143.13699341    0.36000001    2.61999989
   15.21694374  141.88499451    0.38000000    2.61999989
   15.21999931  140.66000366    0.36000001    2.61999989
   15.22333336  147.57800293    0.36000001    2.61999989
   15.22666645  134.36000061    0.38000000    2.61999989
   15.22972202  136.23699951    0.40000001    2.64000010
   15.23305511  140.50399780    0.41999999    2.61999989
   15.23638916  142.58799744    0.44000000    2.61999989
   15.23944473  133.98500061    0.44000000    2.61999989
   15.24055576  135.08299255    0.44000000    2.61999989
   15.24527836  135.08299255    0.47999999    2.61999989
   15.24944496  141.26300049    0.47999999    2.61999989
   15.25277805  141.46200562    0.47999999    2.61999989
   15.25583363  131.50999451    0.46000001    2.64000010
   15.25916672  139.41999817    0.44000000    2.61999989
   15.26249981  134.95700073    0.46000001    2.64000010
   15.26555538  137.50799561    0.44000000    2.61999989
   15.26888847  134.53900146    0.44000000    2.61999989
   15.27222157  140.75300598    0.44000000    2.61999989
   15.27388859  137.87800598    0.44000000    2.61999989
   15.27583313  139.77600098    0.41999999    2.64000010
   15.27888870  139.75999451    0.41999999    2.64000010
   15.28222179  139.77400208    0.41999999    2.64000010
   15.28833389  139.77400208    0.41999999    2.61999989
   15.29222298  139.62800598    0.40000001    2.64000010
   15.29555607  142.95399475    0.38000000    2.61999989
   15.29888916  145.21299744    0.36000001    2.61999989
   15.30194473  139.47399902    0.36000001    2.61999989
   15.30527782  146.25700378    0.36000001    2.61999989
   15.30722237  146.72399902    0.36000001    2.64000010
   15.30888939  135.08200073    0.36000001    2.64000010
   15.31194496  139.28199768    0.36000001    2.64000010
   15.31527805  140.11900330    0.38000000    2.64000010
   15.31861115  140.51400757    0.38000000    2.61999989
   15.32166672  140.67199707    0.38000000    2.61999989
   15.32499981  142.13600159    0.40000001    2.64000010
   15.33111095  142.13600159    0.44000000    2.61999989
   15.33527756  138.68400574    0.41999999    2.64000010
   15.33833313  138.44000244    0.38000000    2.64000010
   15.34055519  133.15499878    0.38000000    2.64000010
   15.34222221  128.78300476    0.38000000    2.64000010
   15.34527779  138.86199951    0.38000000    2.64000010
   15.34861088  133.64999390    0.38000000    2.61999989
   15.35194492  137.16400146    0.38000000    2.61999989
   15.35500050  138.89300537    0.36000001    2.61999989
   15.35833359  138.10000610    0.36000001    2.64000010
   15.36138916  137.13699341    0.36000001    2.64000010
   15.36472225  140.52900696    0.36000001    2.64000010
   15.36805534  137.68400574    0.36000001    2.64000010
   15.37388897  137.68400574    0.38000000    2.64000010
   15.37805557  135.10600281    0.36000001    2.64000010
   15.38138866  137.66000366    0.38000000    2.64000010
   15.38444424  139.19500732    0.38000000    2.64000010
   15.38777733  131.25500488    0.38000000    2.64000010
   15.39083290  138.13200378    0.38000000    2.64000010
   15.39416695  134.07499695    0.40000001    2.64000010
   15.39750004  139.59899902    0.40000001    2.64000010
   15.40083313  139.31799316    0.41999999    2.61999989
   15.40388870  137.49200439    0.40000001    2.61999989
   15.40722179  135.30900574    0.40000001    2.61999989
   15.40777779  138.59300232    0.40000001    2.61999989
   15.41083336  135.66299438    0.40000001    2.61999989
   15.41666698  135.66299438    0.41999999    2.64000010
   15.42083359  133.68600464    0.44000000    2.64000010
   15.42416668  131.88299561    0.44000000    2.64000010
   15.42722225  135.05599976    0.46000001    2.64000010
   15.43055630  136.73300171    0.46000001    2.64000010
   15.43388939  137.67799377    0.44000000    2.64000010
   15.43694496  141.32499695    0.41999999    2.64000010
   15.44027805  139.61000061    0.38000000    2.64000010
   15.44083309  138.61099243    0.38000000    2.64000010
   15.44416714  132.17100525    0.38000000    2.64000010
   15.44722271  144.32200623    0.40000001    2.61999989
   15.45055580  142.68899536    0.38000000    2.64000010
   15.45361137  137.36500549    0.38000000    2.61999989
   15.45972157  137.36500549    0.34000000    2.64000010
   15.46361065  138.84700012    0.34000000    2.64000010
   15.46694374  132.58500671    0.34000000    2.64000010
   15.47027779  133.35600281    0.31999999    2.64000010
   15.47333336  134.73399353    0.34000000    2.64000010
   15.47416592  139.54299927    0.34000000    2.64000010
   15.47722149  141.23599243    0.34000000    2.64000010
   15.48027706  135.64700317    0.34000000    2.64000010
   15.48361111  140.84100342    0.34000000    2.64000010
   15.48666668  136.30799866    0.34000000    2.64000010
   15.49000072  131.09700012    0.36000001    2.64000010
   15.49333382  137.68299866    0.38000000    2.64000010
   15.49638939  130.22900391    0.38000000    2.64000010
   15.50249958  130.22900391    0.38000000    2.61999989
   15.50666714  135.53599548    0.38000000    2.64000010
   15.50749969  139.15100098    0.38000000    2.64000010
   15.51055527  128.16000366    0.36000001    2.64000010
   15.51361084  134.95500183    0.36000001    2.64000010
   15.51722240  130.44299316    0.36000001    2.64000010
   15.52027798  135.15899658    0.36000001    2.64000010
   15.52361107  130.63099670    0.40000001    2.61999989
   15.52666664  139.16299438    0.40000001    2.61999989
   15.52999973  132.24699402    0.40000001    2.64000010
   15.53333378  133.07699585    0.41999999    2.64000010
   15.53638935  139.02799988    0.44000000    2.64000010
   15.53972244  133.04899597    0.44000000    2.64000010
   15.55666733  141.45100403    0.55000001    2.64000010
   15.56083393  141.45100403    0.64999998    2.64000010
   15.56500053  144.00900269    0.67000002    2.64000010
   15.56833363  136.31199646    0.67000002    2.64000010
   15.57166672  136.22500610    0.67000002    2.64000010
   15.57499981  141.23699951    0.69000000    2.61999989
   15.57833290  140.89300537    0.67000002    2.64000010
   15.58138847  135.06399536    0.64999998    2.64000010
   15.58472157  139.25300598    0.64999998    2.64000010
   15.58777714  142.30299377    0.58999997    2.64000010
   15.59000015  137.04600525    0.55000001    2.61999989
   15.59166622  136.10299683    0.55000001    2.61999989
   15.59499931  135.33399963    0.50000000    2.64000010
   15.59805489  136.03199768    0.46000001    2.64000010
   15.60388947  136.03199768    0.47999999    2.64000010
   15.60805607  138.43800354    0.46000001    2.64000010
   15.61111164  136.59800720    0.46000001    2.64000010
   15.61444473  129.03300476    0.41999999    2.64000010
   15.61750031  134.79299927    0.40000001    2.64000010
   15.62083340  139.06599426    0.40000001    2.64000010
   15.62333393  139.31700134    0.40000001    2.64000010
   15.62444496  133.50599670    0.40000001    2.64000010
   15.62750053  132.96299744    0.38000000    2.64000010
   15.63083363  135.38699341    0.36000001    2.64000010
   15.63416672  137.47799683    0.36000001    2.64000010
   15.63722229  138.45599365    0.38000000    2.64000010
   15.64055538  139.27600098    0.38000000    2.64000010
   15.64666653  139.27600098    0.36000001    2.64000010
   15.65083313  139.76199341    0.36000001    2.64000010
   15.65388870  143.74800110    0.36000001    2.64000010
   15.65666676  137.82099915    0.36000001    2.64000010
   15.65777779  135.43299866    0.36000001    2.64000010
   15.66111088  142.80299377    0.36000001    2.64000010
   15.66416645  135.25399780    0.36000001    2.64000010
   15.66750050  133.50000000    0.36000001    2.64000010
   15.67055607  134.67300415    0.36000001    2.64000010
   15.67388916  138.78700256    0.38000000    2.64000010
   15.67722225  136.82600403    0.41999999    2.64000010
   15.68027782  135.81500244    0.41999999    2.64000010
   15.68361092  135.38800049    0.40000001    2.64000010
   15.68944454  135.38800049    0.38000000    2.64000010
   15.69361115  134.50999451    0.30000001    2.64000010
   15.69694424  136.66799927    0.30000001    2.64000010
   15.69999981  136.88299561    0.31999999    2.64000010
   15.70333290  138.27200317    0.30000001    2.64000010
   15.70666695  132.93400574    0.31999999    2.66000009
   15.70972157  145.96800232    0.30000001    2.64000010
   15.71305561  133.80999756    0.30000001    2.64000010
   15.71611118  141.28399658    0.30000001    2.64000010
   15.71944427  141.09700012    0.30000001    2.64000010
   15.72277737  135.23800659    0.30000001    2.64000010
   15.72472191  143.07200623    0.30000001    2.64000010
   15.72638798  140.06799316    0.30000001    2.64000010
   15.73249912  140.06799316    0.28000000    2.66000009
   15.73666668  137.73100281    0.28000000    2.66000009
   15.73972225  141.31900024    0.28000000    2.64000010
   15.74305534  135.01400757    0.28000000    2.64000010
   15.74638939  132.56700134    0.28000000    2.66000009
   15.74972248  131.65299988    0.28000000    2.64000010
   15.75277805  129.96499634    0.28000000    2.66000009
   15.75611115  132.84700012    0.30000001    2.64000010
   15.75805569  134.97200012    0.30000001    2.64000010
   15.76000023  138.29699707    0.30000001    2.66000009
   15.76305580  134.73599243    0.30000001    2.66000009
   15.76638889  138.14100647    0.31999999    2.66000009
   15.76944447  133.35499573    0.30000001    2.64000010
   15.77527714  133.35499573    0.34000000    2.66000009
   15.77944374  138.69500732    0.36000001    2.64000010
   15.78277779  136.71600342    0.34000000    2.64000010
   15.78583336  138.06199646    0.34000000    2.64000010
   15.78916740  139.60499573    0.36000001    2.64000010
   15.79166698  134.44799805    0.34000000    2.64000010
   15.79277802  133.81700134    0.34000000    2.64000010
   15.79611111  137.85400391    0.34000000    2.64000010
   15.79944515  129.14799500    0.34000000    2.64000010
   15.80249977  138.18899536    0.31999999    2.66000009
   15.80583382  135.06399536    0.34000000    2.64000010
   15.80916691  129.34199524    0.36000001    2.64000010
   15.81222248  141.12300110    0.36000001    2.64000010
   15.81805515  141.12300110    0.36000001    2.64000010
   15.82222176  140.26699829    0.34000000    2.64000010
   15.82499981  132.88299561    0.34000000    2.64000010
   15.82611084  132.10899353    0.34000000    2.64000010
   15.82916641  134.17500305    0.34000000    2.64000010
   15.83222198  132.72399902    0.34000000    2.64000010
   15.83555508  135.83799744    0.36000001    2.64000010
   15.83888817  130.34500122    0.34000000    2.66000009
   15.84194374  131.74800110    0.34000000    2.66000009
   15.84527779  134.73500061    0.34000000    2.66000009
   15.84833336  133.01199341    0.36000001    2.64000010
   15.85166740  136.90699768    0.36000001    2.64000010
   15.85500050  138.28900146    0.36000001    2.64000010
   15.86083412  138.28900146    0.34000000    2.64000010
   15.86500072  136.74899292    0.30000001    2.66000009
   15.86833382  139.81900024    0.30000001    2.66000009
   15.87138939  138.36399841    0.30000001    2.66000009
   15.87472248  142.49299622    0.30000001    2.64000010
   15.87805557  133.30099487    0.30000001    2.66000009
   15.88111115  135.30799866    0.31999999    2.66000009
   15.88444424  134.11999512    0.31999999    2.64000010
   15.88777733  135.08500671    0.31999999    2.64000010
   15.89083290  137.94500732    0.31999999    2.64000010
   15.89194393  134.49499512    0.40000001    2.66000009
   15.89444447  136.08399963    0.40000001    2.66000009
   15.89777756  136.06900024    0.41999999    2.66000009
   15.90361118  136.06900024    0.69000000    2.64000010
   15.90777779  132.60000610    0.73000002    2.64000010
   15.91111088  133.21099854    0.64999998    2.64000010
   15.91444397  135.11300659    0.69000000    2.66000009
   15.91750050  129.38999939    0.69000000    2.66000009
   15.92083359  122.15299988    0.61000001    2.66000009
   15.92388916  132.74099731    0.51999998    2.66000009
   15.92500019  136.13400269    0.51999998    2.66000009
   15.92750072  138.66400146    0.51999998    2.66000009
   15.93083382  133.45899963    0.52999997    2.64000010
   15.93388939  137.63600159    0.56999999    2.64000010
   15.93722248  131.90199280    0.56999999    2.64000010
   15.94055557  138.77000427    0.56999999    2.64000010
   15.94666672  138.77000427    0.58999997    2.64000010
   15.95083332  133.31100464    0.56999999    2.64000010
   15.95388889  137.19599915    0.51999998    2.66000009
   15.95722198  135.82099915    0.51999998    2.66000009
   15.95861053  136.13000488    0.46000001    2.64000010
   15.96083355  135.30700684    0.46000001    2.64000010
   15.96416664  139.40100098    0.40000001    2.66000009
   15.96722221  142.34899902    0.44000000    2.64000010
   15.97055531  132.49699402    0.50000000    2.66000009
   15.97361088  137.26100159    0.50000000    2.66000009
   15.97694397  133.86999512    0.50000000    2.66000009
   15.98027706  135.08999634    0.50000000    2.66000009
   15.98333359  147.30200195    0.44000000    2.64000010
   15.98944473  147.30200195    0.41999999    2.64000010
   15.99361134  142.75100708    0.38000000    2.66000009
   15.99694443  140.77400208    0.40000001    2.66000009
   16.00027847  141.24600220    0.36000001    2.66000009
   16.00333405  134.31500244    0.36000001    2.66000009
   16.00666618  140.52699280    0.31999999    2.64000010
   16.00972176  135.26800537    0.31999999    2.64000010
   16.01305580  138.08700562    0.30000001    2.64000010
   16.01638794  142.95100403    0.30000001    2.66000009
   16.01944351  141.57299805    0.28000000    2.66000009
   16.02277756  131.16099548    0.28000000    2.66000009
   16.02555466  136.97300720    0.30000001    2.66000009
   16.02638817  137.84199524    0.30000001    2.66000009
   16.03249931  137.84199524    0.36000001    2.64000010
   16.03666687  138.35299683    0.34000000    2.66000009
   16.03972244  134.62100220    0.36000001    2.66000009
   16.04305458  140.98399353    0.38000000    2.64000010
   16.04611015  131.92599487    0.38000000    2.64000010
   16.04944420  135.35800171    0.38000000    2.64000010
   16.05277634  134.64599609    0.36000001    2.64000010
   16.05583191  135.04899597    0.38000000    2.66000009
   16.05888748  138.65600586    0.36000001    2.66000009
   16.05944443  132.88499451    0.36000001    2.66000009
   16.06277657  136.80099487    0.38000000    2.66000009
   16.06611061  131.79699707    0.34000000    2.66000009
   16.06916809  136.05400085    0.34000000    2.66000009
   16.07527924  136.05400085    0.36000001    2.66000009
   16.07944489  139.95399475    0.34000000    2.66000009
   16.08250046  136.30599976    0.34000000    2.66000009
   16.08583450  136.67799377    0.38000000    2.66000009
   16.08889008  135.74099731    0.40000001    2.66000009
   16.09194565  137.53799438    0.44000000    2.66000009
   16.09250069  134.97300720    0.44000000    2.66000009
   16.09583473  137.73399353    0.46000001    2.66000009
   16.09889030  137.34700012    0.46000001    2.66000009
   16.10222244  134.96000671    0.46000001    2.66000009
   16.10527802  140.51800537    0.46000001    2.66000009
   16.10861206  137.03999329    0.46000001    2.66000009
   16.11194420  139.42500305    0.46000001    2.66000009
   16.11805534  139.42500305    0.50000000    2.66000009
   16.12222290  134.61099243    0.44000000    2.66000009
   16.12527847  137.10099792    0.38000000    2.66000009
   16.12583351  137.14900208    0.38000000    2.66000009
   16.12916756  141.90100098    0.36000001    2.64000010
   16.13222313  138.39799500    0.36000001    2.64000010
   16.13555527  137.34199524    0.36000001    2.64000010
   16.13888931  143.88699341    0.31999999    2.66000009
   16.14194489  143.35299683    0.30000001    2.66000009
   16.14527702  139.34300232    0.30000001    2.66000009
   16.14833260  141.12500000    0.30000001    2.66000009
   16.15166664  145.37800598    0.30000001    2.66000009
   16.15499878  136.58700562    0.30000001    2.66000009
   16.16083336  136.58700562    0.30000001    2.66000009
   16.16499901  140.79699707    0.31999999    2.66000009
   16.16805458  140.00700378    0.31999999    2.66000009
   16.17138863  137.76899719    0.31999999    2.66000009
   16.17472076  132.14799500    0.31999999    2.66000009
   16.17805481  138.07899475    0.30000001    2.66000009
   16.18111038  138.14500427    0.31999999    2.66000009
   16.18444443  136.81300354    0.31999999    2.66000009
   16.18750000  136.26199341    0.31999999    2.66000009
   16.19083214  132.77000427    0.31999999    2.66000009
   16.19194412  145.81900024    0.31999999    2.66000009
   16.19444275  130.29699707    0.31999999    2.66000009
   16.19777679  141.52799988    0.31999999    2.66000009
   16.20361137  141.52799988    0.34000000    2.64000010
   16.20777893  139.77999878    0.34000000    2.67000008
   16.21111107  139.94900513    0.34000000    2.66000009
   16.21416664  134.31300354    0.34000000    2.66000009
   16.21750069  139.72999573    0.31999999    2.64000010
   16.22083473  139.38099670    0.34000000    2.66000009
   16.22389030  137.42799377    0.30000001    2.66000009
   16.22527885  139.51899719    0.30000001    2.66000009
   16.22750092  139.26300049    0.28000000    2.66000009
   16.23083305  142.97700500    0.28000000    2.66000009
   16.23388863  139.22099304    0.28000000    2.66000009
   16.23722267  141.78799438    0.28000000    2.66000009
   16.24055672  141.05599976    0.28000000    2.66000009
   16.24638939  141.05599976    0.28000000    2.66000009
   16.25055504  142.71899414    0.28000000    2.66000009
   16.25388908  135.93899536    0.30000001    2.66000009
   16.25722313  141.64700317    0.30000001    2.66000009
   16.25888824  144.22599792    0.30000001    2.67000008
   16.26083374  137.48699951    0.30000001    2.67000008
   16.26388931  134.43499756    0.31999999    2.66000009
   16.26722145  140.42199707    0.31999999    2.66000009
   16.27055550  140.01499939    0.31999999    2.66000009
   16.27361107  136.56599426    0.31999999    2.66000009
   16.27694511  137.43200684    0.34000000    2.66000009
   16.28027725  134.92900085    0.36000001    2.66000009
   16.28333282  136.67799377    0.34000000    2.66000009
   16.28944397  136.67799377    0.34000000    2.66000009
   16.29361153  132.23399353    0.34000000    2.67000008
   16.29666710  142.12100220    0.34000000    2.67000008
   16.29999924  143.10499573    0.31999999    2.66000009
   16.30305481  140.56500244    0.31999999    2.66000009
   16.30638885  137.39900208    0.30000001    2.66000009
   16.30972099  137.23199463    0.31999999    2.66000009
   16.31277657  139.16799927    0.40000001    2.66000009
   16.31611061  141.13299561    0.40000001    2.66000009
   16.31944466  134.28100586    0.30000001    2.66000009
   16.32250023  136.81100464    0.30000001    2.66000009
   16.32555580  138.97900391    0.30000001    2.66000009
   16.32638931  138.90699768    0.36000001    2.66000009
   16.33222389  138.90699768    0.38000000    2.66000009
   16.33638954  138.44299316    0.36000001    2.66000009
   16.33944511  132.70500183    0.38000000    2.66000009
   16.34277916  137.37199402    0.41999999    2.66000009
   16.34611130  135.16799927    0.41999999    2.66000009
   16.34916687  131.52200317    0.41999999    2.66000009
   16.35250092  136.58000183    0.46000001    2.66000009
   16.35583305  134.05999756    0.41999999    2.67000008
   16.35888863  135.18800354    0.46000001    2.64000010
   16.35944557  135.72399902    0.46000001    2.64000010
   16.36250114  132.59899902    0.47999999    2.66000009
   16.36583328  129.94700623    0.50000000    2.66000009
   16.36916733  135.45100403    0.47999999    2.66000009
   16.37500000  135.45100403    0.50000000    2.66000009
   16.37916756  135.25599670    0.47999999    2.66000009
   16.38249969  133.87399292    0.41999999    2.66000009
   16.38555527  141.48399353    0.36000001    2.66000009
   16.38888931  137.46200562    0.31999999    2.67000008
   16.39222145  134.58500671    0.31999999    2.67000008
   16.39277840  134.34500122    0.31999999    2.67000008
   16.39583397  139.90199280    0.31999999    2.67000008
   16.39916611  139.94299316    0.31999999    2.66000009
   16.40222168  134.02699280    0.34000000    2.66000009
   16.40555573  133.19500732    0.38000000    2.66000009
   16.40888786  134.64900208    0.36000001    2.66000009
   16.41222191  129.69200134    0.31999999    2.66000009
   16.41777802  129.69200134    0.31999999    2.66000009
   16.42194366  134.62100220    0.31999999    2.66000009
   16.42527771  135.86700439    0.31999999    2.67000008
   16.42611122  129.34899902    0.31999999    2.67000008
   16.42888832  136.88400269    0.31999999    2.67000008
   16.43222237  131.40299988    0.28000000    2.66000009
   16.43527603  132.09100342    0.30000001    2.67000008
   16.43861008  131.96600342    0.30000001    2.66000009
   16.44194412  132.53599548    0.30000001    2.66000009
   16.44499969  135.70500183    0.28000000    2.66000009
   16.44833183  129.69900513    0.28000000    2.66000009
   16.45166779  129.24800110    0.30000001    2.66000009
   16.45472336  139.89100647    0.30000001    2.66000009
   16.46083450  139.89100647    0.31999999    2.66000009
   16.46500015  130.53900146    0.31999999    2.66000009
   16.46805573  128.01300049    0.30000001    2.67000008
   16.47138977  135.50199890    0.30000001    2.66000009
   16.47444534  138.95799255    0.30000001    2.66000009
   16.47777748  135.31900024    0.31999999    2.66000009
   16.48111153  139.82400513    0.34000000    2.66000009
   16.48416710  139.10899353    0.34000000    2.66000009
   16.48750114  133.87399292    0.31999999    2.66000009
   16.49083328  136.69700623    0.34000000    2.66000009
   16.49277878  139.00199890    0.34000000    2.66000009
   16.49416733  135.58799744    0.34000000    2.66000009
   16.49749947  134.38000488    0.34000000    2.67000008
   16.50361061  134.38000488    0.34000000    2.66000009
   16.50777817  127.48899841    0.34000000    2.66000009
   16.51111031  136.02299500    0.34000000    2.66000009
   16.51416588  134.46899414    0.36000001    2.66000009
   16.51749992  126.54699707    0.38000000    2.66000009
   16.52055550  134.11700439    0.40000001    2.66000009
   16.52388954  141.35499573    0.40000001    2.66000009
   16.52611160  133.49800110    0.40000001    2.66000009
   16.52750015  139.19900513    0.40000001    2.66000009
   16.53083229  134.75300598    0.40000001    2.66000009
   16.53416634  133.62800598    0.40000001    2.66000009
   16.53722191  139.92300415    0.40000001    2.66000009
   16.54055595  136.39799500    0.40000001    2.66000009
   16.54638863  136.39799500    0.38000000    2.66000009
   16.55055428  138.90400696    0.38000000    2.66000009
   16.55388832  132.80299377    0.36000001    2.66000009
   16.55694389  139.35099792    0.31999999    2.66000009
   16.57416725  135.74299622    0.30000001    2.66000009
   16.57694626  132.97200012    0.30000001    2.66000009
   16.58027840  130.40100098    0.30000001    2.66000009
   16.58361244  131.15299988    0.30000001    2.66000009
   16.58944511  131.15299988    0.28000000    2.66000009
   16.59361267  134.08200073    0.28000000    2.66000009
   16.59694481  138.46600342    0.28000000    2.66000009
   16.60000038  133.59700012    0.28000000    2.66000009
   16.60333443  135.54899597    0.28000000    2.66000009
   16.60666656  136.71299744    0.28000000    2.66000009
   16.60722351  131.59399414    0.28000000    2.66000009
   16.61027908  135.16299438    0.25999999    2.66000009
   16.61361122  136.81500244    0.25999999    2.66000009
   16.61666679  132.88200378    0.28000000    2.67000008
   16.62000084  127.59899902    0.25999999    2.66000009
   16.62305641  139.28599548    0.25999999    2.66000009
   16.62638855  133.62600708    0.28000000    2.67000008
   16.63222313  133.62600708    0.36000001    2.67000008
   16.63638878  131.31599426    0.38000000    2.66000009
   16.63972282  137.21000671    0.36000001    2.67000008
   16.64055634  133.70500183    0.36000001    2.67000008
   16.64333344  136.26699829    0.30000001    2.66000009
   16.64666748  135.92500305    0.25999999    2.66000009
   16.64972115  129.73100281    0.25999999    2.66000009
   16.65305519  142.05599976    0.28000000    2.66000009
   16.65638924  136.81900024    0.28000000    2.66000009
   16.65944481  138.46400452    0.28000000    2.66000009
   16.66277695  120.27999878    0.28000000    2.66000009
   16.66583252  133.13900757    0.28000000    2.66000009
   16.66916656  133.37199402    0.28000000    2.67000008
   16.67527771  133.37199402    0.28000000    2.66000009
   16.67944336  136.04499817    0.28000000    2.66000009
   16.68249893  133.32099915    0.30000001    2.66000009
   16.68583298  129.75399780    0.30000001    2.66000009
   16.68888855  131.71600342    0.30000001    2.66000009
   16.69222069  133.85299683    0.30000001    2.66000009
   16.69555473  127.26999664    0.30000001    2.66000009
   16.69861031  133.95899963    0.28000000    2.66000009
   16.70194435  132.92900085    0.28000000    2.66000009
   16.70527840  133.25100708    0.28000000    2.66000009
   16.70722389  134.91999817    0.30000001    2.67000008
   16.70888901  135.49099731    0.30000001    2.67000008
   16.71222305  131.61700439    0.28000000    2.66000009
   16.71805573  131.61700439    0.30000001    2.66000009
   16.72222328  134.60699463    0.30000001    2.66000009
   16.72527885  136.08799744    0.30000001    2.66000009
   16.72861099  136.81199646    0.30000001    2.66000009
   16.73194504  139.54800415    0.30000001    2.67000008
   16.73500061  137.49499512    0.28000000    2.66000009
   16.73833275  138.41400146    0.25999999    2.67000008
   16.74055672  140.95300293    0.25999999    2.66000009
   16.74194527  139.91299438    0.25999999    2.66000009
   16.74527740  136.67999268    0.25999999    2.66000009
   16.74833298  130.76199341    0.25999999    2.66000009
   16.75166702  137.30799866    0.25999999    2.66000009
   16.75499916  135.98599243    0.25999999    2.66000009
   16.76083374  135.98599243    0.25999999    2.66000009
   16.76499939  134.64199829    0.25999999    2.66000009
   16.76833344  133.92199707    0.25999999    2.66000009
   16.77138901  136.96200562    0.25999999    2.67000008
   16.77388954  131.76300049    0.25999999    2.67000008
   16.77527809  133.13000488    0.25999999    2.66000009
   16.77861023  134.18400574    0.25999999    2.66000009
   16.78166580  137.68899536    0.28000000    2.67000008
   16.78499985  134.07899475    0.25999999    2.66000009
   16.78833199  138.73100281    0.25999999    2.66000009
   16.79166603  140.55200195    0.28000000    2.66000009
   16.79472160  134.49899292    0.28000000    2.67000008
   16.79805565  138.98699951    0.28000000    2.66000009
   16.80360985  138.98699951    0.28000000    2.66000009
   16.80777740  139.98300171    0.25999999    2.67000008
   16.81110954  133.97399902    0.28000000    2.66000009
   16.81444359  135.90400696    0.28000000    2.66000009
   16.81750107  133.01499939    0.28000000    2.66000009
   16.82083511  137.08599854    0.28000000    2.66000009
   16.82389069  140.60000610    0.28000000    2.66000009
   16.82722282  132.10200500    0.30000001    2.67000008
   16.83055687  133.57299805    0.30000001    2.66000009
   16.83361244  129.84700012    0.31999999    2.66000009
   16.83694458  135.96899414    0.31999999    2.66000009
   16.84027863  125.88999939    0.31999999    2.66000009
   16.84055710  127.65599823    0.31999999    2.66000009
   16.84666824  127.65599823    0.34000000    2.67000008
   16.85083389  138.18800354    0.36000001    2.66000009
   16.85388947  135.48399353    0.36000001    2.66000009
   16.85722351  132.43499756    0.34000000    2.66000009
   16.86055565  134.46099854    0.31999999    2.66000009
   16.86361122  129.10800171    0.31999999    2.66000009
   16.86694527  138.04200745    0.34000000    2.66000009
   16.87000084  138.43699646    0.34000000    2.66000009
   16.87333298  134.59700012    0.34000000    2.66000009
   16.87416649  136.56700134    0.34000000    2.66000009
   16.87694550  126.56400299    0.36000001    2.67000008
   16.88027763  131.91999817    0.36000001    2.66000009
   16.88333321  137.57000732    0.36000001    2.66000009
   16.88944435  137.57000732    0.38000000    2.67000008
   16.89361191  134.36500549    0.38000000    2.66000009
   16.89694405  132.44799805    0.34000000    2.66000009
   16.89999962  136.34300232    0.36000001    2.66000009
   16.90333366  135.67700195    0.40000001    2.66000009
   16.90638924  130.66600037    0.40000001    2.66000009
   16.90749931  134.05299377    0.41999999    2.66000009
   16.90999985  133.93299866    0.41999999    2.66000009
   16.91333389  135.72099304    0.44000000    2.66000009
   16.91666603  134.82099915    0.44000000    2.66000009
   16.91972160  137.98500061    0.46000001    2.66000009
   16.92305565  136.93400574    0.61000001    2.66000009
   16.92611122  130.40800476    0.61000001    2.66000009
   16.93222237  130.40800476    0.64999998    2.66000009
   16.93638802  133.37600708    0.63000000    2.66000009
   16.93972206  136.37300110    0.40000001    2.67000008
   16.94083214  138.27400208    0.40000001    2.66000009
   16.94333267  140.34199524    0.40000001    2.66000009
   16.94666672  133.51300049    0.40000001    2.66000009
   16.95000076  134.48199463    0.40000001    2.66000009
   16.95305634  136.68699646    0.40000001    2.64000010
   16.95639038  134.13400269    0.40000001    2.64000010
   16.95944595  131.68600464    0.41999999    2.66000009
   16.96277809  132.16400146    0.34000000    2.66000009
   16.96611214  142.04699707    0.31999999    2.66000009
   16.96916771  137.11700439    0.34000000    2.66000009
   16.97500038  137.11700439    0.36000001    2.67000008
   16.97916794  132.72799683    0.36000001    2.67000008
   16.98250008  141.66099548    0.36000001    2.67000008
   16.98583412  137.63499451    0.34000000    2.66000009
   16.98888969  135.98599243    0.36000001    2.66000009
   16.99222183  137.59800720    0.36000001    2.66000009
   16.99527740  128.98300171    0.36000001    2.66000009
   16.99861145  140.05599976    0.36000001    2.66000009
   17.00194359  131.22399902    0.36000001    2.66000009
   17.00499916  138.24899292    0.36000001    2.66000009
   17.00749969  134.13299561    0.36000001    2.66000009
   17.00861168  129.84199524    0.36000001    2.66000009
   17.01194382  136.85699463    0.36000001    2.66000009
   17.01805496  136.85699463    0.31999999    2.66000009
   17.02222252  132.53599548    0.31999999    2.67000008
   17.02527809  132.86999512    0.31999999    2.66000009
   17.02861023  137.79899597    0.31999999    2.66000009
   17.03194427  128.69999695    0.31999999    2.66000009
   17.03499985  133.64700317    0.31999999    2.67000008
   17.03833199  132.10400391    0.34000000    2.66000009
   17.04083252  136.00399780    0.36000001    2.66000009
   17.04194450  137.99800110    0.36000001    2.66000009
   17.04527664  133.36700439    0.36000001    2.66000009
   17.04861069  140.60400391    0.38000000    2.66000009
   17.05166626  138.93200684    0.38000000    2.66000009
   17.05499840  139.14900208    0.38000000    2.66000009
   17.06083298  139.14900208    0.46000001    2.66000009
   17.06499863  141.66900635    0.47999999    2.66000009
   17.06805611  141.24400330    0.51999998    2.66000009
   17.07139015  137.54299927    0.51999998    2.66000009
   17.07416725  135.83299255    0.51999998    2.66000009
   17.07500076  136.13299561    0.50000000    2.66000009
   17.07833481  137.23800659    0.50000000    2.66000009
   17.08166695  132.68800354    0.51999998    2.66000009
   17.08472252  133.25599670    0.51999998    2.66000009
   17.08805656  137.60600281    0.51999998    2.66000009
   17.09111214  133.82099915    0.50000000    2.66000009
   17.09444427  138.88800049    0.58999997    2.66000009
   17.09777832  139.44299316    0.63000000    2.66000009
   17.10361099  139.44299316    0.73000002    2.66000009
   17.10777855  131.44200134    0.83999997    2.64000010
   17.11111069  142.40699768    0.79000002    2.64000010
   17.11416626  133.96899414    0.70999998    2.64000010
   17.11750031  138.24499512    0.70999998    2.64000010
   17.12083435  138.91499329    0.58999997    2.67000008
   17.12388992  138.99899292    0.47999999    2.66000009
   17.12722206  138.50700378    0.40000001    2.66000009
   17.13055611  140.59599304    0.40000001    2.66000009
   17.13361168  124.04000092    0.38000000    2.66000009
   17.13694382  139.54499817    0.38000000    2.66000009
   17.13999939  137.85699463    0.38000000    2.66000009
   17.14083290  135.53799438    0.38000000    2.66000009
   17.14638901  135.53799438    0.38000000    2.67000008
   17.15055466  128.06500244    0.40000001    2.66000009
   17.15388870  134.70899963    0.44000000    2.66000009
   17.15694427  131.58299255    0.46000001    2.66000009
   17.16027832  140.61300659    0.46000001    2.66000009
   17.16361046  136.80700684    0.41999999    2.67000008
   17.16666603  132.77200317    0.38000000    2.66000009
   17.17000008  133.53399658    0.34000000    2.66000009
   17.17333221  135.95500183    0.36000001    2.66000009
   17.17416573  137.32600403    0.36000001    2.66000009
   17.17722130  135.24299622    0.34000000    2.66000009
   17.18055534  135.22099304    0.31999999    2.66000009
   17.18361092  136.02000427    0.31999999    2.66000009
   17.18944359  136.02000427    0.31999999    2.67000008
   17.19333267  138.58200073    0.31999999    2.66000009
   17.19666672  131.31599426    0.31999999    2.66000009
   17.20000076  133.10299683    0.30000001    2.66000009
   17.20305634  132.06199646    0.30000001    2.66000009
   17.20639038  134.69000244    0.30000001    2.66000009
   17.20750046  136.00700378    0.30000001    2.66000009
   17.21000099  139.53100586    0.30000001    2.66000009
   17.21333504  136.11700439    0.28000000    2.66000009
   17.21666718  137.93400574    0.28000000    2.66000009
   17.21972275  133.49000549    0.28000000    2.66000009
   17.22305679  132.41999817    0.30000001    2.66000009
   17.22638893  137.97799683    0.30000001    2.66000009
   17.23222351  137.97799683    0.30000001    2.66000009
   17.23638916  140.06399536    0.30000001    2.66000009
   17.23944473  136.28900146    0.30000001    2.66000009
   17.24083328  136.04299927    0.30000001    2.66000009
   17.24305534  140.62199402    0.36000001    2.66000009
   17.24638939  139.52999878    0.36000001    2.66000009
   17.24972153  136.08799744    0.46000001    2.66000009
   17.25277710  135.03999329    0.69000000    2.66000009
   17.25611115  139.34800720    0.70999998    2.66000009
   17.25944519  144.03999329    0.58999997    2.66000009
   17.26250076  144.38099670    0.51999998    2.66000009
   17.26583290  137.28999329    0.47999999    2.66000009
   17.26888847  141.31399536    0.47999999    2.66000009
   17.27499962  141.31399536    0.56999999    2.66000009
   17.27916718  141.58700562    0.56999999    2.66000009
   17.28249931  140.96899414    0.50000000    2.66000009
   17.28555489  141.30000305    0.46000001    2.66000009
   17.28888893  133.39199829    0.41999999    2.66000009
   17.29194450  141.05900574    0.41999999    2.66000009
   17.29527664  136.46400452    0.40000001    2.64000010
   17.29861069  140.40199280    0.38000000    2.66000009
   17.30166626  141.04899597    0.38000000    2.66000009
   17.30499840  141.81300354    0.36000001    2.66000009
   17.30749893  142.60499573    0.34000000    2.66000009
   17.30861092  135.41900635    0.36000001    2.66000009
   17.31194305  137.60099792    0.31999999    2.66000009
   17.31777954  137.60099792    0.31999999    2.66000009
   17.32194519  145.36199951    0.31999999    2.66000009
   17.32527924  142.60899353    0.31999999    2.66000009
   17.32833481  144.02299500    0.30000001    2.66000009
   17.33166695  140.56700134    0.30000001    2.67000008
   17.33500099  143.56599426    0.30000001    2.66000009
   17.33805656  142.67700195    0.30000001    2.66000009
   17.34083366  142.51600647    0.30000001    2.64000010
   17.34166718  140.76100159    0.30000001    2.66000009
   17.34500122  140.12699890    0.30000001    2.67000008
   17.34833336  139.83700562    0.30000001    2.64000010
   17.35138893  139.82699585    0.30000001    2.66000009
   17.35472298  140.67599487    0.30000001    2.66000009
   17.36083412  140.67599487    0.31999999    2.66000009
   17.36472321  141.73800659    0.31999999    2.66000009
   17.36805534  139.01600647    0.31999999    2.66000009
   17.37138939  137.72099304    0.31999999    2.66000009
   17.37416649  141.59700012    0.31999999    2.66000009
   17.37472153  139.13499451    0.31999999    2.66000009
   17.37805557  145.63699341    0.31999999    2.66000009
   17.38138962  144.44299316    0.31999999    2.66000009
   17.38444519  143.60400391    0.31999999    2.66000009
   17.38777733  140.79499817    0.31999999    2.66000009
   17.39111137  135.42900085    0.31999999    2.66000009
   17.39416695  142.42500305    0.31999999    2.66000009
   17.39749908  139.46699524    0.31999999    2.66000009
   17.40361023  139.46699524    0.31999999    2.67000008
   17.40777779  137.95300293    0.31999999    2.66000009
   17.41083336  145.54400635    0.31999999    2.66000009
   17.41416550  130.62899780    0.34000000    2.67000008
   17.41749954  133.46200562    0.34000000    2.66000009
   17.42055511  139.22099304    0.34000000    2.64000010
   17.42388916  145.38600159    0.34000000    2.66000009
   17.42694473  131.69500732    0.34000000    2.66000009
   17.43027687  141.81599426    0.34000000    2.66000009
   17.43361092  138.15800476    0.34000000    2.66000009
   17.43666649  145.29400635    0.31999999    2.66000009
   17.43999863  143.43299866    0.31999999    2.66000009
   17.44083214  137.14700317    0.31999999    2.66000009
   17.44638824  137.14700317    0.31999999    2.66000009
   17.45055580  142.28199768    0.30000001    2.66000009
   17.45388985  138.59599304    0.30000001    2.66000009
   17.45694542  133.61599731    0.30000001    2.67000008
   17.46027946  144.58999634    0.30000001    2.66000009
   17.46361160  140.51400757    0.31999999    2.66000009
   17.46666718  135.76699829    0.31999999    2.66000009
   17.47000122  138.81399536    0.31999999    2.66000009
   17.47333336  137.56300354    0.31999999    2.64000010
   17.47416687  134.06399536    0.31999999    2.64000010
   17.47666740  135.93299866    0.34000000    2.64000010
   17.48000145  140.93400574    0.34000000    2.66000009
   17.48333359  137.62399292    0.34000000    2.66000009
   17.48916626  137.62399292    0.34000000    2.66000009
   17.49333382  140.62800598    0.34000000    2.66000009
   17.49666786  137.70199585    0.34000000    2.66000009
   17.49972153  139.30000305    0.34000000    2.66000009
   17.50305557  133.76400757    0.34000000    2.67000008
   17.50638962  141.72099304    0.34000000    2.66000009
   17.50749969  139.19000244    0.36000001    2.66000009
   17.50972176  135.94799805    0.36000001    2.66000009
   17.51305580  143.40699768    0.36000001    2.66000009
   17.51638794  140.36000061    0.38000000    2.67000008
   17.51944351  137.78799438    0.38000000    2.66000009
   17.52277756  144.02499390    0.36000001    2.66000009
   17.52611160  138.14700317    0.34000000    2.64000010
   17.53194427  138.14700317    0.34000000    2.64000010
   17.53610992  141.50999451    0.34000000    2.66000009
   17.53944397  145.71899414    0.34000000    2.66000009
   17.54083252  142.53100586    0.31999999    2.66000009
   17.54333305  143.34899902    0.34000000    2.66000009
   17.54638863  138.10099792    0.34000000    2.66000009
   17.54972076  143.10400391    0.34000000    2.66000009
   17.55277634  139.08399963    0.34000000    2.66000009
   17.55611038  138.88499451    0.34000000    2.66000009
   17.55944443  135.87399292    0.34000000    2.66000009
   17.56250000  141.26699829    0.34000000    2.66000009
   17.56583214  135.66900635    0.34000000    2.66000009
   17.56888962  135.19900513    0.34000000    2.66000009
   17.59138870  135.23800659    0.31999999    2.66000009
   17.59166718  134.32699585    0.31999999    2.66000009
   17.59500122  141.47500610    0.31999999    2.66000009
   17.59805679  134.45199585    0.31999999    2.66000009
   17.60138893  135.41700745    0.31999999    2.66000009
   17.60472298  143.50799561    0.31999999    2.66000009
   17.60750008  137.18899536    0.31999999    2.64000010
   17.60805511  140.98300171    0.31999999    2.64000010
   17.61138916  135.45500183    0.34000000    2.66000009
   17.61777878  135.45500183    0.34000000    2.66000009
   17.62194443  134.27299500    0.34000000    2.66000009
   17.62527847  131.34399414    0.34000000    2.66000009
   17.62833405  134.05000305    0.34000000    2.64000010
   17.63166618  139.15600586    0.36000001    2.64000010
   17.63500023  133.89399719    0.36000001    2.64000010
   17.63861084  134.92100525    0.00000000    0.00000000
   17.64083290  132.67799377    0.00000000    0.00000000
   17.64277840  141.61599731    0.00000000    0.00000000
   17.64638901  142.96000671    0.00000000    0.00000000
   17.65027809  139.25399780    0.00000000    0.00000000
   17.65416718  141.86399841    0.00000000    0.00000000
   17.66138840  141.86399841    0.00000000    0.00000000
   17.66555595  135.50000000    0.36000001    2.64000010
   17.66972160  137.75799561    0.36000001    2.64000010
   17.67277718  140.12199402    0.36000001    2.64000010
   17.67472076  141.51600647    0.36000001    2.64000010
   17.67694473  126.92199707    0.36000001    2.64000010
   17.68027687  135.01800537    0.36000001    2.64000010
   17.68361092  134.01600647    0.36000001    2.64000010
   17.68666649  137.29200745    0.36000001    2.64000010
   17.68999863  142.70399475    0.36000001    2.64000010
   17.69333267  136.91799927    0.38000000    2.66000009
   17.69638824  136.95399475    0.38000000    2.64000010
   17.69972038  137.43200684    0.38000000    2.64000010
   17.70388985  137.43200684    0.38000000    2.66000009
   17.70805550  132.23699951    0.38000000    2.66000009
   17.71111107  127.56400299    0.38000000    2.64000010
   17.71444511  139.86599731    0.38000000    2.64000010
   17.71750069  137.37300110    0.38000000    2.64000010
   17.72083473  139.77900696    0.38000000    2.66000009
   17.72416687  138.22799683    0.38000000    2.66000009
   17.72722244  140.50900269    0.40000001    2.64000010
   17.73055649  135.61199951    0.40000001    2.66000009
   17.73388863  136.19900513    0.40000001    2.64000010
   17.73694420  136.05099487    0.41999999    2.64000010
   17.74027824  137.85000610    0.41999999    2.64000010
   17.74083328  132.11300659    0.41999999    2.66000009
   17.74666786  132.11300659    0.40000001    2.64000010
   17.75083351  135.11199951    0.40000001    2.61999989
   17.75388908  135.68400574    0.36000001    2.64000010
   17.75722313  138.58299255    0.38000000    2.64000010
   17.76055527  138.96800232    0.38000000    2.64000010
   17.76361084  137.02900696    0.38000000    2.64000010
   17.76694489  133.77799988    0.38000000    2.64000010
   17.77027702  141.67100525    0.40000001    2.66000009
   17.77333260  139.59500122    0.40000001    2.64000010
   17.77416611  139.67100525    0.40000001    2.64000010
   17.77694511  133.52799988    0.40000001    2.64000010
   17.78027725  133.16099548    0.40000001    2.64000010
   17.78361130  134.11500549    0.40000001    2.64000010
   17.78944397  134.11500549    0.41999999    2.64000010
   17.79361153  129.48899841    0.44000000    2.64000010
   17.79694366  133.61599731    0.44000000    2.64000010
   17.79999924  145.88499451    0.44000000    2.64000010
   17.80333328  135.31300354    0.44000000    2.64000010
   17.80666542  138.28399658    0.46000001    2.64000010
   17.80749893  135.01300049    0.46000001    2.64000010
   17.80999947  138.51800537    0.47999999    2.64000010
   17.81333351  134.90299988    0.47999999    2.64000010
   17.81666756  142.11700439    0.50000000    2.64000010
   17.81972313  136.49499512    0.50000000    2.64000010
   17.82305717  140.82400513    0.50000000    2.64000010
   17.82638931  135.35200500    0.52999997    2.64000010
   17.83222389  135.35200500    0.63000000    2.64000010
   17.83638954  142.15199280    0.61000001    2.66000009
   17.83972359  136.86399841    0.61000001    2.64000010
   17.84083366  146.70899963    0.61000001    2.64000010
   17.84333420  140.73500061    0.61000001    2.64000010
   17.84666824  139.29100037    0.61000001    2.64000010
   17.85000038  144.44000244    0.61000001    2.64000010
   17.85305595  136.68699646    0.61000001    2.64000010
   17.85639000  143.58000183    0.61000001    2.64000010
   17.85972214  135.42500305    0.61000001    2.64000010
   17.86277771  139.61099243    0.58999997    2.64000010
   17.86611176  135.09899902    0.58999997    2.64000010
   17.86916733  140.49499512    0.58999997    2.64000010
   17.87527847  140.49499512    0.56999999    2.64000010
   17.87944412  142.36700439    0.56999999    2.64000010
   17.88249969  142.34399414    0.56999999    2.64000010
   17.88583374  142.49299622    0.56999999    2.64000010
   17.88888931  143.55299377    0.55000001    2.64000010
   17.89222145  137.18899536    0.55000001    2.64000010
   17.89555550  138.39199829    0.55000001    2.64000010
   17.89888954  133.35600281    0.55000001    2.64000010
   17.90194321  139.53199768    0.55000001    2.64000010
   17.90527725  136.02900696    0.55000001    2.64000010
   17.90749931  147.91600037    0.55000001    2.64000010
   17.90888786  138.78999329    0.56999999    2.64000010
   17.91194344  142.77799988    0.55000001    2.64000010
   17.91805458  142.77799988    0.52999997    2.64000010
   17.92222214  129.27000427    0.51999998    2.64000010
   17.92527771  137.74400330    0.47999999    2.64000010
   17.92860985  132.52699280    0.46000001    2.64000010
   17.93194389  144.99699402    0.44000000    2.64000010
   17.93499947  135.17100525    0.44000000    2.66000009
   17.93833160  140.20700073    0.44000000    2.64000010
   17.94083214  137.28500366    0.44000000    2.64000010
   17.94222069  141.08999634    0.46000001    2.64000010
   17.94527626  137.19799805    0.47999999    2.64000010
   17.94861031  141.73899841    0.47999999    2.64000010
   17.95166779  141.08000183    0.47999999    2.64000010
   17.95499992  143.28399658    0.50000000    2.64000010
   17.96083450  143.28399658    0.50000000    2.64000010
   17.96500015  143.34599304    0.50000000    2.64000010
   17.96833420  139.09700012    0.50000000    2.64000010
   17.97166634  146.05099487    0.46000001    2.64000010
   17.97416687  148.65499878    0.46000001    2.64000010
   17.97527885  145.08999634    0.44000000    2.64000010
   17.97833443  141.23199463    0.44000000    2.64000010
   17.98166656  145.39199829    0.44000000    2.64000010
   17.98472214  140.67700195    0.47999999    2.64000010
   17.98805618  146.21800232    0.47999999    2.64000010
   17.99138832  141.76800537    0.47999999    2.64000010
   17.99444389  146.36999512    0.47999999    2.64000010
   17.99777794  144.93400574    0.47999999    2.64000010
   18.00361061  144.93400574    0.50000000    2.64000010
   18.00777817  141.81599426    0.51999998    2.64000010
   18.01111031  140.29299927    0.51999998    2.64000010
   18.01444435  142.22900391    0.51999998    2.64000010
   18.01749992  145.63099670    0.55000001    2.64000010
   18.02083397  145.28599548    0.56999999    2.64000010
   18.02388954  142.54200745    0.58999997    2.64000010
   18.02722168  144.63299561    0.58999997    2.64000010
   18.03055573  135.29299927    0.56999999    2.64000010
   18.03388786  136.04699707    0.52999997    2.64000010
   18.03694344  141.16200256    0.52999997    2.64000010
   18.04027748  137.58099365    0.52999997    2.64000010
   18.04083252  142.39799500    0.55000001    2.64000010
   18.04666710  142.39799500    0.56999999    2.64000010
   18.05055428  139.38699341    0.58999997    2.64000010
   18.05388832  145.76699829    0.58999997    2.64000010
   18.05722237  143.21200562    0.58999997    2.64000010
   18.06027794  148.69700623    0.55000001    2.64000010
   18.06361008  139.36500549    0.55000001    2.64000010
   18.06694603  142.12300110    0.55000001    2.64000010
   18.07000160  142.53300476    0.55000001    2.64000010
   18.07333374  138.21699524    0.61000001    2.64000010
   18.07416725  143.83900452    0.61000001    2.64000010
   18.07722282  141.33700562    0.80000001    2.64000010
   18.08027840  136.27499390    0.81999999    2.64000010
   18.08361244  143.62500000    0.70999998    2.64000010
   18.08944511  143.62500000    0.67000002    2.64000010
   18.09361267  142.86700439    0.67000002    2.64000010
   18.09666824  141.47099304    0.64999998    2.64000010
   18.10000038  136.71499634    0.64999998    2.64000010
   18.10333443  137.02900696    0.63000000    2.64000010
   18.10639000  142.46299744    0.61000001    2.64000010
   18.10750008  143.35600281    0.61000001    2.64000010
   18.11027908  138.28999329    0.56999999    2.61999989
   18.11333466  139.83099365    0.63000000    2.64000010
   18.11666679  141.86199951    0.83999997    2.64000010
   18.11972237  137.60000610    1.01999998    2.61999989
   18.12305641  140.04200745    0.63000000    2.64000010
   18.12638855  147.88200378    0.56999999    2.64000010
   18.13222313  147.88200378    0.52999997    2.64000010
   18.13638878  142.54600525    0.52999997    2.64000010
   18.13972282  143.68899536    0.52999997    2.64000010
   18.14083290  139.05499268    0.50000000    2.64000010
   18.14333344  144.45100403    0.50000000    2.64000010
   18.14638901  137.47300720    0.47999999    2.64000010
   18.14972115  145.37399292    0.50000000    2.64000010
   18.15305519  140.52400208    0.50000000    2.64000010
   18.15611076  143.59300232    0.52999997    2.61999989
   18.15944481  141.55299377    0.52999997    2.61999989
   18.16277695  146.56300354    0.52999997    2.61999989
   18.16583252  139.10200500    0.52999997    2.64000010
   18.16916656  141.94799805    0.55000001    2.61999989
   18.17499924  141.94799805    0.64999998    2.61999989
   18.17916679  141.66200256    0.67000002    2.61999989
   18.18249893  144.54899597    0.70999998    2.64000010
   18.18583298  141.96800232    0.70999998    2.61999989
   18.18888855  146.05499268    0.73000002    2.61999989
   18.19222069  139.75300598    0.73000002    2.61999989
   18.19527626  140.26300049    0.75000000    2.61999989
   18.19861031  145.63800049    0.69000000    2.61999989
   18.20194435  144.16400146    0.69000000    2.61999989
   18.20499992  139.29800415    0.61000001    2.64000010
   18.20750046  142.22700500    0.61000001    2.64000010
   18.20888901  146.79499817    0.47999999    2.64000010
   18.21194458  140.39599609    0.47999999    2.64000010
   18.21805573  140.39599609    0.47999999    2.64000010
   18.22222328  145.09800720    0.50000000    2.61999989
   18.22527885  140.07899475    0.50000000    2.64000010
   18.22861099  145.52200317    0.50000000    2.64000010
   18.23194504  141.06100464    0.52999997    2.64000010
   18.23500061  140.78399658    0.50000000    2.64000010
   18.23833275  138.60600281    0.51999998    2.64000010
   18.24083328  140.61900330    0.51999998    2.61999989
   18.24194527  138.84199524    0.51999998    2.61999989
   18.24500084  136.78500366    0.51999998    2.61999989
   18.24833298  138.84300232    0.50000000    2.61999989
   18.25166702  141.06700134    0.50000000    2.64000010
   18.25472260  131.30299377    0.50000000    2.61999989
   18.26083374  131.30299377    0.52999997    2.61999989
   18.26499939  139.16799927    0.56999999    2.61999989
   18.26805496  140.27699280    0.56999999    2.61999989
   18.27138901  142.31700134    0.56999999    2.61999989
   18.27416611  143.16900635    0.56999999    2.64000010
   18.27499962  142.33000183    0.56999999    2.64000010
   18.27805519  140.67399597    0.55000001    2.61999989
   18.28138924  130.56900024    0.55000001    2.64000010
   18.28472137  140.97500610    0.55000001    2.61999989
   18.28777695  139.24200439    0.55000001    2.61999989
   18.29111099  136.40800476    0.55000001    2.61999989
   18.29416656  139.04400635    0.51999998    2.64000010
   18.29749870  136.23599243    0.50000000    2.61999989
   18.30360985  136.23599243    0.50000000    2.61999989
   18.30777740  138.18200684    0.50000000    2.61999989
   18.31110954  130.89300537    0.50000000    2.64000010
   18.31416512  142.59399414    0.47999999    2.59999990
   18.31750107  140.11399841    0.47999999    2.59999990
   18.32055664  134.26899719    0.50000000    2.61999989
   18.32389069  140.25599670    0.50000000    2.64000010
   18.32722282  137.17199707    0.50000000    2.61999989
   18.33027840  128.48899841    0.50000000    2.64000010
   18.33361244  138.31599426    0.50000000    2.61999989
   18.33694458  132.79100037    0.51999998    2.61999989
   18.34000015  143.62399292    0.51999998    2.61999989
   18.34083366  131.01300049    0.51999998    2.61999989
   18.34638977  131.01300049    0.51999998    2.61999989
   18.35055542  139.40800476    0.51999998    2.61999989
   18.35388947  141.53100586    0.51999998    2.61999989
   18.35694504  141.70700073    0.51999998    2.61999989
   18.36027908  134.30599976    0.51999998    2.61999989
   18.36361122  138.34599304    0.52999997    2.61999989
   18.36666679  131.29100037    0.52999997    2.61999989
   18.37000084  141.39599609    0.55000001    2.61999989
   18.37333298  133.71099854    0.55000001    2.61999989
   18.37416649  138.87800598    0.55000001    2.61999989
   18.37694550  136.77600098    0.55000001    2.61999989
   18.38027763  141.29100037    0.55000001    2.61999989
   18.38333321  132.08399963    0.55000001    2.61999989
   18.38944435  132.08399963    0.56999999    2.61999989
   18.39333344  137.18299866    0.56999999    2.61999989
   18.39666748  132.13200378    0.56999999    2.61999989
   18.39999962  137.28999329    0.56999999    2.61999989
   18.40305519  133.50300598    0.58999997    2.61999989
   18.40638924  134.31700134    0.58999997    2.61999989
   18.40749931  138.05099487    0.58999997    2.61999989
   18.40999985  133.64500427    0.58999997    2.61999989
   18.41305542  135.29200745    0.58999997    2.61999989
   18.41638756  140.59399414    0.58999997    2.61999989
   18.41972160  136.16600037    0.58999997    2.61999989
   18.42277718  137.22799683    0.58999997    2.61999989
   18.42611122  136.28199768    0.58999997    2.61999989
   18.43222237  136.28199768    0.58999997    2.61999989
   18.43638802  137.06100464    0.56999999    2.61999989
   18.43944359  141.13299561    0.56999999    2.61999989
   18.44083214  142.49600220    0.56999999    2.61999989
   18.44333267  136.86199951    0.55000001    2.61999989
   18.44638824  138.93400574    0.55000001    2.61999989
   18.44972038  136.33200073    0.55000001    2.64000010
   18.45305634  137.39300537    0.55000001    2.61999989
   18.45611191  137.74000549    0.55000001    2.61999989
   18.45944595  137.39999390    0.55000001    2.61999989
   18.46277809  134.89700317    0.55000001    2.61999989
   18.46583366  138.96299744    0.55000001    2.61999989
   18.46916771  132.19400024    0.55000001    2.61999989
   18.47500038  132.19400024    0.56999999    2.61999989
   18.47916794  138.38999939    0.56999999    2.61999989
   18.48250008  140.14399719    0.56999999    2.61999989
   18.48555565  132.43400574    0.56999999    2.61999989
   18.48888969  131.04299927    0.58999997    2.61999989
   18.49194527  141.59800720    0.58999997    2.61999989
   18.49527740  138.01400757    0.58999997    2.61999989
   18.49861145  136.78799438    0.58999997    2.61999989
   18.50166702  133.02900696    0.61000001    2.61999989
   18.50499916  129.01600647    0.64999998    2.61999989
   18.50777817  134.07200623    0.67000002    2.59999990
   18.50861168  136.91200256    0.67000002    2.59999990
   18.51194382  133.99000549    0.69000000    2.61999989
   18.51777840  133.99000549    0.73000002    2.61999989
   18.52277756  132.48100281    0.98000002    2.59999990
   18.52583313  130.63000488    0.92000002    2.59999990
   18.52916718  138.18400574    0.92000002    2.59999990
   18.53222275  134.60099792    0.81999999    2.61999989
   18.53555489  133.86599731    0.79000002    2.59999990
   18.53888893  136.43299866    0.67000002    2.61999989
   18.54083252  136.14100647    0.64999998    2.59999990
   18.54249954  137.47799683    0.64999998    2.59999990
   18.54583359  134.66600037    0.64999998    2.59999990
   18.54888916  141.97500610    0.64999998    2.61999989
   18.55222130  136.54400635    0.64999998    2.61999989
   18.55527687  141.03100586    0.64999998    2.61999989
   18.56083298  141.03100586    0.51999998    2.61999989
   18.56472206  138.18499756    0.50000000    2.61999989
   18.56805611  140.00999451    0.50000000    2.61999989
   18.57139015  130.96699524    0.51999998    2.61999989
   18.57416725  134.30599976    0.52999997    2.61999989
   18.57500076  135.04200745    0.52999997    2.61999989
   18.57805634  141.55700684    0.52999997    2.61999989
   18.58139038  138.52000427    0.56999999    2.61999989
   18.58472252  140.24299622    0.61000001    2.61999989
   18.58777809  138.19000244    0.58999997    2.61999989
   18.59111214  141.05599976    0.61000001    2.61999989
   18.61194420  141.05599976    0.63000000    2.59999990
   18.61611176  139.15199280    0.64999998    2.61999989
   18.61916733  141.11700439    0.56999999    2.61999989
   18.62249947  143.29499817    0.58999997    2.59999990
   18.62555504  143.59399414    0.61000001    2.61999989
   18.62888908  138.37500000    0.63000000    2.59999990
   18.63222313  140.59500122    0.67000002    2.61999989
   18.63527679  137.32200623    0.63000000    2.61999989
   18.63861084  130.72599792    0.63000000    2.61999989
   18.64194489  138.57800293    0.58999997    2.59999990
   18.64277840  140.75399780    0.58999997    2.59999990
   18.64555550  131.77900696    0.64999998    2.61999989
   18.64861107  125.21399689    0.61000001    2.61999989
   18.65472221  125.21399689    0.61000001    2.59999990
   18.65861130  135.28100586    0.61000001    2.61999989
   18.66194344  141.47599792    0.63000000    2.59999990
   18.66527748  132.08599854    0.63000000    2.59999990
   18.66833305  138.27699280    0.63000000    2.59999990
   18.67166519  139.48399353    0.70999998    2.59999990
   18.67499924  138.56500244    0.67000002    2.59999990
   18.67611122  140.38699341    0.67000002    2.59999990
   18.67833328  142.86300659    0.63000000    2.59999990
   18.68166542  138.76899719    0.61000001    2.59999990
   18.68499947  136.40400696    0.64999998    2.59999990
   18.68805504  138.49099731    0.64999998    2.59999990
   18.69138718  139.49000549    0.67000002    2.59999990
   18.69749832  139.49000549    0.64999998    2.59999990
   18.70166779  139.58399963    0.67000002    2.59999990
   18.70472336  140.33999634    0.61000001    2.59999990
   18.70805550  141.86799622    0.61000001    2.59999990
   18.70944595  137.93899536    0.64999998    2.59999990
   18.71166801  139.48100281    0.64999998    2.59999990
   18.71500015  136.42100525    0.61000001    2.59999990
   18.71805573  143.41900635    0.70999998    2.61999989
   18.72138977  141.28399658    0.70999998    2.59999990
   18.72444534  132.56599426    0.73000002    2.59999990
   18.72777748  134.06199646    0.73000002    2.59999990
   18.73111153  130.34500122    0.67000002    2.59999990
   18.73416710  132.98699951    0.67000002    2.59999990
   18.74027824  132.98699951    0.69000000    2.59999990
   18.74444389  136.93299866    0.69000000    2.59999990
   18.74777794  131.16900635    0.69000000    2.59999990
   18.75083351  135.86000061    0.70999998    2.57999992
   18.75416756  133.88299561    0.69000000    2.59999990
   18.75722313  132.36099243    0.67000002    2.59999990
   18.76055527  137.69099426    0.64999998    2.59999990
   18.76388931  137.78100586    0.64999998    2.59999990
   18.76694489  137.92199707    0.64999998    2.59999990
   18.77027702  139.06599426    0.63000000    2.59999990
   18.77361107  134.70100403    0.61000001    2.59999990
   18.77611160  132.94000244    0.61000001    2.59999990
   18.77722168  133.11000061    0.61000001    2.59999990
   18.78305435  133.11000061    0.64999998    2.59999990
   18.78722191  138.16200256    0.63000000    2.59999990
   18.79055595  134.49699402    0.63000000    2.59999990
   18.79361153  134.49000549    0.63000000    2.59999990
   18.79694366  141.47500610    0.63000000    2.59999990
   18.80027771  134.11300659    0.63000000    2.57999992
   18.80333328  139.00199890    0.64999998    2.57999992
   18.80666542  135.07499695    0.67000002    2.57999992
   18.80944443  135.01100159    0.67000002    2.59999990
   18.81027794  140.91400146    0.67000002    2.59999990
   18.81361008  133.88800049    0.67000002    2.59999990
   18.81666756  132.39599609    0.67000002    2.59999990
   18.82000160  139.51899719    0.64999998    2.59999990
   18.82611275  139.51899719    0.64999998    2.57999992
   18.83000183  138.67999268    0.64999998    2.57999992
   18.83333397  137.27499390    0.67000002    2.59999990
   18.83666801  138.74600220    0.64999998    2.59999990
   18.83972359  134.80000305    0.64999998    2.59999990
   18.84277916  136.96499634    0.63000000    2.57999992
   18.84361267  137.84700012    0.63000000    2.57999992
   18.84694481  138.73199463    0.63000000    2.57999992
   18.85000038  134.99800110    0.63000000    2.57999992
   18.85333443  139.94700623    0.64999998    2.59999990
   18.85666656  145.02299500    0.63000000    2.57999992
   18.85972214  134.84199524    0.61000001    2.59999990
   18.86305618  138.15199280    0.61000001    2.59999990
   18.86888885  138.15199280    0.58999997    2.57999992
   18.87305641  138.57200623    0.58999997    2.57999992
   18.87611198  139.73300171    0.56999999    2.59999990
   18.87666702  138.06700134    0.56999999    2.59999990
   18.88000107  141.60000610    0.56999999    2.57999992
   18.88305473  135.08299255    0.56999999    2.57999992
   18.88638878  136.74699402    0.56999999    2.59999990
   18.88972282  136.18400574    0.56999999    2.59999990
   18.89277840  131.95700073    0.55000001    2.59999990
   18.89611053  138.22599792    0.56999999    2.59999990
   18.89916611  139.59300232    0.58999997    2.59999990
   18.90250015  138.57400513    0.58999997    2.57999992
   18.90583229  136.56700134    0.58999997    2.57999992
   18.91166687  136.56700134    0.58999997    2.57999992
   18.91583252  139.73699951    0.58999997    2.57999992
   18.91916656  135.79699707    0.58999997    2.59999990
   18.92222214  136.95199585    0.58999997    2.57999992
   18.92555428  132.41499329    0.58999997    2.57999992
   18.92888832  137.08399963    0.58999997    2.57999992
   18.93194389  138.67199707    0.61000001    2.57999992
   18.93527603  133.11399841    0.61000001    2.59999990
   18.93861008  139.46400452    0.58999997    2.57999992
   18.94166565  136.28399658    0.58999997    2.57999992
   18.94305420  141.42500305    0.58999997    2.57999992
   18.94527626  144.74600220    0.58999997    2.57999992
   18.94861031  143.58000183    0.61000001    2.57999992
   18.95444489  143.58000183    0.61000001    2.57999992
   18.95861244  137.25199890    0.61000001    2.57999992
   18.96194458  140.75399780    0.61000001    2.57999992
   18.96527863  134.75700378    0.63000000    2.57999992
   18.96833420  138.28999329    0.63000000    2.59999990
   18.97166634  139.00799561    0.63000000    2.59999990
   18.97472191  135.00799561    0.64999998    2.55999994
   18.97638893  134.90100098    0.67000002    2.57999992
   18.97833443  129.82200623    0.67000002    2.57999992
   18.98166656  140.57000732    0.67000002    2.57999992
   18.98472214  133.37500000    0.67000002    2.57999992
   18.98805618  134.01899719    0.63000000    2.57999992
   18.99138832  135.35499573    0.63000000    2.57999992
   18.99749947  135.35499573    0.64999998    2.57999992
   19.00166702  137.01699829    0.69000000    2.57999992
   19.00499916  130.12199402    0.70999998    2.57999992
   19.00805473  141.30999756    0.70999998    2.57999992
   19.00972176  135.37699890    0.70999998    2.57999992
   19.01194382  136.18200684    0.69000000    2.55999994
   19.01499939  132.89300537    0.69000000    2.57999992
   19.01833344  139.96800232    0.69000000    2.57999992
   19.02166557  136.50399780    0.69000000    2.57999992
   19.02472115  140.17799377    0.64999998    2.57999992
   19.02805519  144.52600098    0.64999998    2.57999992
   19.03138924  139.01100159    0.64999998    2.55999994
   19.03444481  142.41000366    0.64999998    2.55999994
   19.04027748  142.41000366    0.67000002    2.57999992
   19.04444313  134.77900696    0.67000002    2.57999992
   19.04749870  134.79299927    0.67000002    2.57999992
   19.05083275  141.18299866    0.64999998    2.57999992
   19.05416679  140.84100342    0.64999998    2.57999992
   19.05722237  134.44000244    0.64999998    2.57999992
   19.06055450  139.71600342    0.64999998    2.57999992
   19.06361008  138.09700012    0.67000002    2.57999992
   19.06694603  139.55700684    0.67000002    2.57999992
   19.07027817  133.68699646    0.69000000    2.55999994
   19.07333374  137.41299438    0.69000000    2.55999994
   19.07638931  133.21200562    0.69000000    2.55999994
   19.07722282  136.64399719    0.69000000    2.55999994
   19.08305550  136.64399719    0.67000002    2.57999992
   19.08722305  141.10400391    0.63000000    2.55999994
   19.09027863  139.90299988    0.63000000    2.55999994
   19.09361267  145.35200500    0.63000000    2.55999994
   19.09694481  144.23899841    0.67000002    2.57999992
   19.10027885  142.69099426    0.69000000    2.57999992
   19.10333443  141.07200623    0.75000000    2.55999994
   19.10666656  139.19900513    0.70999998    2.57999992
   19.10972214  137.82699585    0.67000002    2.55999994
   19.11027908  136.35200500    0.67000002    2.55999994
   19.11333466  140.04899597    0.67000002    2.55999994
   19.11666679  139.61000061    0.67000002    2.55999994
   19.12000084  139.64399719    0.64999998    2.57999992
   19.12583351  139.64399719    0.61000001    2.57999992
   19.13000107  138.21699524    0.61000001    2.57999992
   19.13333321  134.83099365    0.63000000    2.55999994
   19.13638878  134.36999512    0.63000000    2.55999994
   19.13972282  135.08700562    0.63000000    2.55999994
   19.14305496  136.95599365    0.63000000    2.57999992
   19.14361191  140.70300293    0.63000000    2.57999992
   19.14666748  132.46299744    0.61000001    2.55999994
   19.14999962  139.80799866    0.61000001    2.55999994
   19.15305519  131.85800171    0.58999997    2.57999992
   19.15638924  133.64700317    0.58999997    2.55999994
   19.15972137  142.08700562    0.63000000    2.55999994
   19.16277695  137.15800476    0.63000000    2.55999994
   19.16860962  137.15800476    0.63000000    2.55999994
   19.17277718  141.22000122    0.69000000    2.55999994
   19.17611122  139.60600281    0.69000000    2.55999994
   19.17694473  141.49200439    0.58999997    2.57999992
   19.17972183  136.96400452    0.58999997    2.57999992
   19.18305397  133.20300293    0.55000001    2.55999994
   19.18638802  135.61000061    0.55000001    2.55999994
   19.18944359  140.84199524    0.58999997    2.55999994
   19.19277763  137.33999634    0.55000001    2.57999992
   19.19610977  139.49099731    0.55000001    2.57999992
   19.19916534  141.36700439    0.52999997    2.55999994
   19.20250130  136.66099548    0.52999997    2.55999994
   19.20555687  143.75999451    0.50000000    2.55999994
   19.21166801  143.75999451    0.51999998    2.55999994
   19.21583366  138.98599243    0.52999997    2.55999994
   19.21888924  140.76899719    0.52999997    2.55999994
   19.22222328  137.19099426    0.52999997    2.55999994
   19.22527885  139.66799927    0.52999997    2.55999994
   19.22861099  134.97999573    0.55000001    2.55999994
   19.23194504  136.21800232    0.55000001    2.55999994
   19.23500061  142.95899963    0.55000001    2.55999994
   19.23833275  140.17999268    0.52999997    2.55999994
   19.24166679  139.01100159    0.52999997    2.55999994
   19.24361229  141.11500549    0.51999998    2.55999994
   19.24500084  140.77999878    0.51999998    2.55999994
   19.24833298  139.09700012    0.52999997    2.55999994
   19.25444412  139.09700012    0.67000002    2.55999994
   19.25861168  138.75399780    0.73000002    2.55999994
   19.26194382  137.72999573    0.69000000    2.55999994
   19.26499939  138.65199280    0.75000000    2.55999994
   19.26833344  136.52699280    0.55000001    2.55999994
   19.27166557  138.13499451    0.50000000    2.55999994
   19.27472115  138.27299500    0.50000000    2.55999994
   19.27694511  136.80000305    0.47999999    2.55999994
   19.27833366  138.08799744    0.47999999    2.55999994
   19.28166580  133.25500488    0.51999998    2.55999994
   19.28499985  138.11199951    0.51999998    2.55999994
   19.28805542  136.65899658    0.50000000    2.55999994
   19.29138756  135.09199524    0.50000000    2.55999994
   19.29722214  135.09199524    0.50000000    2.55999994
   19.30138779  138.10699463    0.52999997    2.55999994
   19.30472183  136.30000305    0.52999997    2.55999994
   19.30805397  142.88000488    0.52999997    2.53999996
   19.31027794  136.43299866    0.51999998    2.53999996
   19.31138802  139.27000427    0.51999998    2.53999996
   19.31472206  133.23199463    0.52999997    2.55999994
   19.31805611  140.79200745    0.52999997    2.55999994
   19.32111168  143.73199463    0.50000000    2.53999996
   19.32444572  138.09599304    0.50000000    2.53999996
   19.32750130  136.96400452    0.50000000    2.53999996
   19.33083344  133.83700562    0.50000000    2.53999996
   19.33416748  140.55599976    0.56999999    2.53999996
   19.34000015  140.55599976    0.51999998    2.53999996
   19.34416771  138.23599243    0.50000000    2.53999996
   19.34749985  136.69099426    0.51999998    2.53999996
   19.35083389  137.08999634    0.55000001    2.53999996
   19.35388947  138.85800171    0.61000001    2.53999996
   19.35722351  135.39300537    0.56999999    2.53999996
   19.36083412  137.24299622    0.63000000    2.53999996
   19.36388969  141.22700500    0.58999997    2.53999996
   19.36722183  144.65400696    0.61000001    2.53999996
   19.37027740  137.34399414    0.61000001    2.53999996
   19.37361145  137.47399902    0.58999997    2.53999996
   19.37694550  142.90499878    0.56999999    2.53999996
   19.37722206  139.56900024    0.56999999    2.53999996
   19.38305473  139.56900024    0.52999997    2.53999996
   19.38722229  136.21699524    0.52999997    2.53999996
   19.39027786  135.88299561    0.52999997    2.53999996
   19.39361191  139.60400391    0.52999997    2.53999996
   19.39666748  140.72300720    0.55000001    2.53999996
   19.39999962  134.32600403    0.55000001    2.53999996
   19.40333366  139.15499878    0.55000001    2.53999996
   19.40638924  140.56500244    0.55000001    2.53999996
   19.40972137  139.18699646    0.52999997    2.53999996
   19.41027832  143.49899292    0.52999997    2.53999996
   19.41333389  143.60800171    0.52999997    2.53999996
   19.41638756  138.23699951    0.55000001    2.53999996
   19.41972160  134.15600586    0.58999997    2.53999996
   19.42583275  134.15600586    0.63000000    2.53999996
   19.43000031  138.74899292    0.63000000    2.53999996
   19.43333244  133.15100098    0.63000000    2.53999996
   19.43638802  139.30000305    0.63000000    2.53999996
   19.43972206  137.30000305    0.58999997    2.53999996
   19.44277763  137.79200745    0.61000001    2.51999998
   19.44361115  137.13400269    0.61000001    2.51999998
   19.44666672  138.46200562    0.56999999    2.53999996
   19.44972038  140.25000000    0.56999999    2.51999998
   19.45305634  138.69099426    0.56999999    2.51999998
   19.45611191  136.45100403    0.55000001    2.53999996
   19.45944595  139.66499329    0.55000001    2.53999996
   19.46277809  136.32800293    0.55000001    2.51999998
   19.46861076  136.32800293    0.56999999    2.51999998
   19.47277832  130.18499756    0.55000001    2.51999998
   19.47611237  140.43699646    0.55000001    2.51999998
   19.47694588  132.26899719    0.58999997    2.51999998
   19.47972298  142.56100464    0.55000001    2.51999998
   19.48277855  137.78300476    0.52999997    2.53999996
   19.48611069  141.03999329    0.56999999    2.53999996
   19.48916626  138.29800415    0.51999998    2.51999998
   19.49250031  134.85200500    0.50000000    2.51999998
   19.49583435  139.24099731    0.50000000    2.51999998
   19.49888992  141.80200195    0.50000000    2.51999998
   19.50222206  135.74299622    0.50000000    2.51999998
   19.50555611  139.55400085    0.50000000    2.50000000
   19.51138878  139.55400085    0.63000000    2.50000000
   19.51555634  142.96699524    0.88000000    2.50000000
   19.51888847  139.13499451    0.79000002    2.50000000
   19.52222252  147.05099487    0.80000001    2.50000000
   19.52527809  141.35000610    0.64999998    2.50000000
   19.52861023  142.50999451    0.58999997    2.50000000
