    HOUR (UT)   FLARE FACTOR    SKY TESTER    SUN TESTER
   11.34222221   -1.00000000   -1.00000000   -1.00000000
   11.37388897  113.55300140    4.90999985    2.26999998
   11.38000011  104.22699738    4.90999985    2.28999996
   11.38305569  107.13200378    4.90999985    2.26999998
   11.38638878  114.55400085    4.90999985    2.26999998
   11.38944435  109.64700317    4.90999985    2.28999996
   11.39277744  113.15000153    4.90999985    2.28999996
   11.39611053  114.33999634    4.90999985    2.28999996
   11.39916611  112.04399872    4.90999985    2.28999996
   11.40333271  117.64099884    4.90999985    2.26999998
   11.40638828  109.12400055    4.90999985    2.28999996
   11.40722179  111.31099701    4.90999985    2.28999996
   11.41027737  117.81800079    4.88999987    2.28999996
   11.41361046  117.62799835    4.88999987    2.28999996
   11.41666698  111.07900238    4.88999987    2.28999996
   11.42166710  121.81999969    4.86999989    2.28999996
   11.42500019  119.43299866    4.86999989    2.30999994
   11.42888927  111.25199890    4.86999989    2.28999996
   11.43194485  107.33399963    4.86999989    2.30999994
   11.43527794  114.41100311    4.84999990    2.28999996
   11.43833351  114.21600342    4.82999992    2.30999994
   11.44055557  111.13800049    4.82999992    2.30999994
   11.44222260   99.28220367    4.82999992    2.30999994
   11.44555569  105.00000000    4.80999994    2.30999994
   11.44888878  113.96800232    4.80999994    2.30999994
   11.45194435  126.72200012    4.80999994    2.30999994
   11.45527744  113.29799652    4.80999994    2.30999994
   11.45833302  115.93699646    4.80000019    2.30999994
   11.46166611  123.98400116    4.78000021    2.30999994
   11.46500015  130.96699524    4.78000021    2.30999994
   11.46805477  113.30400085    4.76000023    2.32999992
   11.47138882  110.41699982    4.76000023    2.30999994
   11.47388840  120.38099670    4.76000023    2.30999994
   11.47499943  114.33399963    4.76000023    2.30999994
   11.47805500  119.68199921    4.76000023    2.30999994
   11.48138809  123.49500275    4.73999977    2.30999994
   11.48500061  119.73500061    4.71999979    2.32999992
   11.48805618  115.65699768    4.71999979    2.32999992
   11.49138927  102.49099731    4.71999979    2.30999994
   11.49472237  136.78100586    4.69999981    2.32999992
   11.49805546  111.96600342    4.69999981    2.32999992
   11.50138855  122.51499939    4.67999983    2.32999992
   11.50472260  107.52799988    4.67999983    2.32999992
   11.50722218  112.92600250    4.67999983    2.32999992
   11.50833321  114.04000092    4.69999981    2.32999992
   11.51166630  113.51699829    4.67999983    2.32999992
   11.51472187  110.80999756    4.67999983    2.32999992
   11.51805496  121.90599823    4.67999983    2.32999992
   11.52111053  125.02200317    4.67999983    2.32999992
   11.52444458  133.27099609    4.67999983    2.32999992
   11.52777767  120.54599762    4.65999985    2.32999992
   11.53083324  116.93800354    4.65999985    2.32999992
   11.53416729  112.03900146    4.63999987    2.32999992
   11.53750038  123.40299988    4.65999985    2.32999992
   11.54055595  112.65399933    4.63999987    2.32999992
   11.54111195  115.14700317    4.63999987    2.32999992
   11.54444504  118.99299622    4.63999987    2.34999990
   11.54750061   99.57969666    4.63999987    2.32999992
   11.55083370  130.90199280    4.63999987    2.32999992
   11.55388927  116.17600250    4.61999989    2.34999990
   11.55722237  110.91400146    4.59999990    2.32999992
   11.56055546  113.50299835    4.59999990    2.34999990
   11.56361103  112.77999878    4.61999989    2.34999990
   11.56694412  113.16500092    4.59999990    2.34999990
   11.57027817  108.19899750    4.57999992    2.34999990
   11.57333374  110.99800110    4.57999992    2.34999990
   11.57388878  119.00800323    4.57999992    2.34999990
   11.57694435  105.44100189    4.57999992    2.36999989
   11.58027744  113.27100372    4.59999990    2.34999990
   11.58333302  119.98100281    4.57999992    2.34999990
   11.58666611  113.61699677    4.57999992    2.34999990
   11.58972168  122.10700226    4.57999992    2.34999990
   11.59305477  106.58000183    4.55999994    2.34999990
   11.59638882  115.88400269    4.53999996    2.34999990
   11.59944439  108.71399689    4.55999994    2.36999989
   11.60277843  118.59200287    4.53999996    2.36999989
   11.60611153  113.48000336    4.53999996    2.34999990
   11.60722256  112.56999969    4.53999996    2.34999990
   11.60972214  123.88600159    4.53999996    2.34999990
   11.61305618  124.08899689    4.53999996    2.34999990
   11.61611176  123.16400146    4.53000021    2.36999989
   11.61944485  110.73400116    4.51000023    2.36999989
   11.62250042  112.99199677    4.51000023    2.36999989
   11.62583351  115.61599731    4.48999977    2.34999990
   11.62916660  115.91300201    4.51000023    2.34999990
   11.63222218  120.30300140    4.48999977    2.36999989
   11.63555527  113.56099701    4.46999979    2.36999989
   11.63888836  108.98300171    4.48999977    2.36999989
   11.64055538   99.86519623    4.46999979    2.36999989
   11.64249992  115.96900177    4.48999977    2.36999989
   11.64583302  109.30300140    4.46999979    2.36999989
   11.64888859  110.88200378    4.46999979    2.36999989
   11.65222168  104.80999756    4.46999979    2.36999989
   11.65527725  106.71399689    4.46999979    2.36999989
   11.65861034  108.97499847    4.46999979    2.34999990
   11.66194439  116.63500214    4.46999979    2.36999989
   11.66499996  100.10199738    4.46999979    2.36999989
   11.66833401  111.62899780    4.46999979    2.36999989
   11.67166710  109.39199829    4.48999977    2.39000010
   11.67388916  101.63600159    4.48999977    2.39000010
   11.67527771  107.80400085    4.46999979    2.39000010
   11.67861176  108.04299927    4.46999979    2.36999989
   11.68166733  110.77700043    4.46999979    2.36999989
   11.68500042  116.16400146    4.48999977    2.39000010
   11.68805599  109.79799652    4.46999979    2.36999989
   11.69138908  104.36100006    4.46999979    2.39000010
   11.69472218  113.78199768    4.46999979    2.39000010
   11.69805527   99.36920166    4.46999979    2.39000010
   11.70111084  105.44100189    4.46999979    2.36999989
   11.70444393  114.45099640    4.44999981    2.39000010
   11.70722198  100.48400116    4.44999981    2.39000010
   11.70805550  105.58000183    4.44999981    2.36999989
   11.71138859  111.99500275    4.44999981    2.39000010
   11.71444416  105.25499725    4.42999983    2.39000010
   11.71777725   98.36940002    4.42999983    2.39000010
   11.72083282  101.97699738    4.42999983    2.39000010
   11.72416592  101.52100372    4.40999985    2.39000010
   11.72749996  102.84400177    4.40999985    2.39000010
   11.73055553  110.93800354    4.40999985    2.39000010
   11.73388958  103.54499817    4.40999985    2.39000010
   11.73722267  102.59100342    4.40999985    2.39000010
   11.74027824  103.86399841    4.38999987    2.39000010
   11.74083328  104.03800201    4.38999987    2.39000010
   11.74416733   98.43859863    4.36999989    2.39000010
   11.74722290  101.25299835    4.36999989    2.39000010
   11.75055599  102.19400024    4.36999989    2.39000010
   11.75388908  111.20600128    4.36999989    2.39000010
   11.75694466  114.96700287    4.36999989    2.39000010
   11.76027775  106.91500092    4.36999989    2.40000010
   11.76333332  102.56300354    4.36999989    2.39000010
   11.76666641   96.64620209    4.34999990    2.40000010
   11.76999950   97.46720123    4.34999990    2.39000010
   11.77305508  102.01300049    4.34999990    2.40000010
   11.77416611  102.23899841    4.34999990    2.40000010
   11.77694416  112.63099670    4.34999990    2.39000010
   11.77999973  104.10600281    4.34999990    2.39000010
   11.78333378   91.66410065    4.34999990    2.39000010
   11.78666687  107.36799622    4.34999990    2.39000010
   11.78972244  110.26699829    4.32999992    2.40000010
   11.79305553  110.92500305    4.32999992    2.39000010
   11.79611111  100.91400146    4.30999994    2.40000010
   11.79944515   98.42209625    4.30999994    2.40000010
   11.80277824   95.06400299    4.30999994    2.40000010
   11.80583382  107.06199646    4.28999996    2.40000010
   11.80749989  103.37899780    4.28999996    2.40000010
   11.80972195  103.19200134    4.28999996    2.40000010
   11.81277752   94.93550110    4.28999996    2.40000010
   11.81611156  103.36799622    4.26999998    2.40000010
   11.81944466   94.28340149    4.26999998    2.40000010
   11.82250023  101.10900116    4.26999998    2.40000010
   11.82583332   96.31099701    4.26999998    2.40000010
   11.82888889  103.45700073    4.26999998    2.42000008
   11.83222198   98.13790131    4.26999998    2.40000010
   11.83555508   98.35800171    4.26999998    2.40000010
   11.83861065  109.30999756    4.28999996    2.40000010
   11.84083271  101.72699738    4.26999998    2.42000008
   11.84249973   95.99539948    4.26999998    2.40000010
   11.84555531   95.12609863    4.26999998    2.42000008
   11.84888840   94.99240112    4.26000023    2.40000010
   11.85222244  102.58000183    4.23999977    2.42000008
   11.85527802   97.44950104    4.23999977    2.42000008
   11.85861111   91.90190125    4.21999979    2.40000010
   11.86194515  114.66600037    4.21999979    2.40000010
   11.86500072  110.87799835    4.21999979    2.42000008
   11.86833382  100.42900085    4.19999981    2.42000008
   11.87166691  108.05300140    4.19999981    2.42000008
   11.87416649   97.54119873    4.17999983    2.42000008
   11.87527752   97.35350037    4.17999983    2.42000008
   11.87833309  103.78199768    4.17999983    2.42000008
   11.88166714  110.25599670    4.17999983    2.42000008
   11.88500023  104.66899872    4.15999985    2.42000008
   11.88805580  108.22599792    4.15999985    2.42000008
   11.89138889  100.08699799    4.13999987    2.42000008
   11.89444447  102.88500214    4.13999987    2.44000006
   11.89777756   96.90039825    4.13999987    2.42000008
   11.90111065   95.17849731    4.13999987    2.42000008
   11.90416622   99.77680206    4.11999989    2.42000008
   11.90749931   98.85420227    4.13999987    2.44000006
   11.90805531  100.44499969    4.13999987    2.42000008
   11.91111088   96.59549713    4.11999989    2.44000006
   11.91444397   97.91130066    4.13999987    2.42000008
   11.91777802  105.87699890    4.13999987    2.44000006
   11.92083359  103.52700043    4.11999989    2.42000008
   11.92416668  105.12799835    4.13999987    2.42000008
   11.92722225  104.42600250    4.13999987    2.44000006
   11.93055630   95.61720276    4.13999987    2.44000006
   11.93388939   93.06800079    4.13999987    2.42000008
   11.93694496   94.80229950    4.13999987    2.46000004
   11.94027805  102.09600067    4.13999987    2.44000006
   11.94083309  100.72000122    4.13999987    2.44000006
   11.94388866   95.81199646    4.11999989    2.44000006
   11.94722271   97.20719910    4.11999989    2.44000006
   11.95027733   96.60780334    4.11999989    2.44000006
   11.95361137   97.88659668    4.11999989    2.44000006
   11.95694447   98.66230011    4.09999990    2.44000006
   11.96000004   99.79949951    4.09999990    2.46000004
   11.96333313   90.74009705    4.07999992    2.46000004
   11.96638870   97.46549988    4.07999992    2.46000004
   11.96972179   92.95030212    4.07999992    2.44000006
   11.97305489  106.55300140    4.05999994    2.46000004
   11.97416592  101.06600189    4.05999994    2.44000006
   11.97666645   96.45400238    4.03999996    2.44000006
   11.97972202   95.13700104    4.03999996    2.44000006
   11.98305511  100.40399933    4.03999996    2.46000004
   11.98638916  103.74800110    4.03999996    2.44000006
   11.98944473   89.35720062    4.01999998    2.46000004
   11.99277782   99.66619873    4.01999998    2.46000004
   11.99611092   92.95300293    4.00000000    2.46000004
   11.99916649   97.69170380    4.00000000    2.46000004
   12.00249958   97.97859955    4.00000000    2.46000004
   12.00555515   98.24839783    3.99000001    2.46000004
   12.00749969   91.96179962    4.00000000    2.46000004
   12.00944424  100.11000061    3.99000001    2.46000004
   12.01249981   93.94779968    3.99000001    2.46000004
   12.01583290   95.45390320    3.99000001    2.46000004
   12.01916599   99.42299652    3.99000001    2.46000004
   12.02222157  100.37899780    3.99000001    2.46000004
   12.02555561   98.51879883    3.99000001    2.46000004
   12.02888870   94.69719696    3.99000001    2.46000004
   12.03194427   95.67960358    3.99000001    2.46000004
   12.03527832   93.60279846    3.97000003    2.46000004
   12.03833389   91.03189850    3.97000003    2.46000004
   12.04083347   93.33070374    3.99000001    2.46000004
   12.04222298  100.61799622    3.97000003    2.46000004
   12.04527855   97.52010345    3.97000003    2.46000004
   12.04861164   95.32669830    3.97000003    2.46000004
   12.05194473   91.17440033    3.97000003    2.46000004
   12.05500031   97.89050293    3.95000005    2.46000004
   12.05833340   94.99539948    3.95000005    2.48000002
   12.06166649   98.41860199    3.93000007    2.46000004
   12.06472206   89.97579956    3.93000007    2.48000002
   12.06805515   92.58869934    3.93000007    2.46000004
   12.07111073   94.81529999    3.93000007    2.46000004
   12.07416630   99.90350342    3.91000009    2.46000004
   12.07499981   91.47209930    3.91000009    2.46000004
   12.07805538   95.11090088    3.91000009    2.48000002
   12.08138847   97.19129944    3.91000009    2.46000004
   12.08472157   97.26629639    3.89000010    2.46000004
   12.08777714   94.51100159    3.89000010    2.48000002
   12.09111118   91.71559906    3.89000010    2.48000002
   12.09444427   97.01119995    3.89000010    2.48000002
   12.09749985   95.42400360    3.86999989    2.48000002
   12.10083389   98.79370117    3.89000010    2.48000002
   12.10388947   95.05740356    3.86999989    2.48000002
   12.10722256   89.30400085    3.86999989    2.46000004
   12.10777855   89.16729736    3.86999989    2.46000004
   12.11111164   91.30729675    3.86999989    2.48000002
   12.11416721   91.81960297    3.86999989    2.48000002
   12.11750031   90.65589905    3.86999989    2.48000002
   12.12055588   92.66870117    3.86999989    2.48000002
   12.12388897   93.54989624    3.84999990    2.48000002
   12.12722206   95.26560211    3.84999990    2.48000002
   12.13027763   94.15879822    3.84999990    2.48000002
   12.13361073   93.34529877    3.82999992    2.48000002
   12.13694477   86.65809631    3.82999992    2.48000002
   12.14000034   98.51249695    3.80999994    2.48000002
   12.14111137   93.82520294    3.80999994    2.48000002
   12.14388847   96.14620209    3.80999994    2.48000002
   12.14694405   93.79149628    3.80999994    2.50000000
   12.15027714  101.27400208    3.80999994    2.48000002
   12.15333271   93.08979797    3.80999994    2.48000002
   12.15666676   94.46440125    3.80999994    2.48000002
   12.15999985   91.26750183    3.80999994    2.48000002
   12.16305542   93.89689636    3.78999996    2.48000002
   12.16638851   92.33409882    3.78999996    2.48000002
   12.16972256   88.67250061    3.78999996    2.50000000
   12.17277813   89.95459747    3.76999998    2.50000000
   12.17444515   92.42150116    3.76999998    2.50000000
   12.17666721   99.01110077    3.75000000    2.48000002
   12.17972279   88.82350159    3.76999998    2.50000000
   12.18305588   91.63210297    3.75000000    2.50000000
   12.18611145   94.97779846    3.73000002    2.48000002
   12.18944454   88.59559631    3.73000002    2.50000000
   12.19277763   87.17420197    3.73000002    2.50000000
   12.19611073   86.89810181    3.73000002    2.50000000
   12.19916630   94.29989624    3.72000003    2.50000000
   12.20249939   86.56890106    3.73000002    2.50000000
   12.20555496   86.00409698    3.73000002    2.50000000
   12.20777798   87.07879639    3.73000002    2.50000000
   12.20944405   90.95140076    3.73000002    2.48000002
   12.21249962   91.78659821    3.73000002    2.50000000
   12.21583271   98.12129974    3.75000000    2.50000000
   12.21888828   90.74030304    3.75000000    2.50000000
   12.22222137   91.73149872    3.75000000    2.50000000
   12.22555542   90.48989868    3.75000000    2.50000000
   12.22861099   90.72190094    3.73000002    2.50000000
   12.23194408   89.30269623    3.73000002    2.50000000
   12.23527813   93.88210297    3.72000003    2.51999998
   12.23833370   93.42209625    3.70000005    2.50000000
   12.24111176   94.55850220    3.68000007    2.50000000
   12.24222279   88.06939697    3.68000007    2.50000000
   12.24527836   91.14920044    3.66000009    2.50000000
   12.24861145   94.64350128    3.66000009    2.50000000
   12.25166702   93.52469635    3.64000010    2.50000000
   12.25500011   93.59670258    3.64000010    2.51999998
   12.25833321   94.46160126    3.64000010    2.51999998
   12.26138878   91.73159790    3.64000010    2.51999998
   12.26472187   93.04090118    3.61999989    2.51999998
   12.26805496   92.01329803    3.61999989    2.51999998
   12.27111053   92.03479767    3.64000010    2.50000000
   12.27444458   89.75080109    3.64000010    2.51999998
   12.27499962   94.11689758    3.64000010    2.50000000
   12.27805519   97.68789673    3.64000010    2.50000000
   12.28138828   88.85320282    3.61999989    2.51999998
   12.28444481   88.96150208    3.61999989    2.51999998
   12.28777790   92.35639954    3.59999990    2.51999998
   12.29111195  102.42299652    3.61999989    2.51999998
   12.29416752  100.78199768    3.61999989    2.51999998
   12.29750061   93.96330261    3.59999990    2.51999998
   12.30083370   91.84970093    3.59999990    2.51999998
   12.30388927   87.66480255    3.59999990    2.51999998
   12.30722237   95.10230255    3.59999990    2.51999998
   12.30777836   94.27050018    3.59999990    2.51999998
   12.31083393   94.54170227    3.57999992    2.51999998
   12.31388950   96.23909760    3.57999992    2.51999998
   12.31722260   97.46559906    3.57999992    2.51999998
   12.32055569   97.78150177    3.55999994    2.51999998
   12.32361126   91.96700287    3.55999994    2.51999998
   12.32694435   94.36879730    3.55999994    2.51999998
   12.32999992   96.25080109    3.55999994    2.51999998
   12.33333302   90.85669708    3.55999994    2.51999998
   12.33666611   86.77709961    3.55999994    2.51999998
   12.33972168   96.94010162    3.55999994    2.51999998
   12.34111118  100.34799957    3.53999996    2.51999998
   12.34361076   93.93890381    3.53999996    2.51999998
   12.34666634   89.87100220    3.53999996    2.53999996
   12.35000038  100.25499725    3.55999994    2.51999998
   12.35333347   96.73040009    3.55999994    2.51999998
   12.35638905   99.27870178    3.55999994    2.51999998
   12.35972214  105.10700226    3.55999994    2.51999998
   12.36277771   92.90519714    3.55999994    2.51999998
   12.36611176   95.87359619    3.55999994    2.51999998
   12.36944485   99.26840210    3.55999994    2.51999998
   12.37250042   91.63710022    3.57999992    2.51999998
   12.39055538   92.20629883    3.53999996    2.53999996
   12.39249992   91.74939728    3.55999994    2.51999998
   12.39583302   92.00270081    3.57999992    2.53999996
   12.39888859   88.63469696    3.57999992    2.53999996
   12.40222168   91.35330200    3.57999992    2.53999996
   12.40527725  103.19100189    3.57999992    2.53999996
   12.40861034   97.42729950    3.55999994    2.53999996
   12.41194439   97.51529694    3.57999992    2.53999996
   12.41499996   95.16870117    3.57999992    2.53999996
   12.41833401  102.20500183    3.55999994    2.53999996
   12.42166710   96.89790344    3.55999994    2.53999996
   12.42388916   97.19560242    3.57999992    2.55999994
   12.42500019   96.43640137    3.57999992    2.53999996
   12.42833328   95.50820160    3.59999990    2.53999996
   12.43166733   91.85359955    3.57999992    2.53999996
   12.43472195   93.14759827    3.57999992    2.53999996
   12.43805599   98.53600311    3.57999992    2.53999996
   12.44138908  103.45700073    3.57999992    2.53999996
   12.44444466   97.86799622    3.57999992    2.53999996
   12.44777775   92.89170074    3.57999992    2.53999996
   12.45111084   99.37449646    3.55999994    2.53999996
   12.45416641   96.60870361    3.57999992    2.53999996
   12.45722198   97.57569885    3.55999994    2.53999996
   12.45805550  105.89700317    3.57999992    2.53999996
   12.46111107   91.50620270    3.55999994    2.53999996
   12.46444416  102.05500031    3.57999992    2.53999996
   12.46777725  102.85500336    3.57999992    2.53999996
   12.47083282  104.29499817    3.57999992    2.53999996
   12.47416592  100.58999634    3.59999990    2.53999996
   12.47749996  109.09400177    3.59999990    2.53999996
   12.48055553   91.75520325    3.61999989    2.53999996
   12.48388958  102.42900085    3.59999990    2.51999998
   12.48694515  111.11900330    3.59999990    2.53999996
   12.49027824   98.06169891    3.59999990    2.53999996
   12.49083328  105.96900177    3.57999992    2.53999996
   12.49416733   96.71040344    3.55999994    2.53999996
   12.49722290   95.04440308    3.55999994    2.51999998
   12.50055599   91.56220245    3.55999994    2.53999996
   12.50361156   99.67459869    3.51999998    2.53999996
   12.50694466  109.66000366    3.53999996    2.53999996
   12.51027775  107.44499969    3.51999998    2.53999996
   12.51333332  105.07499695    3.50000000    2.53999996
   12.51666641   90.00090027    3.48000002    2.53999996
   12.51999950  101.44699860    3.46000004    2.55999994
   12.52305508   93.51959991    3.46000004    2.53999996
   12.52416611   99.56549835    3.45000005    2.53999996
   12.52694416  102.18599701    3.46000004    2.55999994
   12.52999973   95.94249725    3.45000005    2.53999996
   12.53333378   99.56690216    3.46000004    2.53999996
   12.53638935   94.20850372    3.48000002    2.53999996
   12.53972244   97.62590027    3.48000002    2.53999996
   12.54305553   95.90840149    3.48000002    2.53999996
   12.54638958  100.05899811    3.46000004    2.53999996
   12.54944515   96.08869934    3.46000004    2.53999996
   12.55277824   94.82360077    3.46000004    2.55999994
   12.55638885  104.29900360    3.45000005    2.53999996
   12.55749989  102.77400208    3.45000005    2.53999996
   12.56000042   98.39270020    3.45000005    2.53999996
   12.56305599  104.19499969    3.45000005    2.53999996
   12.56638908   97.11689758    3.43000007    2.55999994
   12.56944466   98.28790283    3.43000007    2.53999996
   12.57277775  103.33200073    3.43000007    2.55999994
   12.57611084  103.11699677    3.45000005    2.55999994
   12.57916641  100.17500305    3.45000005    2.53999996
   12.58249950   99.07319641    3.45000005    2.55999994
   12.58583260  103.83100128    3.46000004    2.53999996
   12.58888817  102.98799896    3.46000004    2.55999994
   12.59083271   96.77269745    3.46000004    2.53999996
   12.59277725  101.18699646    3.46000004    2.53999996
   12.59583282  107.56800079    3.48000002    2.55999994
   12.59916592   98.71970367    3.48000002    2.55999994
   12.60222244  107.39800262    3.48000002    2.55999994
   12.60555553   95.62920380    3.46000004    2.55999994
   12.60888958   91.05819702    3.48000002    2.55999994
   12.61194515   95.09439850    3.48000002    2.55999994
   12.61527824   98.42720032    3.48000002    2.55999994
   12.61861134   97.38710022    3.48000002    2.55999994
   12.62166691   99.11129761    3.46000004    2.55999994
   12.62416649   97.43589783    3.45000005    2.55999994
   12.62555599   99.82189941    3.45000005    2.55999994
   12.62861156   99.80809784    3.43000007    2.55999994
   12.63194466  103.26899719    3.41000009    2.55999994
   12.63500023  107.65100098    3.39000010    2.55999994
   12.63833332  102.36900330    3.39000010    2.55999994
   12.64166641   97.58260345    3.39000010    2.55999994
   12.64472198   98.76540375    3.36999989    2.55999994
   12.64805508   99.23549652    3.36999989    2.55999994
   12.65138817  100.79599762    3.34999990    2.55999994
   12.65444374  100.82299805    3.34999990    2.55999994
   12.65749931   93.00810242    3.34999990    2.55999994
   12.65833282   99.32610321    3.34999990    2.55999994
   12.66138840   93.51529694    3.30999994    2.55999994
   12.66472149  103.29900360    3.30999994    2.55999994
   12.66777802   93.35299683    3.28999996    2.57999992
   12.67111111   87.53269958    3.28999996    2.55999994
   12.67444515   89.76450348    3.28999996    2.55999994
   12.67750072   96.25559998    3.28999996    2.57999992
   12.68083382  101.66200256    3.26999998    2.57999992
   12.68388939  100.86100006    3.26999998    2.55999994
   12.68722248   98.73629761    3.26999998    2.57999992
   12.69055557   93.70149994    3.26999998    2.55999994
   12.69111156  102.06400299    3.26999998    2.55999994
   12.69416714  100.79299927    3.26999998    2.57999992
   12.69750023   97.54989624    3.26999998    2.55999994
   12.70055580   94.75900269    3.25000000    2.57999992
   12.70388889   98.16899872    3.25000000    2.57999992
   12.70722198   94.07019806    3.23000002    2.57999992
   12.71055508   92.53179932    3.23000002    2.59999990
   12.71361065   92.32689667    3.25000000    2.57999992
   12.71694374   94.54049683    3.23000002    2.57999992
   12.71999931  100.07499695    3.23000002    2.57999992
   12.72333336   95.70149994    3.23000002    2.57999992
   12.72444439   94.60160065    3.25000000    2.57999992
   12.72694397  101.26300049    3.23000002    2.57999992
   12.73027706   97.85579681    3.25000000    2.57999992
   12.73333359   93.22229767    3.23000002    2.57999992
   12.73666668   98.16459656    3.23000002    2.57999992
   12.74000072   90.26670074    3.21000004    2.59999990
   12.74305534   92.82109833    3.18000007    2.57999992
   12.74638939   96.52850342    3.18000007    2.59999990
   12.74972248   97.54560089    3.18000007    2.59999990
   12.75277805   97.29750061    3.14000010    2.59999990
   12.75611115  102.29599762    3.16000009    2.57999992
   12.75777817   94.91310120    3.16000009    2.57999992
   12.75972176   91.54119873    3.14000010    2.59999990
   12.76305580   98.43930054    3.14000010    2.57999992
   12.76638889  100.91000366    3.14000010    2.57999992
   12.76944447   95.23090363    3.11999989    2.59999990
   12.77277756   98.90039825    3.11999989    2.59999990
   12.77583313   99.86900330    3.14000010    2.57999992
   12.77916622  100.89099884    3.14000010    2.57999992
   12.78249931   92.18800354    3.14000010    2.57999992
   12.78555584  101.27300262    3.16000009    2.57999992
   12.78888893  100.41799927    3.16000009    2.59999990
   12.79111195   90.48130035    3.16000009    2.59999990
   12.79250050   93.77690125    3.16000009    2.59999990
   12.79583359   97.16850281    3.16000009    2.59999990
   12.79916668   98.59169769    3.16000009    2.59999990
   12.80222225   93.13610077    3.14000010    2.57999992
   12.80555534   94.88710022    3.14000010    2.59999990
   12.80861092   97.98429871    3.11999989    2.59999990
   12.81194496  100.45099640    3.11999989    2.59999990
   12.81527805   94.52519989    3.09999990    2.59999990
   12.81833363  102.66400146    3.09999990    2.59999990
   12.82166672   97.25309753    3.07999992    2.59999990
   12.82444477   97.11139679    3.07999992    2.59999990
   12.82527733   99.30519867    3.07999992    2.59999990
   12.82861137   96.74330139    3.05999994    2.59999990
   12.83194447   98.83660126    3.05999994    2.59999990
   12.83500004   98.50389862    3.05999994    2.59999990
   12.83833313   97.96739960    3.03999996    2.59999990
   12.84166622   94.20939636    3.03999996    2.59999990
   12.84472179   95.64109802    3.03999996    2.61999989
   12.84805489  100.14700317    3.01999998    2.61999989
   12.85111141   96.70899963    3.01999998    2.59999990
   12.85444450   96.05570221    3.01999998    2.59999990
   12.85777855   99.53230286    3.00000000    2.59999990
   12.85805607   95.65959930    3.00000000    2.59999990
   12.86138916  102.96499634    2.98000002    2.61999989
   12.86472225  107.99199677    2.98000002    2.59999990
   12.86777782   91.98570251    2.98000002    2.61999989
   12.87111092   97.36799622    2.96000004    2.61999989
   12.87416649   93.88200378    2.96000004    2.59999990
   12.87750053  101.47299957    2.94000006    2.61999989
   12.88083363   93.83670044    2.94000006    2.61999989
   12.88388920  101.78199768    2.96000004    2.61999989
   12.88722229   97.05919647    2.96000004    2.61999989
   12.89055538   96.98229980    2.94000006    2.61999989
   12.89111137   94.00240326    2.94000006    2.59999990
   12.89416695   98.11489868    2.94000006    2.59999990
   12.89722252  101.71800232    2.96000004    2.59999990
   12.90055561  100.49099731    2.96000004    2.64000010
   12.90361118   89.59400177    2.98000002    2.61999989
   12.90694427   91.81199646    2.98000002    2.61999989
   12.91027737   93.99770355    2.98000002    2.61999989
   12.91333294   93.75270081    3.01999998    2.61999989
   12.91666698  102.04100037    3.01999998    2.61999989
   12.92000008  100.65000153    3.01999998    2.59999990
   12.92305565   92.26329803    3.01999998    2.61999989
   12.92444515   93.71340179    3.01999998    2.61999989
   12.92666721   97.74069977    3.00000000    2.61999989
   12.93000031   93.77480316    3.00000000    2.61999989
   12.93333340   95.00430298    3.00000000    2.61999989
   12.93638897   94.22499847    3.01999998    2.61999989
   12.93972206  102.71299744    3.00000000    2.61999989
   12.94277763   97.01080322    3.00000000    2.61999989
   12.94611073  100.43499756    2.98000002    2.61999989
   12.94944477   90.83419800    2.98000002    2.61999989
   12.95249939  104.37999725    2.98000002    2.61999989
   12.95583344   92.30259705    2.96000004    2.64000010
   12.95777798   97.85870361    2.96000004    2.61999989
   12.95944405   94.62629700    2.96000004    2.64000010
   12.96277714   98.73130035    2.94000006    2.61999989
   12.96611118   99.67120361    2.96000004    2.61999989
   12.96944427   98.63649750    2.96000004    2.61999989
   12.97277737   95.23940277    2.96000004    2.61999989
   12.97611046   97.67289734    2.94000006    2.61999989
   12.97916603   99.21839905    2.94000006    2.61999989
   12.98249912  106.39299774    2.93000007    2.61999989
   13.09916592   -1.00000000   -1.00000000   -1.00000000
   13.20499992   -1.00000000   -1.00000000   -1.00000000
   13.30555534   -1.00000000   -1.00000000   -1.00000000
   13.33472157   74.82669830    2.64000010    2.67000008
   13.33777714   94.66300201    2.66000009    2.67000008
   13.34111118   97.07330322    2.67000008    2.66000009
   13.34444427   90.81020355    2.67000008    2.66000009
   13.34749985   96.09510040    2.67000008    2.67000008
   13.35083389   97.19599915    2.67000008    2.67000008
   13.35500050   97.19599915    2.67000008    2.66000009
   13.35916710   97.42659760    2.69000006    2.66000009
   13.36222267   98.99610138    2.71000004    2.66000009
   13.36555576   94.94999695    2.73000002    2.67000008
   13.36777782   89.70140076    2.73000002    2.67000008
   13.36916637   93.16210175    2.73000002    2.66000009
   13.37250042   92.21430206    2.73000002    2.67000008
   13.37555599   90.79370117    2.71000004    2.66000009
   13.37888908   92.73580170    2.71000004    2.67000008
   13.38222218   92.18109894    2.69000006    2.66000009
   13.38527775   92.40209961    2.67000008    2.67000008
   13.38861084   95.25080109    2.69000006    2.66000009
   13.39166641   84.56340027    2.67000008    2.67000008
   13.39777756   84.56340027    2.66000009    2.67000008
   13.40194416   87.82969666    2.64000010    2.67000008
   13.40527725   96.16989899    2.64000010    2.66000009
   13.40833282   93.78579712    2.64000010    2.67000008
   13.41166592   93.03900146    2.61999989    2.67000008
   13.41472149   88.48680115    2.61999989    2.66000009
   13.41805553   97.18599701    2.64000010    2.66000009
   13.42138958   93.94280243    2.61999989    2.67000008
   13.42444515  100.08699799    2.61999989    2.66000009
   13.42777824   99.51650238    2.64000010    2.66000009
   13.43111134   97.12460327    2.64000010    2.67000008
   13.43416691   97.08180237    2.66000009    2.67000008
   13.43472195   97.49120331    2.66000009    2.67000008
   13.44055557   97.49120331    2.64000010    2.67000008
   13.44472218   95.42749786    2.64000010    2.67000008
   13.44805527   96.09899902    2.66000009    2.67000008
   13.45111084   93.35970306    2.66000009    2.67000008
   13.45444393   91.75849915    2.66000009    2.67000008
   13.45777798   97.55699921    2.67000008    2.67000008
   13.46083355   97.00689697    2.67000008    2.67000008
   13.46416664   98.01570129    2.67000008    2.67000008
   13.46749973   92.44899750    2.67000008    2.69000006
   13.46805477   91.18589783    2.67000008    2.69000006
   13.47111034   95.20040131    2.67000008    2.67000008
   13.47444439   90.19049835    2.67000008    2.67000008
   13.47749996   88.58129883    2.67000008    2.67000008
   13.48361111   88.58129883    2.64000010    2.67000008
   13.48750019   96.17160034    2.61999989    2.67000008
   13.49083328   92.93530273    2.61999989    2.69000006
   13.49416733   92.42919922    2.61999989    2.67000008
   13.49722290   95.01480103    2.64000010    2.67000008
   13.50055599   90.42960358    2.66000009    2.67000008
   13.50138855   87.24109650    2.67000008    2.67000008
   13.50416660   83.82669830    2.66000009    2.67000008
   13.50749969   93.48889923    2.66000009    2.67000008
   13.51055527   95.20999908    2.66000009    2.67000008
   13.51388931   85.75540161    2.64000010    2.67000008
   13.51722240   88.98370361    2.61999989    2.67000008
   13.52027798   93.58999634    2.61999989    2.69000006
   13.52638817   93.58999634    2.59999990    2.67000008
   13.53055573   92.90799713    2.57999992    2.67000008
   13.53361130   86.34300232    2.57999992    2.67000008
   13.53472233   92.19529724    2.57999992    2.69000006
   13.53722286   95.18540192    2.55999994    2.67000008
   13.54055595   90.22250366    2.57999992    2.69000006
   13.54361153   93.72750092    2.57999992    2.69000006
   13.54694462   92.10359955    2.59999990    2.69000006
   13.55000019   89.40589905    2.57999992    2.69000006
   13.55333328   95.00319672    2.57999992    2.69000006
   13.55666733   87.00679779    2.59999990    2.69000006
   13.55972195   89.85910034    2.59999990    2.67000008
   13.56305599   86.96690369    2.59999990    2.67000008
   13.56916618   86.96690369    2.57999992    2.69000006
   13.57333374   92.85320282    2.55999994    2.69000006
   13.57666683   93.28330231    2.53999996    2.69000006
   13.57972240   94.97679901    2.53999996    2.69000006
   13.58305550   89.57530212    2.53999996    2.67000008
   13.58611107   95.65249634    2.53999996    2.69000006
   13.58944416   89.88220215    2.51999998    2.69000006
   13.59277725   87.80319977    2.51999998    2.67000008
   13.59583282   89.01760101    2.50000000    2.69000006
   13.59916592   92.66339874    2.50000000    2.69000006
   13.60138893   90.89260101    2.50000000    2.69000006
   13.60277843   92.29959869    2.48000002    2.69000006
   13.60611153   84.61250305    2.50000000    2.69000006
   13.61194515   84.61250305    2.53999996    2.69000006
   13.61611176   91.72200012    2.51999998    2.69000006
   13.61944485   89.75890350    2.51999998    2.69000006
   13.62250042   87.47429657    2.51999998    2.67000008
   13.62583351   90.48300171    2.51999998    2.69000006
   13.62916660   86.42520142    2.51999998    2.69000006
   13.63222218   86.71109772    2.51999998    2.69000006
   13.63472176   91.58950043    2.53999996    2.69000006
   13.63583279   91.75270081    2.51999998    2.69000006
   13.63916683   96.50469971    2.53999996    2.69000006
   13.64222240   89.92549896    2.55999994    2.69000006
   13.64555550   88.62359619    2.55999994    2.69000006
   13.64861107   89.49099731    2.55999994    2.69000006
   13.65499973   89.49099731    2.57999992    2.69000006
   13.65888882   91.53420258    2.55999994    2.69000006
   13.66222191   90.51309967    2.55999994    2.69000006
   13.66555500   94.95230103    2.55999994    2.69000006
   13.66805553   89.61589813    2.55999994    2.69000006
   13.66916656   97.31759644    2.57999992    2.69000006
   13.67250061   88.79239655    2.59999990    2.69000006
   13.67555618   89.94309998    2.59999990    2.71000004
   13.67888927   91.22570038    2.64000010    2.69000006
   13.68222237   94.65329742    2.64000010    2.69000006
   13.68527794   94.14600372    2.64000010    2.69000006
   13.68861103   91.65589905    2.64000010    2.69000006
   13.69166660   95.04290009    2.64000010    2.69000006
   13.69777775   95.04290009    2.64000010    2.69000006
   13.70194435   89.73760223    2.59999990    2.69000006
   13.70499992   89.68260193    2.59999990    2.69000006
   13.70833302   88.41729736    2.59999990    2.69000006
   13.71166611   89.83399963    2.59999990    2.71000004
   13.71472168   98.54859924    2.59999990    2.71000004
   13.71805477   88.04979706    2.57999992    2.71000004
   13.72111034   94.45539856    2.57999992    2.69000006
   13.72444439   89.70659637    2.59999990    2.69000006
   13.72777748   86.64880371    2.59999990    2.69000006
   13.73083305   94.31800079    2.57999992    2.71000004
   13.73416710   90.65290070    2.57999992    2.69000006
   13.73472214   88.61489868    2.57999992    2.69000006
   13.74055576   88.61489868    2.57999992    2.69000006
   13.74472237   89.64409637    2.57999992    2.71000004
   13.74805546   89.96859741    2.57999992    2.71000004
   13.75111103   90.74669647    2.55999994    2.69000006
   13.75444412   89.50659943    2.53999996    2.71000004
   13.75749969   90.45310211    2.51999998    2.71000004
   13.76083374   88.65370178    2.50000000    2.69000006
   13.76416683   83.21559906    2.48000002    2.69000006
   13.76722240   83.68409729    2.46000004    2.71000004
   13.76805496   87.16089630    2.46000004    2.71000004
   13.77083302   86.10009766    2.46000004    2.71000004
   13.77416611   89.58999634    2.48000002    2.71000004
   13.77722168   85.36720276    2.50000000    2.69000006
   13.78333378   85.36720276    2.51999998    2.69000006
   13.78750038   87.13919830    2.48000002    2.71000004
   13.79083347   90.68620300    2.46000004    2.69000006
   13.79388905   88.89350128    2.44000006    2.71000004
   13.79722309   90.67169952    2.46000004    2.73000002
   13.80055618   91.67230225    2.46000004    2.69000006
   13.80138874   92.33650208    2.46000004    2.71000004
   13.80416679   86.92079926    2.46000004    2.69000006
   13.80749989   90.56580353    2.44000006    2.71000004
   13.81055546   87.78739929    2.42000008    2.71000004
   13.81388950   89.97630310    2.40000010    2.71000004
   13.81722260   93.18180084    2.39000010    2.71000004
   13.82027817   96.02100372    2.36999989    2.71000004
   13.82638836   96.02100372    2.40000010    2.71000004
   13.83027744   92.75849915    2.36999989    2.71000004
   13.83361053   95.41179657    2.39000010    2.71000004
   13.83472157   87.93650055    2.39000010    2.71000004
   13.83722210   96.59980011    2.36999989    2.71000004
   13.84055519   91.96649933    2.42000008    2.71000004
   13.84361076   96.93869781    3.23000002    2.71000004
   13.84694386   99.99749756    3.23000002    2.71000004
   13.85027790   93.79000092    3.23000002    2.71000004
   13.85333347   93.58950043    3.26999998    2.71000004
   13.85666752   98.27390289    3.30999994    2.71000004
   13.85972214   88.67500305    3.34999990    2.71000004
   13.86305618   89.17400360    3.36999989    2.71000004
   13.86916637   89.17400360    3.36999989    2.71000004
   13.87333393   92.76959991    3.34999990    2.71000004
   13.87638855   91.41960144    3.36999989    2.71000004
   13.87972260   94.51100159    3.36999989    2.71000004
   13.88305569   97.67269897    3.36999989    2.73000002
   13.88611126   96.78040314    3.39000010    2.71000004
   13.88944435   94.48549652    3.32999992    2.71000004
   13.89249992   96.76490021    3.34999990    2.73000002
   13.89583302   94.35849762    3.36999989    2.71000004
   13.89916611   91.11190033    3.39000010    2.71000004
   13.90138817   94.94819641    3.39000010    2.71000004
   13.90277767   95.93009949    3.39000010    2.71000004
   13.90611076   92.60489655    3.41000009    2.71000004
   13.91194439   92.60489655    3.36999989    2.71000004
   13.91611099   92.93499756    3.34999990    2.71000004
   13.91944504  104.25599670    3.30999994    2.71000004
   13.92250061   96.40270233    3.30999994    2.71000004
   13.92583370  100.24800110    3.28999996    2.71000004
   13.92916679   96.87840271    3.26999998    2.73000002
   13.93222237   90.66790009    3.25000000    2.71000004
   13.93472195   98.06050110    3.26999998    2.73000002
   13.93583298   99.52919769    3.26999998    2.73000002
   13.93916702   97.62059784    3.28999996    2.71000004
   13.94222260   98.90519714    3.26999998    2.71000004
   13.94555569  100.13300323    3.28999996    2.71000004
   13.94888878   96.00969696    3.28999996    2.71000004
   13.95472240   96.00969696    3.30999994    2.75000000
   13.95888901   94.40859985    3.34999990    2.71000004
   13.96222210   90.77680206    3.34999990    2.73000002
   13.96527767   88.86430359    3.39000010    2.71000004
   13.96833324   94.94339752    3.39000010    2.73000002
   13.96888828   95.82080078    3.39000010    2.71000004
   13.97222137   91.92929840    3.41000009    2.73000002
   13.97527695  103.69999695    3.43000007    2.71000004
   13.97861099   97.02480316    3.41000009    2.73000002
   13.98194408   90.99089813    3.45000005    2.73000002
   13.98500061   93.47260284    3.46000004    2.73000002
   13.98833370   94.48840332    3.45000005    2.73000002
   13.99166679   95.25980377    3.46000004    2.73000002
   13.99777794   95.25980377    3.46000004    2.73000002
   14.00166702   94.09010315    3.45000005    2.71000004
   14.00500011   97.25920105    3.43000007    2.73000002
   14.00833321   91.76190186    3.39000010    2.73000002
   14.01138878  103.95300293    3.34999990    2.73000002
   14.01472187   93.10359955    3.34999990    2.73000002
   14.01805496   93.44779968    3.34999990    2.71000004
   14.02111053   93.89730072    3.30999994    2.73000002
   14.02444458   95.98149872    3.32999992    2.73000002
   14.02777767   90.84089661    3.28999996    2.73000002
   14.03083324   97.07990265    3.32999992    2.71000004
   14.03416729   96.70220184    3.36999989    2.73000002
   14.03500080   95.34639740    3.36999989    2.73000002
   14.04055595   95.34639740    3.41000009    2.71000004
   14.04472256  102.58000183    3.43000007    2.73000002
   14.04777813   98.55709839    3.45000005    2.73000002
   14.05111122   97.25389862    3.45000005    2.73000002
   14.05444431   93.62909698    3.43000007    2.73000002
   14.05749989   88.43389893    3.45000005    2.73000002
   14.06083393   99.85479736    3.45000005    2.73000002
   14.06388950   98.42250061    3.45000005    2.73000002
   14.06722260   95.73380280    3.46000004    2.73000002
   14.06833363   94.41539764    3.46000004    2.73000002
   14.07083321   95.35880280    3.48000002    2.75000000
   14.07416630   93.52719879    3.48000002    2.73000002
   14.07722187   89.38089752    3.45000005    2.73000002
   14.08333302   89.38089752    3.51999998    2.73000002
   14.08749962   96.07189941    3.48000002    2.71000004
   14.09083271   87.14679718    3.48000002    2.73000002
   14.09388828   92.93450165    3.43000007    2.73000002
   14.09722233   97.78949738    3.36999989    2.73000002
   14.10027790   97.68199921    3.34999990    2.73000002
   14.10166740   90.57610321    3.36999989    2.75000000
   14.10388947   95.18029785    3.32999992    2.71000004
   14.10722256   96.41880035    3.28999996    2.73000002
   14.11027813   93.68470001    3.28999996    2.73000002
   14.11361122   90.32689667    3.25000000    2.73000002
   14.11694431   92.30770111    3.30999994    2.75000000
   14.11999989   95.51000214    3.25000000    2.73000002
   14.12611103   95.51000214    3.28999996    2.73000002
   14.13027763   98.69879913    3.32999992    2.73000002
   14.13361073   96.29100037    3.36999989    2.73000002
   14.13500023   94.01570129    3.39000010    2.73000002
   14.13722229   98.48500061    3.39000010    2.73000002
   14.14055538  101.68299866    3.43000007    2.71000004
   14.14388847   93.95680237    3.48000002    2.73000002
   14.14694405   92.50389862    3.48000002    2.73000002
   14.15027714   93.34619904    3.51999998    2.73000002
   14.15333271   91.73960114    3.48000002    2.73000002
   14.15666676   92.40329742    3.50000000    2.75000000
   14.15999985   95.18540192    3.50000000    2.73000002
   14.16305542   93.29489899    3.48000002    2.73000002
   14.16916656   93.29489899    3.53999996    2.75000000
   14.17305565   99.22100067    3.51999998    2.73000002
   14.17638874   90.81109619    3.51999998    2.73000002
   14.17972279   85.97699738    3.51999998    2.73000002
   14.18277836   92.92140198    3.50000000    2.73000002
   14.18611145   92.73390198    3.45000005    2.73000002
   14.18944454   86.34670258    3.45000005    2.73000002
   14.19250011   92.99349976    3.43000007    2.73000002
   14.19583321   95.64730072    3.41000009    2.73000002
   14.19916630   88.40370178    3.43000007    2.75000000
   14.20166683   90.42579651    3.39000010    2.73000002
   14.20249939   91.32510376    3.41000009    2.73000002
   14.20583344   90.45120239    3.41000009    2.75000000
   14.21194458   90.45120239    3.43000007    2.73000002
   14.21611118   94.63009644    3.48000002    2.73000002
   14.21916580   95.57669830    3.46000004    2.73000002
   14.22249985   95.41040039    3.48000002    2.73000002
   14.22583294   96.55030060    3.50000000    2.73000002
   14.22888851   92.45510101    3.50000000    2.75000000
   14.23222160   94.20929718    3.55999994    2.73000002
   14.23500061   82.09420013    3.55999994    2.73000002
   14.23583317   83.26730347    3.53999996    2.75000000
   14.23916721   86.29940033    3.57999992    2.75000000
   14.24222279   92.64830017    3.57999992    2.73000002
   14.24555588   92.74579620    3.57999992    2.75000000
   14.24888897   93.04190063    3.55999994    2.73000002
   14.25472260   93.04190063    3.55999994    2.73000002
   14.25888920   92.62680054    3.55999994    2.73000002
   14.26222229   86.04270172    3.55999994    2.73000002
   14.26527786   90.23650360    3.59999990    2.73000002
   14.26833344   91.15959930    3.61999989    2.75000000
   14.26888847   90.05850220    3.59999990    2.73000002
   14.27222157   91.86009979    3.61999989    2.71000004
   14.27527714   93.98619843    3.61999989    2.73000002
   14.27861118   91.48120117    3.57999992    2.73000002
   14.28194427   95.88939667    3.51999998    2.73000002
   14.28500080   90.17469788    3.50000000    2.73000002
   14.28833389   88.67669678    3.48000002    2.73000002
   14.29166698   93.05599976    3.48000002    2.73000002
   14.29750061   93.05599976    3.39000010    2.73000002
   14.30166721   97.78720093    3.34999990    2.73000002
   14.30500031   94.38150024    3.36999989    2.75000000
   14.30805588   98.17209625    3.39000010    2.75000000
   14.31138897   90.38569641    3.41000009    2.73000002
   14.31472206   91.36340332    3.43000007    2.75000000
   14.31777763   91.85549927    3.48000002    2.73000002
   14.32111073   88.66220093    3.50000000    2.73000002
   14.32444477   93.05280304    3.51999998    2.73000002
   14.32750034   90.92739868    3.53999996    2.73000002
   14.33083344   90.08029938    3.51999998    2.73000002
   14.33388901   91.37529755    3.55999994    2.73000002
   14.33500004   92.52469635    3.57999992    2.73000002
   14.35555553   92.52469635    3.64000010    2.73000002
   14.35972214   95.31849670    3.55999994    2.73000002
   14.36305618   93.59490204    3.46000004    2.73000002
   14.36611176   89.85710144    3.43000007    2.75000000
   14.36833382   94.99819946    3.43000007    2.73000002
   14.36972237   94.97290039    3.45000005    2.75000000
   14.37305546   99.76930237    3.36999989    2.73000002
   14.37638855   96.80789948    3.34999990    2.75000000
   14.37944412   97.27279663    3.39000010    2.75000000
   14.38277817   95.02899933    3.39000010    2.75000000
   14.38583279   94.23930359    3.36999989    2.75000000
   14.38916683   89.97740173    3.43000007    2.73000002
   14.39249992   98.79779816    3.43000007    2.75000000
   14.39833355   98.79779816    3.48000002    2.75000000
   14.40249920   90.06199646    3.50000000    2.75000000
   14.40555477   92.79879761    3.51999998    2.75000000
   14.40888882   93.37349701    3.59999990    2.73000002
   14.41222191   88.56700134    3.55999994    2.75000000
   14.41527748   91.61660004    3.57999992    2.75000000
   14.41861153   84.45300293    3.59999990    2.75000000
   14.42194462   92.12220001    3.55999994    2.75000000
   14.42500019   88.31390381    3.55999994    2.73000002
   14.42833328   85.28340149    3.51999998    2.75000000
   14.43138885   90.26270294    3.51999998    2.75000000
   14.43472195   93.66220093    3.48000002    2.75000000
   14.43527794   86.37709808    3.51999998    2.75000000
   14.44111156   86.37709808    3.51999998    2.75000000
   14.44527817   88.46080017    3.51999998    2.75000000
   14.44861126   92.23329926    3.51999998    2.75000000
   14.45166683   86.21469879    3.51999998    2.75000000
   14.45499992   87.38140106    3.53999996    2.73000002
   14.45833302   91.71240234    3.48000002    2.75000000
   14.46138859   90.64830017    3.48000002    2.75000000
   14.46472168   89.85690308    3.46000004    2.73000002
   14.46777725   96.55770111    3.46000004    2.75000000
   14.46861076   99.65499878    3.46000004    2.73000002
   14.47166634  102.73699951    3.45000005    2.75000000
   14.47472191   88.75640106    3.48000002    2.73000002
   14.47805500   91.37920380    3.48000002    2.75000000
   14.48416710   91.37920380    3.46000004    2.75000000
   14.48805618   92.38410187    3.50000000    2.75000000
   14.49138927   92.88880157    3.51999998    2.75000000
   14.49472237   84.74659729    3.53999996    2.75000000
   14.49777794   85.83489990    3.55999994    2.75000000
   14.50111103   81.25299835    3.55999994    2.75000000
   14.50194454   81.14450073    3.51999998    2.75000000
   14.50472260   87.85220337    3.53999996    2.75000000
   14.50777817   94.30580139    3.51999998    2.75000000
   14.51111126   88.30049896    3.51999998    2.75000000
   14.51416683   87.12079620    2.21000004    2.73000002
   14.51749992   86.16329956    0.20999999    0.47999999
   14.52083302   89.01820374    0.11000000    0.05000000
   14.52694416   89.01820374    0.11000000    0.05000000
   14.53111076   85.26950073    0.11000000    0.05000000
   14.53416729   87.57779694    0.11000000    0.05000000
   14.53527832   88.77690125    0.11000000    0.05000000
   14.53805637   85.35079956    0.11000000    0.05000000
   14.54111195   84.46070099    0.11000000    0.05000000
   14.54444504   88.26809692    0.11000000    0.05000000
   14.54750061   87.51290131    0.11000000    0.05000000
   14.55083370   88.30359650    0.11000000    0.05000000
   14.55416679   88.18779755    0.11000000    0.05000000
   14.55722237   85.80629730    0.11000000    0.05000000
   14.56055546   90.45580292    0.11000000    0.05000000
   14.56388950   93.69370270    0.11000000    0.05000000
   14.56972218   93.69370270    0.11000000    0.05000000
   14.57388878   88.33860016    0.11000000    0.05000000
   14.57722187   88.44930267    0.11000000    0.05000000
   14.58027744   88.25340271    0.11000000    0.05000000
   14.58361053   86.55280304    0.11000000    0.05000000
   14.58666611   93.82569885    0.11000000    0.05000000
   14.59000015   90.45559692    0.11000000    0.05000000
   14.59333324   91.38059998    0.11000000    0.05000000
   14.59638882   85.66950226    0.11000000    0.05000000
   14.59972191   85.59899902    0.11000000    0.05000000
   14.60194492   86.61509705    0.11000000    0.05000000
   14.60333347   79.95809937    0.11000000    0.05000000
   14.60638905   88.81670380    0.11000000    0.05000000
   14.61250019   88.81670380    0.11000000    0.05000000
   14.61666679   81.67780304    0.11000000    0.05000000
   14.61999989   86.57340240    0.11000000    0.05000000
   14.62305546   88.15419769    0.11000000    0.05000000
   14.62638855   84.09860229    0.11000000    0.05000000
   14.62972260   84.48690033    0.11000000    0.05000000
   14.63277817   83.38379669    0.11000000    0.05000000
   14.63527775   85.29139709    0.11000000    0.05000000
   14.63666630   85.13410187    0.11000000    0.05000000
   14.63972187   82.24810028    0.11000000    0.05000000
   14.64305496   86.24549866    0.11000000    0.05000000
   14.64611053   87.27950287    0.11000000    0.05000000
   14.64944458   89.26760101    0.11000000    0.05000000
   14.65555477   89.26760101    0.11000000    0.05000000
   14.65944386   87.35939789    0.11000000    0.05000000
   14.66277695   98.59780121    0.11000000    0.05000000
   14.66611099   88.25759888    0.11000000    0.05000000
   14.66861153   85.69149780    0.11000000    0.05000000
   14.66972256   90.08360291    0.11000000    0.05000000
   14.67277813   90.01750183    0.11000000    0.05000000
   14.67611122   84.92749786    0.11000000    0.05000000
   14.67916679   83.80059814    0.11000000    0.05000000
   14.68249989   86.40609741    0.11000000    0.05000000
   14.68583298   84.24310303    0.11000000    0.05000000
   14.68888855   89.56629944    0.11000000    0.05000000
   14.69222260   88.54190063    0.11000000    0.05000000
   14.69833374   88.54190063    0.11000000    0.05000000
   14.70249939   89.01650238    0.11000000    0.05000000
   14.70555496   82.22090149    0.11000000    0.05000000
   14.70888901   87.51300049    0.11000000    0.05000000
   14.71194458   89.34349823    0.11000000    0.05000000
   14.71527767   87.80110168    0.11000000    0.05000000
   14.71861076   93.95809937    0.11000000    0.05000000
   14.72166634   85.18319702    0.11000000    0.05000000
   14.72499943   83.05960083    0.11000000    0.05000000
   14.72833252   87.13130188    0.11000000    0.05000000
   14.73138809   88.32700348    0.11000000    0.05000000
   14.73472214   90.77799988    0.11000000    0.05000000
   14.73527813   86.52850342    0.11000000    0.05000000
   14.74111176   86.52850342    0.11000000    0.05000000
   14.74527836   84.45110321    0.11000000    0.05000000
   14.74833393   89.89420319    0.11000000    0.05000000
   14.75166702   85.54540253    0.11000000    0.05000000
   14.75500011   86.78040314    0.11000000    0.05000000
   14.75805569   88.22709656    0.11000000    0.05000000
   14.76138878   88.26039886    0.11000000    0.05000000
   14.76472187   85.69709778    0.11000000    0.05000000
   14.76777744   87.98889923    0.11000000    0.05000000
   14.76861095   84.23239899    0.11000000    0.05000000
   14.77138901   82.57260132    0.11000000    0.05000000
   14.77444458   88.87879944    0.11000000    0.05000000
   14.77777767   84.70059967    0.11000000    0.05000000
   14.78388977   84.70059967    0.11000000    0.05000000
   14.78805637   85.50309753    0.11000000    0.05000000
   14.79138947   82.88249969    0.11000000    0.05000000
   14.79444504   83.13849640    0.11000000    0.05000000
   14.79777813   89.53379822    0.11000000    0.05000000
   14.80111122   86.29229736    0.11000000    0.05000000
   14.80194473   87.08190155    0.11000000    0.05000000
   14.80472279   86.68520355    0.11000000    0.05000000
   14.80777836   82.63629913    0.11000000    0.05000000
   14.81111145   84.93229675    0.11000000    0.05000000
   14.81444454   83.93070221    0.11000000    0.05000000
   14.81750011   86.41310120    0.11000000    0.05000000
   14.82083321   85.51390076    0.11000000    0.05000000
   14.82666683   85.51390076    0.11000000    0.05000000
   14.83083344   85.28089905    0.11000000    0.05000000
   14.83416653   84.43949890    0.11000000    0.05000000
   14.83527756   85.97270203    0.11000000    0.05000000
   14.83777714   87.25330353    0.11000000    0.05000000
   14.84083271   86.69400024    0.11000000    0.05000000
   14.84416676   84.63749695    0.11000000    0.05000000
   14.84749985   82.41069794    0.11000000    0.05000000
   14.85055637   86.09390259    0.11000000    0.05000000
   14.85388947   82.28829956    0.11000000    0.05000000
   14.85694504   84.17410278    0.11000000    0.05000000
   14.86027813   87.85019684    0.11000000    0.05000000
   14.86361122   84.65339661    0.11000000    0.05000000
   14.86972237   84.65339661    0.11000000    0.05000000
   14.87388897   85.24880219    0.11000000    0.05000000
   14.87694454   83.01480103    0.11000000    0.05000000
   14.88027763   84.62500000    0.11000000    0.05000000
   14.88333321   90.37270355    0.11000000    0.05000000
   14.88666630   83.28839874    0.11000000    0.05000000
   14.89000034   90.40550232    0.11000000    0.05000000
   14.89305496   89.19650269    0.11000000    0.05000000
   14.89638901   83.59359741    0.11000000    0.05000000
   14.89972210   84.04270172    0.11000000    0.05000000
   14.90194416   86.08339691    0.11000000    0.05000000
   14.90333271   91.99030304    0.11000000    0.05000000
   14.90638828   87.92289734    0.11000000    0.05000000
   14.91249943   87.92289734    0.11000000    0.05000000
   14.91666698   94.28320313    0.11000000    0.05000000
   14.91972256   90.55809784    0.11000000    0.05000000
   14.92305565   78.78649902    0.11000000    0.05000000
   14.92638874   87.58059692    0.11000000    0.05000000
   14.92944431   86.98229980    0.11000000    0.05000000
   14.93277836   91.76580048    0.11000000    0.05000000
   14.93527794   91.12580109    0.11000000    0.05000000
   14.93638897   89.51959991    0.11000000    0.05000000
   14.93944454   86.37550354    0.11000000    0.05000000
   14.94277763   85.92649841    0.11000000    0.05000000
   14.94611073   85.99949646    0.11000000    0.05000000
   14.94916630   87.04509735    0.11000000    0.05000000
   14.95527744   87.04509735    0.11000000    0.05000000
   14.95944405   91.67960358    0.11000000    0.05000000
   14.96277714   88.69010162    0.11000000    0.05000000
   14.96583271   86.64150238    0.11000000    0.05000000
   14.96861076   92.17890167    0.11000000    0.05000000
   14.96972179   84.27220154    0.11000000    0.05000000
   14.97277737   88.67720032    0.11000000    0.05000000
   14.97611046   86.38059998    0.11000000    0.05000000
   14.97944355   89.61669922    0.11000000    0.05000000
   14.98249912   85.23650360    0.11000000    0.05000000
   14.98583317   90.83630371    0.11000000    0.05000000
   14.98916721   89.83670044    0.11000000    0.05000000
   14.99222279   91.49099731    0.11000000    0.05000000
   14.99833393   91.49099731    0.11000000    0.05000000
   15.00222206   91.05020142    0.11000000    0.05000000
   15.00555515   91.39009857    0.11000000    0.05000000
   15.00888920   86.28160095    0.11000000    0.05000000
   15.01194477   90.74230194    0.11000000    0.05000000
   15.01527786   88.93419647    0.11000000    0.05000000
   15.01861095   80.23179626    0.11000000    0.05000000
   15.02166653   89.88210297    0.11000000    0.05000000
   15.02499962   83.74330139    0.11000000    0.05000000
   15.02833271   81.66419983    0.11000000    0.05000000
   15.03138828   84.89520264    0.11000000    0.05000000
   15.03472233   89.34539795    0.11000000    0.05000000
   15.03527832   89.58719635    0.11000000    0.05000000
   15.04111195   89.58719635    0.11000000    0.05000000
   15.04527855   78.02100372    0.11000000    0.05000000
   15.04833412   80.60970306    0.11000000    0.05000000
   15.05166721   88.36160278    0.11000000    0.05000000
   15.05472279   86.74400330    0.11000000    0.05000000
   15.05805588   93.33830261    0.11000000    0.05000000
   15.06138897   85.63439941    0.11000000    0.05000000
   15.06444454   82.66239929    0.11000000    0.05000000
   15.06777763   83.47399902    0.11000000    0.05000000
   15.06861115   84.18849945    0.11000000    0.05000000
   15.07138920   87.52590179    0.11000000    0.05000000
   15.07444477   84.02030182    0.11000000    0.05000000
   15.07777786   86.08540344    0.11000000    0.05000000
   15.08388901   86.08540344    0.11000000    0.05000000
   15.08805561   87.65879822    0.11000000    0.05000000
   15.09111118   89.49629974    0.11000000    0.05000000
   15.09444427   83.62930298    0.11000000    0.05000000
   15.09777737   84.20349884    0.11000000    0.05000000
   15.10083389   82.30120087    0.11000000    0.05000000
   15.10194492   86.29049683    0.11000000    0.05000000
   15.10444450   88.32440186    0.11000000    0.05000000
   15.10750008   81.59580231    0.11000000    0.05000000
   15.11083412   85.41709900    0.11000000    0.05000000
   15.11416721   86.08190155    0.11000000    0.05000000
   15.11722279   91.15090179    0.11000000    0.05000000
   15.12055588   90.85929871    0.11000000    0.05000000
   15.12666702   90.85929871    0.11000000    0.05000000
   15.13083363   92.13529968    0.11000000    0.05000000
   15.13416672   86.98069763    0.11000000    0.05000000
   15.13527775   87.50740051    0.11000000    0.05000000
   15.13777733   86.75990295    0.11000000    0.05000000
   15.14083290   90.29769897    0.11000000    0.05000000
   15.14416695   90.93890381    0.11000000    0.05000000
   15.14750004   93.62039948    0.11000000    0.05000000
   15.15055561   88.66079712    0.11000000    0.05000000
   15.15388870   90.54570007    0.11000000    0.05000000
   15.15722179   86.64939880    0.11000000    0.05000000
   15.16027737   86.18090057    0.11000000    0.05000000
   15.16361046   87.34120178    0.11000000    0.05000000
   15.16944504   87.34120178    0.11000000    0.05000000
   15.17361164   89.58329773    0.11000000    0.05000000
   15.17694473   86.49189758    0.11000000    0.05000000
   15.18027782   84.25800323    0.11000000    0.05000000
   15.18333340   86.18589783    0.11000000    0.05000000
   15.18666649   87.02819824    0.11000000    0.05000000
   15.19000053   87.83429718    0.11000000    0.05000000
   15.19305515   90.89900208    0.11000000    0.05000000
   15.19638920   88.92500305    0.11000000    0.05000000
   15.19972229   88.61350250    0.11000000    0.05000000
   15.20194435   86.65650177    0.11000000    0.05000000
   15.20333290   86.80539703    0.11000000    0.05000000
   15.20666695   88.34349823    0.11000000    0.05000000
   15.21249962   88.34349823    0.11000000    0.05000000
   15.21666622   89.28520203    0.11000000    0.05000000
   15.21972179   90.67030334    0.11000000    0.05000000
   15.22305489   87.64060211    0.11000000    0.05000000
   15.22611046   82.53050232    0.11000000    0.05000000
   15.22944355   87.73149872    0.11000000    0.05000000
   15.23277760   92.38459778    0.11000000    0.05000000
   15.23527813   89.86350250    0.11000000    0.05000000
   15.23638916   92.64029694    0.11000000    0.05000000
   15.23972225   88.73429871    0.11000000    0.05000000
   15.24277782   86.12169647    0.11000000    0.05000000
   15.24611092   87.60980225    0.11000000    0.05000000
   15.24916649   87.20939636    0.11000000    0.05000000
   15.25527763   87.20939636    0.11000000    0.05000000
   15.25944424   93.43270111    0.11000000    0.05000000
   15.26249981   90.71099854    0.11000000    0.05000000
   15.26583290   86.77819824    0.11000000    0.05000000
   15.26861095   85.71659851    0.11000000    0.05000000
   15.26944447   89.70200348    0.11000000    0.05000000
   15.27250004   86.48560333    0.11000000    0.05000000
   15.27583313   86.36219788    0.11000000    0.05000000
   15.27916622   81.11799622    0.11000000    0.05000000
   15.28222179   86.94470215    0.11000000    0.05000000
   15.28555584   85.59500122    0.11000000    0.05000000
   15.28888893   80.09649658    0.11000000    0.05000000
   15.29194450   82.16979980    0.11000000    0.05000000
   15.29805565   82.16979980    0.11000000    0.05000000
   15.30222225   84.59690094    0.11000000    0.05000000
   15.30555534   85.01969910    0.11000000    0.05000000
   15.30861092   87.16500092    0.11000000    0.05000000
   15.31194496   83.51339722    0.11000000    0.05000000
   15.31527805   86.99690247    0.11000000    0.05000000
   15.31833363   82.37300110    0.11000000    0.05000000
   15.32166672   84.55120087    0.11000000    0.05000000
   15.32472229   83.38369751    0.11000000    0.05000000
   15.32805538   85.88770294    0.11000000    0.05000000
   15.33138847   83.35739899    0.11000000    0.05000000
   15.33444405   88.83480072    0.11000000    0.05000000
   15.33527756   85.93260193    0.11000000    0.05000000
   15.34083271   85.93260193    0.11000000    0.05000000
   15.34499931   85.05660248    0.11000000    0.05000000
   15.34833336   84.90540314    0.11000000    0.05000000
   15.35166740   87.65470123    0.11000000    0.05000000
   15.36916637   87.37429810    0.11000000    0.05000000
   15.37166691   86.01570129    0.11000000    0.05000000
   15.37472248   95.22059631    0.11000000    0.05000000
   15.37805557   89.84049988    0.11000000    0.05000000
   15.38388920   89.84049988    0.11000000    0.05000000
   15.38805580   82.40399933    0.11000000    0.05000000
   15.39138889   84.01090240    0.11000000    0.05000000
   15.39444447   85.72660065    0.11000000    0.05000000
   15.39777756   87.60279846    0.11000000    0.05000000
   15.40111065   81.30989838    0.11000000    0.05000000
   15.40222168   84.46540070    0.11000000    0.05000000
   15.40444374   84.31829834    0.11000000    0.05000000
   15.40777779   81.93340302    0.11000000    0.05000000
   15.41083336   81.14189911    0.11000000    0.05000000
   15.41416645   87.05829620    0.11000000    0.05000000
   15.41750050   85.17510223    0.11000000    0.05000000
   15.42055607   83.97879791    0.11000000    0.05000000
   15.42666721   83.97879791    0.11000000    0.05000000
   15.43083382   81.29869843    0.11000000    0.05000000
   15.43416691   80.65879822    0.11000000    0.05000000
   15.43583298   84.59999847    0.11000000    0.05000000
   15.43777752   84.18450165    0.11000000    0.05000000
   15.44111156   87.86479950    0.11000000    0.05000000
   15.44416714   80.96119690    0.11000000    0.05000000
   15.44750023   87.31109619    0.11000000    0.05000000
   15.45083332   81.07270050    0.11000000    0.05000000
   15.45416641   85.47149658    0.11000000    0.05000000
   15.45722198   83.85780334    0.11000000    0.05000000
   15.46055508   81.03859711    0.11000000    0.05000000
   15.46388912   86.32250214    0.11000000    0.05000000
   15.46972179   86.32250214    0.11000000    0.05000000
   15.47388840   85.41819763    0.11000000    0.05000000
   15.47694397   84.95169830    0.11000000    0.05000000
   15.48027706   91.21499634    0.11000000    0.05000000
   15.48333359   86.93129730    0.11000000    0.05000000
   15.48666668   85.27649689    0.11000000    0.05000000
   15.49000072   83.05010223    0.11000000    0.05000000
   15.49305534   86.96080017    0.11000000    0.05000000
   15.49638939   87.00029755    0.11000000    0.05000000
   15.49972248   86.60649872    0.11000000    0.05000000
   15.50249958   80.73120117    0.11000000    0.05000000
   15.50305557   81.87940216    0.11000000    0.05000000
   15.50638866   82.88749695    0.11000000    0.05000000
   15.51249981   82.88749695    0.11000000    0.05000000
   15.51666641   82.96959686    0.11000000    0.05000000
   15.51972198   85.37969971    0.11000000    0.05000000
   15.52305508   84.73699951    0.11000000    0.05000000
   15.52638817   83.67199707    0.11000000    0.05000000
   15.52944374   79.80059814    0.11000000    0.05000000
   15.53277779   82.02510071    0.11000000    0.05000000
   15.53583336   85.48860168    0.11000000    0.05000000
   15.53638935   86.02790070    0.11000000    0.05000000
   15.53972244   90.62719727    0.11000000    0.05000000
   15.54305553   82.50499725    0.11000000    0.05000000
   15.54611111   85.08879852    0.11000000    0.05000000
   15.54944515   88.57309723    0.11000000    0.05000000
   15.55527782   88.57309723    0.11000000    0.05000000
   15.55944443   86.33840179    0.11000000    0.05000000
   15.56277752   83.58110046    0.11000000    0.05000000
   15.56583309   81.62010193    0.11000000    0.05000000
   15.56916618   87.64469910    0.11000000    0.05000000
   15.56944466   85.06179810    0.11000000    0.05000000
   15.57277775   83.37460327    0.11000000    0.05000000
   15.57583332   85.05370331    0.11000000    0.05000000
   15.57916641   88.89499664    0.11000000    0.05000000
   15.58249950   81.85169983    0.11000000    0.05000000
   15.58555508   90.75559998    0.11000000    0.05000000
   15.58888817   81.91709900    0.11000000    0.05000000
   15.59222221   81.00240326    0.11000000    0.05000000
   15.59805489   81.00240326    0.11000000    0.05000000
   15.60222244   86.71849823    0.11000000    0.05000000
   15.60277843   85.54070282    0.11000000    0.05000000
   15.60611153   82.89869690    0.11000000    0.05000000
   15.60916710   88.12229919    0.11000000    0.05000000
   15.61250019   88.38140106    0.11000000    0.05000000
   15.61583328   87.92759705    0.11000000    0.05000000
   15.61888885   87.78520203    0.11000000    0.05000000
   15.62222195   83.15560150    0.11000000    0.05000000
   15.62555599   85.45909882    0.11000000    0.05000000
   15.62861156   87.31169891    0.11000000    0.05000000
   15.63194466   83.37770081    0.11000000    0.05000000
   15.63527775   89.74289703    0.11000000    0.05000000
   15.63611126   86.71040344    0.11000000    0.05000000
   15.64111137   86.71040344    0.11000000    0.05000000
   15.64527798   82.76309967    0.11000000    0.05000000
   15.64833355   82.62030029    0.11000000    0.05000000
   15.65166664   82.42289734    0.11000000    0.05000000
   15.65472221   83.09300232    0.11000000    0.05000000
   15.65805531   87.26580048    0.11000000    0.05000000
   15.66138840   84.79579926    0.11000000    0.05000000
   15.66444397   79.48609924    0.11000000    0.05000000
   15.66777802   88.00219727    0.11000000    0.05000000
   15.66944504   80.64920044    0.11000000    0.05000000
   15.67138958   84.86660004    0.11000000    0.05000000
   15.67444515   88.71179962    0.11000000    0.05000000
   15.67777824   88.71320343    0.11000000    0.05000000
   15.68388939   88.71320343    0.11000000    0.05000000
   15.68805599   83.25849915    0.11000000    0.05000000
   15.69111156   86.03269958    0.11000000    0.05000000
   15.69444466   90.27339935    0.11000000    0.05000000
   15.69777775   83.21669769    0.11000000    0.05000000
   15.70083332   86.47550201    0.11000000    0.05000000
   15.70277786   85.48960114    0.11000000    0.05000000
   15.70444393   84.18509674    0.11000000    0.05000000
   15.70749950   84.85260010    0.11000000    0.05000000
   15.71083355   83.04589844    0.11000000    0.05000000
   15.71416664   84.76699829    0.11000000    0.05000000
   15.71722221   81.26840210    0.11000000    0.05000000
   15.72055531   82.16439819    0.11000000    0.05000000
   15.72666645   82.16439819    0.11000000    0.05000000
   15.73083305   90.63330078    0.11000000    0.05000000
   15.73416710   88.98329926    0.11000000    0.05000000
   15.73611164   83.14980316    0.11000000    0.05000000
   15.73777771   83.48690033    0.11000000    0.05000000
   15.74111176   85.28320313    0.11000000    0.05000000
   15.74416733   85.90660095    0.11000000    0.05000000
   15.74750042   85.14790344    0.11000000    0.05000000
   15.75055599   86.45200348    0.11000000    0.05000000
   15.75388908   81.56289673    0.11000000    0.05000000
   15.75722218   85.44529724    0.11000000    0.05000000
   15.76027775   77.90029907    0.11000000    0.05000000
   15.76361084   85.02480316    0.11000000    0.05000000
   15.76944447   85.02480316    0.11000000    0.05000000
   15.77361107   80.66580200    0.11000000    0.05000000
   15.77694416   83.38569641    0.11000000    0.05000000
   15.78027725   80.00119781    0.11000000    0.05000000
   15.78333378   83.06300354    0.11000000    0.05000000
   15.78666687   83.83989716    0.11000000    0.05000000
   15.79000092   77.91049957    0.11000000    0.05000000
   15.79305553   89.25029755    0.11000000    0.05000000
   15.79638958   84.89499664    0.11000000    0.05000000
   15.79944515   83.18759918    0.11000000    0.05000000
   15.80277824   88.21859741    0.11000000    0.05000000
   15.80333328   86.57820129    0.11000000    0.05000000
   15.80666733   81.33750153    0.11000000    0.05000000
   15.81250000   81.33750153    0.11000000    0.05000000
   15.81638908   87.04570007    0.11000000    0.05000000
   15.81972218   89.38240051    0.11000000    0.05000000
   15.82305527   85.41860199    0.11000000    0.05000000
   15.82611084   90.07890320    0.11000000    0.05000000
   15.82944393   84.42949677    0.11000000    0.05000000
   15.83277798   82.85150146    0.11000000    0.05000000
   15.83583260   81.13929749    0.11000000    0.05000000
   15.83666611   92.52770233    0.11000000    0.05000000
   15.83972168   89.78250122    0.11000000    0.05000000
   15.84277725   89.72679901    0.11000000    0.05000000
   15.84611034   90.06120300    0.11000000    0.05000000
   15.84916592   87.58830261    0.11000000    0.05000000
   15.85527802   87.58830261    0.11000000    0.05000000
   15.85944462   77.86969757    0.11000000    0.05000000
   15.86250019   82.20429993    0.11000000    0.05000000
   15.86583328   84.19210052    0.11000000    0.05000000
   15.86916637   88.09230042    0.11000000    0.05000000
   15.86999989   86.62640381    0.11000000    0.05000000
   15.87277794   88.03600311    0.11000000    0.05000000
   15.87583351   87.61029816    0.11000000    0.05000000
   15.87916660   82.69300079    0.11000000    0.05000000
   15.88222218   85.77400208    0.11000000    0.05000000
   15.88555527   87.90979767    0.11000000    0.05000000
   15.88888836   83.75129700    0.11000000    0.05000000
   15.89194393   87.13410187    0.11000000    0.05000000
   15.89805508   87.13410187    0.11000000    0.05000000
   15.90222168   89.63249969    0.11000000    0.05000000
   15.90333271   83.68150330    0.11000000    0.05000000
   15.90583324   82.90910339    0.11000000    0.05000000
   15.90888882   83.43609619    0.11000000    0.05000000
   15.91222191   82.11609650    0.11000000    0.05000000
   15.91527748   86.19219971    0.11000000    0.05000000
   15.91861153   88.41030121    0.11000000    0.05000000
   15.92194462   86.63719940    0.11000000    0.05000000
   15.92500019   90.05650330    0.11000000    0.05000000
   15.92833328   83.81980133    0.11000000    0.05000000
   15.93166733   83.70269775    0.11000000    0.05000000
   15.93472195   81.03669739    0.11000000    0.05000000
   15.93666649   84.05149841    0.11000000    0.05000000
   15.94083309   84.05149841    0.11000000    0.05000000
   15.94499969   83.17250061    0.11000000    0.05000000
   15.94833374   88.43160248    0.11000000    0.05000000
   15.95138836   88.13469696    0.11000000    0.05000000
   15.95472240   87.31929779    0.11000000    0.05000000
   15.95805550   87.78469849    0.11000000    0.05000000
   15.96138859   86.77570343    0.11000000    0.05000000
   15.96444416   84.57450104    0.11000000    0.05000000
   15.96777725   90.08719635    0.11000000    0.05000000
   15.96999931   85.26049805    0.11000000    0.05000000
   15.97138882   84.44640350    0.11000000    0.05000000
   15.97444439   85.51950073    0.11000000    0.05000000
   15.97777748   84.09120178    0.11000000    0.05000000
   15.98388958   84.09120178    0.11000000    0.05000000
   15.98777771   81.49980164    0.11000000    0.05000000
   15.99111176   83.83580017    0.11000000    0.05000000
   15.99444485   84.63009644    0.11000000    0.05000000
   15.99750042   84.20600128    0.11000000    0.05000000
   16.00083351   91.03099823    0.11000000    0.05000000
   16.00333405   84.01239777    0.11000000    0.05000000
   16.00444412   80.78959656    0.11000000    0.05000000
   16.00749969   85.34899902    0.11000000    0.05000000
   16.01083374   80.01210022    0.11000000    0.05000000
   16.01388931   81.84230042    0.11000000    0.05000000
   16.01722145   81.65290070    0.11000000    0.05000000
   16.02055550   89.03949738    0.11000000    0.05000000
   16.02666664   89.03949738    0.11000000    0.05000000
   16.03083229   87.39240265    0.11000000    0.05000000
   16.03388786   83.98490143    0.11000000    0.05000000
   16.03666687   87.57469940    0.11000000    0.05000000
   16.03777695   83.96890259    0.11000000    0.05000000
   16.04083252   87.06449890    0.11000000    0.05000000
   16.04416656   88.58650208    0.11000000    0.05000000
   16.04749870   81.25160217    0.11000000    0.05000000
   16.05055428   85.47509766    0.11000000    0.05000000
   16.05388832   84.72920227    0.11000000    0.05000000
   16.05694389   89.53109741    0.11000000    0.05000000
   16.06027794   84.77369690    0.11000000    0.05000000
   16.06361008   84.10510254    0.11000000    0.05000000
   16.06944466   84.10510254    0.11000000    0.05000000
   16.07361221   86.81050110    0.11000000    0.05000000
   16.07694626   83.03420258    0.11000000    0.05000000
   16.08000183   88.12779999    0.11000000    0.05000000
   16.08333397   83.54340363    0.11000000    0.05000000
   16.08638954   83.12439728    0.11000000    0.05000000
   16.08972359   85.01529694    0.11000000    0.05000000
   16.09305573   83.86350250    0.11000000    0.05000000
   16.09611130   82.39360046    0.11000000    0.05000000
   16.09944534   82.25920105    0.11000000    0.05000000
   16.10277748   84.67720032    0.11000000    0.05000000
   16.10444450   83.22920227    0.11000000    0.05000000
   16.10639000   84.60420227    0.11000000    0.05000000
   16.11222267   84.60420227    0.11000000    0.05000000
   16.11638832   85.07389832    0.11000000    0.05000000
   16.11972237   89.54270172    0.11000000    0.05000000
   16.12305641   91.79720306    0.11000000    0.05000000
   16.12611198   85.07579803    0.11000000    0.05000000
   16.12944412   84.81529999    0.11000000    0.05000000
   16.13277817   84.95099640    0.11000000    0.05000000
   16.13583374   87.46379852    0.11000000    0.05000000
   16.13777733   87.47910309    0.11000000    0.05000000
   16.13944435   90.19760132    0.11000000    0.05000000
   16.14249992   82.96620178    0.11000000    0.05000000
   16.14583397   82.61669922    0.11000000    0.05000000
   16.14916611   86.17829895    0.11000000    0.05000000
   16.15499878   86.17829895    0.11000000    0.05000000
   16.15916634   87.83190155    0.11000000    0.05000000
   16.16250038   87.82019806    0.11000000    0.05000000
   16.16583252   87.90660095    0.11000000    0.05000000
   16.16888809   88.74510193    0.11000000    0.05000000
   16.17138863   83.34439850    0.11000000    0.05000000
   16.17249870   87.69349670    0.11000000    0.05000000
   16.17583275   86.63839722    0.11000000    0.05000000
   16.17916679   83.58920288    0.11000000    0.05000000
   16.18222237   83.33969879    0.11000000    0.05000000
   16.18555450   90.65799713    0.11000000    0.05000000
   16.18888855   89.89949799    0.11000000    0.05000000
   16.19194412   90.63349915    0.11000000    0.05000000
   16.19805527   90.63349915    0.11000000    0.05000000
   16.20222282   88.66600037    0.11000000    0.05000000
   16.20472336   89.70520020    0.11000000    0.05000000
   16.20555687   87.87120056    0.11000000    0.05000000
   16.20888901   89.10220337    0.11000000    0.05000000
   16.21222305   86.56479645    0.11000000    0.05000000
   16.21527863   93.48490143    0.11000000    0.05000000
   16.21861076   89.73570251    0.11000000    0.05000000
   16.22194481   88.47180176    0.11000000    0.05000000
   16.22500038   83.83399963    0.11000000    0.05000000
   16.22833443   86.26010132    0.11000000    0.05000000
   16.23139000   79.95420074    0.11000000    0.05000000
   16.23472214   84.52100372    0.11000000    0.05000000
   16.24083328   84.52100372    0.11000000    0.05000000
   16.24500084   84.29869843    0.11000000    0.05000000
   16.24833298   85.64620209    0.11000000    0.05000000
   16.25138855   86.10980225    0.11000000    0.05000000
   16.25472260   89.48300171    0.11000000    0.05000000
   16.25805473   84.76129913    0.11000000    0.05000000
   16.26111031   86.74720001    0.11000000    0.05000000
   16.26444435   83.82599640    0.11000000    0.05000000
   16.26749992   87.60299683    0.11000000    0.05000000
   16.27083397   86.66739655    0.11000000    0.05000000
   16.27166557   86.25070190    0.11000000    0.05000000
   16.27444458   88.83260345    0.11000000    0.05000000
   16.27777672   88.12770081    0.11000000    0.05000000
   16.28361130   88.12770081    0.11000000    0.05000000
   16.28777695   87.99669647    0.11000000    0.05000000
   16.29111099   91.86830139    0.11000000    0.05000000
   16.29444313   85.71269989    0.11000000    0.05000000
   16.29749870   82.93759918    0.11000000    0.05000000
   16.30083275   80.84149933    0.11000000    0.05000000
   16.30388832   85.26180267    0.11000000    0.05000000
   16.30499840   91.71420288    0.11000000    0.05000000
   16.30749893   82.46140289    0.11000000    0.05000000
   16.31083298   83.62149811    0.11000000    0.05000000
   16.31388855   86.52559662    0.11000000    0.05000000
   16.31722260   88.84780121    0.11000000    0.05000000
   16.32027817   89.45069885    0.11000000    0.05000000
   16.32666779   89.45069885    0.11000000    0.05000000
   16.33055687   83.14440155    0.11000000    0.05000000
   16.33388901   84.76339722    0.11000000    0.05000000
   16.33722305   82.19080353    0.11000000    0.05000000
   16.33861160   85.20279694    0.11000000    0.05000000
   16.34083366   82.94280243    0.11000000    0.05000000
   16.34388924   82.93920135    0.11000000    0.05000000
   16.34722328   85.23580170    0.11000000    0.05000000
   16.35055542   83.79989624    0.11000000    0.05000000
   16.35361099   87.24019623    0.11000000    0.05000000
   16.35694504   86.61789703    0.11000000    0.05000000
   16.36000061   85.28690338    0.11000000    0.05000000
   16.36333466   88.23449707    0.11000000    0.05000000
   16.36944389   88.23449707    0.11000000    0.05000000
   16.38777733   85.15119934    0.11000000    0.05000000
   16.39111137   82.88939667    0.11000000    0.05000000
   16.39416695   85.75730133    0.11000000    0.05000000
   16.39749908   84.22979736    0.11000000    0.05000000
   16.40055466   81.99960327    0.11000000    0.05000000
   16.40388870   82.48770142    0.11000000    0.05000000
   16.40722275   85.56279755    0.11000000    0.05000000
   16.41250038   85.56279755    0.11000000    0.05000000
   16.41666603   84.57550049    0.11000000    0.05000000
   16.41972160   82.83630371    0.11000000    0.05000000
   16.42083359   84.94529724    0.11000000    0.05000000
   16.42333221   81.18389893    0.11000000    0.05000000
   16.42666626   84.83830261    0.11000000    0.05000000
   16.43000031   84.81710052    0.11000000    0.05000000
   16.43305397   80.28900146    0.11000000    0.05000000
   16.43638802   92.98259735    0.11000000    0.05000000
   16.43972206   89.27850342    0.11000000    0.05000000
   16.44277763   83.02210236    0.11000000    0.05000000
   16.44610977   83.72450256    0.11000000    0.05000000
   16.44916534   83.27580261    0.11000000    0.05000000
   16.45527840   83.27580261    0.11000000    0.05000000
   16.45944595   83.28540039    0.11000000    0.05000000
   16.46277809   83.14099884    0.11000000    0.05000000
   16.46583366   86.85549927    0.11000000    0.05000000
   16.46916771   82.33439636    0.11000000    0.05000000
   16.47249985   82.01629639    0.11000000    0.05000000
   16.47555542   82.78119659    0.11000000    0.05000000
   16.47888947   85.86519623    0.11000000    0.05000000
   16.48222351   86.76599884    0.11000000    0.05000000
   16.48527718   85.30699921    0.11000000    0.05000000
   16.48750114   87.92590332    0.11000000    0.05000000
   16.48944473   83.94090271    0.11000000    0.05000000
   16.49250031   84.33070374    0.11000000    0.05000000
   16.49805641   84.33070374    0.11000000    0.05000000
   16.50222206   86.19960022    0.11000000    0.05000000
   16.50555611   86.26139832    0.11000000    0.05000000
   16.50861168   89.94139862    0.11000000    0.05000000
   16.51194382   81.00839996    0.11000000    0.05000000
   16.51527786   85.80169678    0.11000000    0.05000000
   16.51833344   85.76979828    0.11000000    0.05000000
   16.52083397   85.79540253    0.11000000    0.05000000
   16.52222252   86.89080048    0.11000000    0.05000000
   16.52527809   81.35379791    0.11000000    0.05000000
   16.52861023   85.80690002    0.11000000    0.05000000
   16.53166580   82.98390198    0.11000000    0.05000000
   16.53499985   83.66439819    0.11000000    0.05000000
   16.54111099   83.66439819    0.11000000    0.05000000
   16.54500008   89.18229675    0.11000000    0.05000000
   16.54833221   85.70939636    0.11000000    0.05000000
   16.55166626   87.51629639    0.11000000    0.05000000
   16.55416679   86.90769958    0.11000000    0.05000000
   16.55527687   86.90920258    0.11000000    0.05000000
   16.55833244   81.16539764    0.11000000    0.05000000
   16.56166649   87.39340210    0.11000000    0.05000000
   16.56499863   87.09780121    0.11000000    0.05000000
   16.56805611   87.79229736    0.11000000    0.05000000
   16.57139015   85.55909729    0.11000000    0.05000000
   16.57472229   86.44490051    0.11000000    0.05000000
   16.57777786   85.44450378    0.11000000    0.05000000
   16.58388901   85.44450378    0.11000000    0.05000000
   16.58805656   86.89800262    0.11000000    0.05000000
   16.59111214   89.82810211    0.11000000    0.05000000
   16.59444427   86.23229980    0.11000000    0.05000000
   16.59749985   84.87650299    0.11000000    0.05000000
   16.60083389   85.76229858    0.11000000    0.05000000
   16.60416794   86.59359741    0.11000000    0.05000000
   16.60722351   85.95809937    0.11000000    0.05000000
   16.61055565   84.12920380    0.11000000    0.05000000
   16.61388969   87.57759857    0.11000000    0.05000000
   16.61694527   89.67949677    0.11000000    0.05000000
   16.62027740   88.56060028    0.11000000    0.05000000
   16.62083435   88.42600250    0.11000000    0.05000000
   16.62666702   88.42600250    0.11000000    0.05000000
   16.63083267   87.36139679    0.11000000    0.05000000
   16.63388824   87.66539764    0.11000000    0.05000000
   16.63722229   86.27670288    0.11000000    0.05000000
   16.64055634   92.14630127    0.11000000    0.05000000
   16.64361191   88.47899628    0.11000000    0.05000000
   16.64694405   85.19589996    0.11000000    0.05000000
   16.65027809   83.52700043    0.11000000    0.05000000
   16.65333366   80.34190369    0.11000000    0.05000000
   16.65416718   88.14800262    0.11000000    0.05000000
   16.65722275   87.69370270    0.11000000    0.05000000
   16.66027832   83.15529633    0.11000000    0.05000000
   16.66361046   85.12689972    0.11000000    0.05000000
   16.66944313   85.12689972    0.11000000    0.05000000
   16.67361069   83.78250122    0.11000000    0.05000000
   16.67694473   86.47720337    0.11000000    0.05000000
   16.68000031   80.58149719    0.11000000    0.05000000
   16.68333244   82.53710175    0.11000000    0.05000000
   16.68666649   83.56980133    0.11000000    0.05000000
   16.68750000   85.50530243    0.11000000    0.05000000
   16.69027710   86.04560089    0.11000000    0.05000000
   16.69333267   83.07949829    0.11000000    0.05000000
   16.69666672   86.47119904    0.11000000    0.05000000
   16.69972038   86.24970245    0.11000000    0.05000000
   16.70305634   82.53209686    0.11000000    0.05000000
   16.70639038   92.04779816    0.11000000    0.05000000
   16.71250153   92.04779816    0.11000000    0.05000000
   16.71638870   83.99530029    0.11000000    0.05000000
   16.71972275   87.75910187    0.11000000    0.05000000
   16.72083473   84.80660248    0.11000000    0.05000000
   16.72333336   87.97209930    0.11000000    0.05000000
   16.72638893   82.14099884    0.11000000    0.05000000
   16.72972298   84.53720093    0.11000000    0.05000000
   16.73277855   87.72959900    0.11000000    0.05000000
   16.73611069   86.43029785    0.11000000    0.05000000
   16.73944473   85.33209991    0.11000000    0.05000000
   16.74250031   86.17009735    0.11000000    0.05000000
   16.74583435   86.25189972    0.11000000    0.05000000
   16.74916649   83.58550262    0.11000000    0.05000000
   16.75527763   83.58550262    0.11000000    0.05000000
   16.75944519   85.83010101    0.11000000    0.05000000
   16.76250076   86.05619812    0.11000000    0.05000000
   16.76583290   86.83719635    0.11000000    0.05000000
   16.76888847   84.10959625    0.11000000    0.05000000
   16.77222252   84.33139801    0.11000000    0.05000000
   16.77555466   87.39250183    0.11000000    0.05000000
   16.77861023   84.24590302    0.11000000    0.05000000
   16.78194427   84.09439850    0.11000000    0.05000000
   16.78527641   81.54540253    0.11000000    0.05000000
   16.78750038   83.83660126    0.11000000    0.05000000
   16.78888893   84.09049988    0.11000000    0.05000000
   16.79194450   83.02130127    0.11000000    0.05000000
   16.79805565   83.02130127    0.11000000    0.05000000
   16.80222130   83.31639862    0.11000000    0.05000000
   16.80527687   81.05780029    0.11000000    0.05000000
   16.80861092   81.57849884    0.11000000    0.05000000
   16.81194305   83.19470215    0.11000000    0.05000000
   16.81499863   81.17870331    0.11000000    0.05000000
   16.81833458   86.22560120    0.11000000    0.05000000
   16.82083511   82.77500153    0.11000000    0.05000000
   16.82194519   82.32189941    0.11000000    0.05000000
   16.82500076   82.52010345    0.11000000    0.05000000
   16.82833481   81.21640015    0.11000000    0.05000000
   16.83166695   85.46880341    0.11000000    0.05000000
   16.83472252   84.98860168    0.11000000    0.05000000
   16.84083366   84.98860168    0.11000000    0.05000000
   16.84500122   83.54109955    0.11000000    0.05000000
   16.84833336   83.53379822    0.11000000    0.05000000
   16.85138893   81.99690247    0.11000000    0.05000000
   16.85416794   81.71469879    0.11000000    0.05000000
   16.85527802   80.23750305    0.11000000    0.05000000
   16.85833359   80.42160034    0.11000000    0.05000000
   16.86166763   81.19529724    0.11000000    0.05000000
   16.86499977   80.01119995    0.11000000    0.05000000
   16.86805534   80.90950012    0.11000000    0.05000000
   16.87138939   80.87310028    0.11000000    0.05000000
   16.87444496   76.34670258    0.11000000    0.05000000
   16.87777710   82.71379852    0.11000000    0.05000000
   16.88388824   82.71379852    0.11000000    0.05000000
   16.88777733   81.55829620    0.11000000    0.05000000
   16.89111137   86.06030273    0.11000000    0.05000000
   16.89444351   81.26149750    0.11000000    0.05000000
   16.89777756   84.08100128    0.11000000    0.05000000
   16.90083313   84.85160065    0.11000000    0.05000000
   16.90416718   83.32160187    0.11000000    0.05000000
   16.90722275   86.90249634    0.11000000    0.05000000
   16.91055489   80.00460052    0.11000000    0.05000000
   16.91388893   83.04660034    0.11000000    0.05000000
   16.91694450   82.55819702    0.11000000    0.05000000
   16.92027664   85.68630219    0.11000000    0.05000000
   16.92083359   82.22419739    0.11000000    0.05000000
   16.92666626   82.22419739    0.11000000    0.05000000
   16.93083191   80.97619629    0.11000000    0.05000000
   16.93388748   88.54219818    0.11000000    0.05000000
   16.93722153   85.61239624    0.11000000    0.05000000
   16.94027710   82.67099762    0.11000000    0.05000000
   16.94361115   84.38680267    0.11000000    0.05000000
   16.94694328   88.60590363    0.11000000    0.05000000
   16.95000076   82.76280212    0.11000000    0.05000000
   16.95333481   82.10949707    0.11000000    0.05000000
   16.95416832   82.37779999    0.11000000    0.05000000
   16.95694542   80.45359802    0.11000000    0.05000000
   16.96000099   88.65160370    0.11000000    0.05000000
   16.96333504   81.97720337    0.11000000    0.05000000
   16.96944427   81.97720337    0.11000000    0.05000000
   16.97361183   90.88809967    0.11000000    0.05000000
   16.97666740   85.29799652    0.11000000    0.05000000
   16.98000145   82.43859863    0.11000000    0.05000000
   16.98333359   84.27919769    0.11000000    0.05000000
   16.98638916   95.66149902    0.11000000    0.05000000
   16.98750114   85.73950195    0.11000000    0.05000000
   16.99027824   82.11409760    0.11000000    0.05000000
   16.99333382   86.35559845    0.11000000    0.05000000
   16.99666786   87.63719940    0.11000000    0.05000000
   17.00000000   85.40720367    0.11000000    0.05000000
   17.00305557   86.10089874    0.11000000    0.05000000
   17.00638962   82.74019623    0.11000000    0.05000000
   17.01222229   82.74019623    0.11000000    0.05000000
   17.01638794   83.49749756    0.11000000    0.05000000
   17.01972198   81.65589905    0.11000000    0.05000000
   17.02083397   84.70559692    0.11000000    0.05000000
   17.02333260   82.13980103    0.11000000    0.05000000
   17.02638817   81.48889923    0.11000000    0.05000000
   17.02972221   80.50810242    0.11000000    0.05000000
   17.03305435   82.59929657    0.11000000    0.05000000
   17.03610992   76.78019714    0.11000000    0.05000000
   17.03944397   78.86299896    0.11000000    0.05000000
   17.04277802   81.77130127    0.11000000    0.05000000
   17.04583359   80.97930145    0.11000000    0.05000000
   17.04916573   85.29889679    0.11000000    0.05000000
   17.05527687   85.29889679    0.11000000    0.05000000
   17.05916595   88.83339691    0.11000000    0.05000000
   17.06250000   85.53140259    0.11000000    0.05000000
   17.06583214   82.57019806    0.11000000    0.05000000
   17.06888962   83.19580078    0.11000000    0.05000000
   17.07222366   79.91040039    0.11000000    0.05000000
   17.07527924   85.96859741    0.11000000    0.05000000
   17.07861137   84.82779694    0.11000000    0.05000000
   17.08194542   88.08159637    0.11000000    0.05000000
   17.08500099   83.34400177    0.11000000    0.05000000
   17.08750153   86.99009705    0.11000000    0.05000000
   17.08889008   88.20279694    0.11000000    0.05000000
   17.09194565   86.88480377    0.11000000    0.05000000
   17.09805679   86.88480377    0.11000000    0.05000000
   17.10222244   85.22039795    0.11000000    0.05000000
   17.10527802   81.95680237    0.11000000    0.05000000
   17.10861206   85.45819855    0.11000000    0.05000000
   17.11166763   86.05919647    0.11000000    0.05000000
   17.11499977   80.27929688    0.11000000    0.05000000
   17.11833382   87.78549957    0.11000000    0.05000000
   17.12083435   84.39140320    0.11000000    0.05000000
   17.12194443   85.26820374    0.11000000    0.05000000
   17.12500000   83.40969849    0.11000000    0.05000000
   17.12833405   85.49250031    0.11000000    0.05000000
   17.13166618   85.88500214    0.11000000    0.05000000
   17.13472176   82.51660156    0.11000000    0.05000000
   17.14083290   82.51660156    0.11000000    0.05000000
   17.14500046   83.69400024    0.11000000    0.05000000
   17.14833260   86.97609711    0.11000000    0.05000000
   17.15138817   84.02200317    0.11000000    0.05000000
   17.15416718   86.60109711    0.11000000    0.05000000
   17.15499878   79.46800232    0.11000000    0.05000000
   17.15805435   86.41210175    0.11000000    0.05000000
   17.16138840   83.88649750    0.11000000    0.05000000
   17.16472244   82.39160156    0.11000000    0.05000000
   17.16777802   89.49579620    0.11000000    0.05000000
   17.17111015   81.87870026    0.11000000    0.05000000
   17.17444420   85.51709747    0.11000000    0.05000000
   17.17749977   87.39080048    0.11000000    0.05000000
   17.18361092   87.39080048    0.11000000    0.05000000
   17.18777657   87.12870026    0.11000000    0.05000000
   17.19111061   87.81700134    0.11000000    0.05000000
   17.19416618   86.81929779    0.11000000    0.05000000
   17.19749832   85.04969788    0.11000000    0.05000000
   17.20083427   82.08499908    0.11000000    0.05000000
   17.20388985   86.35350037    0.11000000    0.05000000
   17.20722389   80.74939728    0.11000000    0.05000000
   17.21027946   85.15699768    0.11000000    0.05000000
   17.21361160   83.23699951    0.11000000    0.05000000
   17.21694565   86.29119873    0.11000000    0.05000000
   17.22000122   91.66909790    0.11000000    0.05000000
   17.22083473   86.01529694    0.11000000    0.05000000
   17.22666740   86.01529694    0.11000000    0.05000000
   17.23055649   88.14430237    0.11000000    0.05000000
   17.23388863   89.58789825    0.11000000    0.05000000
   17.23722267   85.84619904    0.11000000    0.05000000
   17.24027824   85.15789795    0.11000000    0.05000000
   17.24361229   86.43489838    0.11000000    0.05000000
   17.24694443   81.16079712    0.11000000    0.05000000
   17.25027847   86.48940277    0.11000000    0.05000000
   17.25333405   87.01830292    0.11000000    0.05000000
   17.25416756   84.03309631    0.11000000    0.05000000
   17.25694466   88.67009735    0.11000000    0.05000000
   17.26027870   89.52950287    0.11000000    0.05000000
   17.26333427   85.30960083    0.11000000    0.05000000
   17.26944351   85.30960083    0.11000000    0.05000000
   17.27361107   89.79609680    0.11000000    0.05000000
   17.27666664   97.90699768    0.11000000    0.05000000
   17.28000069   86.22200012    0.11000000    0.05000000
   17.28305435   89.32460022    0.11000000    0.05000000
   17.28638840   90.90910339    0.11000000    0.05000000
   17.28750038   87.30989838    0.11000000    0.05000000
   17.28999901   90.27529907    0.11000000    0.05000000
   17.29333305   88.07620239    0.11000000    0.05000000
   17.29638863   88.32489777    0.11000000    0.05000000
   17.29972076   85.18070221    0.11000000    0.05000000
   17.30277634   83.74849701    0.11000000    0.05000000
   17.30611038   85.82689667    0.11000000    0.05000000
   17.31222153   85.82689667    0.11000000    0.05000000
   17.31638718   86.25749969    0.11000000    0.05000000
   17.31944466   88.16549683    0.11000000    0.05000000
   17.32083511   87.86370087    0.11000000    0.05000000
   17.32333374   81.42649841    0.11000000    0.05000000
   17.32666779   82.22609711    0.11000000    0.05000000
   17.32972336   84.03050232    0.11000000    0.05000000
   17.33305550   86.01840210    0.11000000    0.05000000
   17.33611107   82.82150269    0.11000000    0.05000000
   17.33944511   81.65180206    0.11000000    0.05000000
   17.34277916   82.01730347    0.11000000    0.05000000
   17.34583473   80.36789703    0.11000000    0.05000000
   17.34916687   79.87850189    0.11000000    0.05000000
   17.35499954   79.87850189    0.11000000    0.05000000
   17.35916710   84.02780151    0.11000000    0.05000000
   17.36250114   85.09290314    0.11000000    0.05000000
   17.36555672   86.75900269    0.11000000    0.05000000
   17.36888885   89.77929688    0.11000000    0.05000000
   17.37222290   86.60880280    0.11000000    0.05000000
   17.37527847   85.12220001    0.11000000    0.05000000
   17.37861061   84.83239746    0.11000000    0.05000000
   17.38166618   85.69249725    0.11000000    0.05000000
   17.38500023   88.53710175    0.11000000    0.05000000
   17.38750076   85.92120361    0.11000000    0.05000000
   17.40833282   85.92120361    0.11000000    0.05000000
   17.41222191   86.06999969    0.11000000    0.05000000
   17.41555595   86.20320129    0.11000000    0.05000000
   17.41888809   87.73370361    0.11000000    0.05000000
   17.42083359   82.70610046    0.11000000    0.05000000
   17.42249870   87.61139679    0.11000000    0.05000000
   17.42583275   81.53620148    0.11000000    0.05000000
   17.42916679   83.93990326    0.11000000    0.05000000
   17.43222237   85.89029694    0.11000000    0.05000000
   17.43555450   90.33020020    0.11000000    0.05000000
   17.43861008   89.04879761    0.11000000    0.05000000
   17.44194412   87.25340271    0.11000000    0.05000000
   17.44527626   86.64029694    0.11000000    0.05000000
   17.45083427   86.64029694    0.11000000    0.05000000
   17.45499992   92.21520233    0.11000000    0.05000000
   17.45833397   85.62200165    0.11000000    0.05000000
   17.46138954   85.21520233    0.11000000    0.05000000
   17.46472359   79.20030212    0.11000000    0.05000000
   17.46805573   80.08670044    0.11000000    0.05000000
   17.47111130   81.51519775    0.11000000    0.05000000
   17.47444534   80.61869812    0.11000000    0.05000000
   17.47777748   81.58139801    0.11000000    0.05000000
   17.48083305   83.22339630    0.11000000    0.05000000
   17.48416710   83.56809998    0.11000000    0.05000000
   17.48722267   84.14730072    0.11000000    0.05000000
   17.48777771   86.51339722    0.11000000    0.05000000
   17.49388885   86.51339722    0.11000000    0.05000000
   17.49777794   84.93560028    0.11000000    0.05000000
   17.50111198   88.29609680    0.11000000    0.05000000
   17.50444412   86.02330017    0.11000000    0.05000000
   17.50749969   87.02089691    0.11000000    0.05000000
   17.51083374   84.34449768    0.11000000    0.05000000
   17.51416588   88.15059662    0.11000000    0.05000000
   17.51722145   89.32319641    0.11000000    0.05000000
   17.52055550   84.38760376    0.11000000    0.05000000
   17.52111053   85.51529694    0.11000000    0.05000000
   17.52416611   85.18039703    0.11000000    0.05000000
   17.52750015   82.93009949    0.11000000    0.05000000
   17.53055573   84.03179932    0.11000000    0.05000000
   17.53666687   84.03179932    0.11000000    0.05000000
   17.54083252   84.09929657    0.11000000    0.05000000
   17.54388809   85.46890259    0.11000000    0.05000000
   17.54722214   85.59200287    0.11000000    0.05000000
   17.55055428   85.63200378    0.11000000    0.05000000
   17.55360985   85.06330109    0.11000000    0.05000000
   17.55444336   90.49590302    0.11000000    0.05000000
   17.55722237   81.52559662    0.11000000    0.05000000
   17.56055450   84.86100006    0.11000000    0.05000000
   17.56361008   82.38169861    0.11000000    0.05000000
   17.56694603   79.22389984    0.11000000    0.05000000
   17.57000160   91.20749664    0.11000000    0.05000000
   17.57333374   87.28330231    0.11000000    0.05000000
   17.57944489   87.28330231    0.11000000    0.05000000
   17.58361244   88.63059998    0.11000000    0.05000000
   17.58694458   84.36630249    0.11000000    0.05000000
   17.58777809   86.05950165    0.11000000    0.05000000
   17.59055710   86.43080139    0.11000000    0.05000000
   17.59388924   83.04889679    0.11000000    0.05000000
   17.59694481   85.60690308    0.11000000    0.05000000
   17.60027885   88.99500275    0.11000000    0.05000000
   17.60333443   80.94249725    0.11000000    0.05000000
   17.60666656   83.34539795    0.11000000    0.05000000
   17.61000061   83.68769836    0.11000000    0.05000000
   17.61305618   85.21260071    0.11000000    0.05000000
   17.61638832   84.32409668    0.11000000    0.05000000
   17.62222290   84.32409668    0.11000000    0.05000000
   17.62638855   84.40000153    0.11000000    0.05000000
   17.62972260   85.39450073    0.11000000    0.05000000
   17.63277817   82.55560303    0.11000000    0.05000000
   17.63611031   86.18080139    0.11000000    0.05000000
   17.63944435   81.84279633    0.11000000    0.05000000
   17.64249992   85.46649933    0.11000000    0.05000000
   17.64583397   87.28450012    0.11000000    0.05000000
   17.64916611   84.30729675    0.11000000    0.05000000
   17.65222168   79.55480194    0.11000000    0.05000000
   17.65444374   78.78780365    0.11000000    0.05000000
   17.65583229   82.96420288    0.11000000    0.05000000
   17.65916634   83.53910065    0.11000000    0.05000000
   17.66527748   83.53910065    0.11000000    0.05000000
   17.66916656   84.11340332    0.11000000    0.05000000
   17.67249870   91.15499878    0.11000000    0.05000000
   17.67583275   87.26450348    0.11000000    0.05000000
   17.67888832   92.25610352    0.11000000    0.05000000
   17.68222237   88.05280304    0.11000000    0.05000000
   17.68555450   87.45200348    0.11000000    0.05000000
   17.68777657   90.39959717    0.11000000    0.05000000
   17.68916512   85.47920227    0.11000000    0.05000000
   17.69249916   88.85569763    0.11000000    0.05000000
   17.69555473   86.43460083    0.11000000    0.05000000
   17.69888878   85.27230072    0.11000000    0.05000000
   17.70194435   86.17320251    0.11000000    0.05000000
   17.70805550   86.17320251    0.11000000    0.05000000
   17.71222305   85.19439697    0.11000000    0.05000000
   17.71527863   87.38279724    0.11000000    0.05000000
   17.71861076   89.88749695    0.11000000    0.05000000
   17.72111130   87.39330292    0.11000000    0.05000000
   17.72222328   83.94770050    0.11000000    0.05000000
   17.72555542   84.18530273    0.11000000    0.05000000
   17.72861099   81.52739716    0.11000000    0.05000000
   17.73194504   81.64749908    0.11000000    0.05000000
   17.73500061   82.56729889    0.11000000    0.05000000
   17.73833275   87.20079803    0.11000000    0.05000000
   17.74166679   84.19860077    0.11000000    0.05000000
   17.74472237   81.87850189    0.11000000    0.05000000
   17.75083351   81.87850189    0.11000000    0.05000000
   17.75499916   81.68180084    0.11000000    0.05000000
   17.75833321   89.96790314    0.11000000    0.05000000
   17.76138878   93.14109802    0.11000000    0.05000000
   17.76472282   86.06459808    0.11000000    0.05000000
   17.76777840   90.29270172    0.11000000    0.05000000
   17.77111053   86.22969818    0.11000000    0.05000000
   17.77444458   84.83779907    0.11000000    0.05000000
   17.77750015   87.44480133    0.11000000    0.05000000
   17.78083229   85.94329834    0.11000000    0.05000000
   17.78416634   91.31179810    0.11000000    0.05000000
   17.78722191   83.55729675    0.11000000    0.05000000
   17.78777695   81.94490051    0.11000000    0.05000000
   17.79361153   81.94490051    0.11000000    0.05000000
   17.79777718   79.81909943    0.11000000    0.05000000
   17.80111122   81.29260254    0.11000000    0.05000000
   17.80416679   81.74099731    0.11000000    0.05000000
   17.80749893   81.25990295    0.11000000    0.05000000
   17.81083298   83.42189789    0.11000000    0.05000000
   17.81388855   80.41480255    0.11000000    0.05000000
   17.81722260   88.20989990    0.11000000    0.05000000
   17.82055664   85.51049805    0.11000000    0.05000000
   17.82111168   86.99649811    0.11000000    0.05000000
   17.82389069   82.22360229    0.11000000    0.05000000
   17.82722282   87.37909698    0.11000000    0.05000000
   17.83027840   85.78559875    0.11000000    0.05000000
   17.83666801   85.78559875    0.11000000    0.05000000
   17.84055710   83.90029907    0.11000000    0.05000000
   17.84388924   84.99449921    0.11000000    0.05000000
   17.84722328   81.18930054    0.11000000    0.05000000
   17.85027885   81.98179626    0.11000000    0.05000000
   17.85361099   87.91159821    0.11000000    0.05000000
   17.85444450   84.76799774    0.11000000    0.05000000
   17.85722351   83.38970184    0.11000000    0.05000000
   17.86055565   80.78369904    0.11000000    0.05000000
   17.86361122   85.57019806    0.11000000    0.05000000
   17.86694527   79.71520233    0.11000000    0.05000000
   17.87027740   82.41020203    0.11000000    0.05000000
   17.87333298   84.40809631    0.11000000    0.05000000
   17.87944412   84.40809631    0.11000000    0.05000000
   17.88361168   80.72270203    0.11000000    0.05000000
   17.88666725   82.91829681    0.11000000    0.05000000
   17.88777733   78.07409668    0.11000000    0.05000000
   17.89027786   86.09279633    0.11000000    0.05000000
   17.89361191   80.39939880    0.11000000    0.05000000
   17.89666748   80.31710052    0.11000000    0.05000000
   17.89999962   84.05799866    0.11000000    0.05000000
   17.90333366   84.88700104    0.11000000    0.05000000
   17.90638924   84.59369659    0.11000000    0.05000000
   17.90972137   83.34359741    0.11000000    0.05000000
   17.91277695   83.32730103    0.11000000    0.05000000
   17.91611099   82.94039917    0.11000000    0.05000000
   17.92222214   82.94039917    0.11000000    0.05000000
   17.92638779   84.38050079    0.11000000    0.05000000
   17.92972183   84.01770020    0.11000000    0.05000000
   17.93277740   87.15579987    0.11000000    0.05000000
   17.93610954   84.90899658    0.11000000    0.05000000
   17.93944359   89.41799927    0.11000000    0.05000000
   17.94249916   83.50839996    0.11000000    0.05000000
   17.94583321   82.79250336    0.11000000    0.05000000
   17.94888878   82.34490204    0.11000000    0.05000000
   17.95222282   81.81510162    0.11000000    0.05000000
   17.95444489   82.76360321    0.11000000    0.05000000
   17.95583344   86.84719849    0.11000000    0.05000000
   17.95916748   79.50569916    0.11000000    0.05000000
   17.96500015   79.50569916    0.11000000    0.05000000
   17.96916771   86.45780182    0.11000000    0.05000000
   17.97249985   86.46530151    0.11000000    0.05000000
   17.97555542   80.24739838    0.11000000    0.05000000
   17.97888947   81.24579620    0.11000000    0.05000000
   17.98222351   84.69740295    0.11000000    0.05000000
   17.98527718   87.49469757    0.11000000    0.05000000
   17.98777771   83.89070129    0.11000000    0.05000000
   17.98888969   85.52729797    0.11000000    0.05000000
   17.99222183   86.33899689    0.11000000    0.05000000
   17.99527740   84.53939819    0.11000000    0.05000000
   17.99861145   85.11820221    0.11000000    0.05000000
   18.00194359   86.71109772    0.11000000    0.05000000
   18.00805473   86.71109772    0.11000000    0.05000000
   18.01194382   82.07900238    0.11000000    0.05000000
   18.01527786   79.69470215    0.11000000    0.05000000
   18.01861000   82.38120270    0.11000000    0.05000000
   18.02111053   79.25330353    0.11000000    0.05000000
   18.02222252   81.77279663    0.11000000    0.05000000
   18.02555466   81.64050293    0.11000000    0.05000000
   18.02861023   80.92199707    0.11000000    0.05000000
   18.03194427   82.54309845    0.11000000    0.05000000
   18.03527641   84.44819641    0.11000000    0.05000000
   18.03833199   84.81109619    0.11000000    0.05000000
   18.04166603   85.30110168    0.11000000    0.05000000
   18.04472160   89.76069641    0.11000000    0.05000000
   18.05083275   89.76069641    0.11000000    0.05000000
   18.05499840   85.27709961    0.11000000    0.05000000
   18.05805397   86.44049835    0.11000000    0.05000000
   18.06138802   85.85980225    0.11000000    0.05000000
   18.06472206   87.16000366    0.11000000    0.05000000
   18.06777954   88.93859863    0.11000000    0.05000000
   18.07111168   90.25839996    0.11000000    0.05000000
   18.07416725   83.74819946    0.11000000    0.05000000
   18.07750130   86.89600372    0.11000000    0.05000000
   18.08083344   83.05180359    0.11000000    0.05000000
   18.08388901   84.70899963    0.11000000    0.05000000
   18.08722305   89.22769928    0.11000000    0.05000000
   18.08805656   81.52259827    0.11000000    0.05000000
   18.09361267   81.52259827    0.11000000    0.05000000
   18.09777832   83.86730194    0.11000000    0.05000000
   18.10111237   85.47329712    0.11000000    0.05000000
   18.10416794   83.12409973    0.11000000    0.05000000
   18.10750008   85.48699951    0.11000000    0.05000000
   18.11083412   86.75830078    0.11000000    0.05000000
   18.11388969   83.69509888    0.11000000    0.05000000
   18.11722183   85.25199890    0.11000000    0.05000000
   18.12055588   83.24430084    0.11000000    0.05000000
   18.12138939   87.82920074    0.11000000    0.05000000
   18.12388992   87.83190155    0.11000000    0.05000000
   18.12722206   85.45700073    0.11000000    0.05000000
   18.13027763   83.77359772    0.11000000    0.05000000
   18.13638878   83.77359772    0.11000000    0.05000000
   18.14055634   86.73149872    0.11000000    0.05000000
   18.14388847   84.68640137    0.11000000    0.05000000
   18.14694405   87.05970001    0.11000000    0.05000000
   18.15027809   85.29029846    0.11000000    0.05000000
   18.15361023   91.70429993    0.11000000    0.05000000
   18.15472221   85.41590118    0.11000000    0.05000000
   18.15694427   85.22450256    0.11000000    0.05000000
   18.16027832   86.22270203    0.11000000    0.05000000
   18.16333389   87.11430359    0.11000000    0.05000000
   18.16666603   80.04350281    0.11000000    0.05000000
   18.17000008   84.15049744    0.11000000    0.05000000
   18.17305565   81.96459961    0.11000000    0.05000000
   18.17944336   81.96459961    0.11000000    0.05000000
   18.18333244   83.52200317    0.11000000    0.05000000
   18.18666649   82.85720062    0.11000000    0.05000000
   18.18805504   87.20300293    0.11000000    0.05000000
   18.19027710   84.85600281    0.11000000    0.05000000
   18.19361115   89.12519836    0.11000000    0.05000000
   18.19694328   86.30130005    0.11000000    0.05000000
   18.20000076   84.70600128    0.11000000    0.05000000
   18.20333481   85.01540375    0.11000000    0.05000000
   18.20666695   82.39150238    0.11000000    0.05000000
   18.20972252   83.35549927    0.11000000    0.05000000
   18.21305656   78.46890259    0.11000000    0.05000000
   18.21611214   84.40160370    0.11000000    0.05000000
   18.22222328   84.40160370    0.11000000    0.05000000
   18.22638893   82.94419861    0.11000000    0.05000000
   18.22944450   85.58519745    0.11000000    0.05000000
   18.23277855   88.07510376    0.11000000    0.05000000
   18.23611069   85.12779999    0.11000000    0.05000000
   18.23916626   88.45600128    0.11000000    0.05000000
   18.24250031   87.35620117    0.11000000    0.05000000
   18.24555588   88.84320068    0.11000000    0.05000000
   18.24888992   86.42839813    0.11000000    0.05000000
   18.25222206   86.30439758    0.11000000    0.05000000
   18.25472260   87.51290131    0.11000000    0.05000000
   18.25555611   87.57440186    0.11000000    0.05000000
   18.25888824   89.94290161    0.11000000    0.05000000
   18.26499939   89.94290161    0.11000000    0.05000000
   18.26916695   85.11319733    0.11000000    0.05000000
   18.27249908   90.18589783    0.11000000    0.05000000
   18.27555466   87.07379913    0.11000000    0.05000000
   18.27888870   84.26349640    0.11000000    0.05000000
   18.28222275   88.95690155    0.11000000    0.05000000
   18.28527641   86.32579803    0.11000000    0.05000000
   18.28805542   87.58570099    0.11000000    0.05000000
   18.28888893   89.77709961    0.11000000    0.05000000
   18.29222107   85.06099701    0.11000000    0.05000000
   18.29527664   84.08499908    0.11000000    0.05000000
   18.29861069   89.26599884    0.11000000    0.05000000
   18.30194283   88.84200287    0.11000000    0.05000000
   18.30777740   88.84200287    0.11000000    0.05000000
   18.31194305   85.57550049    0.11000000    0.05000000
   18.31527710   87.19349670    0.11000000    0.05000000
   18.31833458   89.36679840    0.11000000    0.05000000
   18.32139015   89.15260315    0.11000000    0.05000000
   18.32194519   92.04640198    0.11000000    0.05000000
   18.32527924   87.70459747    0.11000000    0.05000000
   18.32833481   87.75299835    0.11000000    0.05000000
   18.33166695   88.51059723    0.11000000    0.05000000
   18.33500099   91.43509674    0.11000000    0.05000000
   18.33805656   85.87650299    0.11000000    0.05000000
   18.34138870   84.40260315    0.11000000    0.05000000
   18.34472275   86.86910248    0.11000000    0.05000000
   18.35083389   86.86910248    0.11000000    0.05000000
   18.35472298   89.37429810    0.11000000    0.05000000
   18.35805511   88.19010162    0.11000000    0.05000000
   18.36138916   83.41699982    0.11000000    0.05000000
   18.36444473   80.77290344    0.11000000    0.05000000
   18.36777878   85.76670074    0.11000000    0.05000000
   18.37111092   87.19589996    0.11000000    0.05000000
   18.37416649   89.45649719    0.11000000    0.05000000
   18.37750053   84.75679779    0.11000000    0.05000000
   18.38055611   84.80850220    0.11000000    0.05000000
   18.38388824   85.42630005    0.11000000    0.05000000
   18.38722229   91.28769684    0.11000000    0.05000000
   18.38805580   87.21080017    0.11000000    0.05000000
   18.39361191   87.21080017    0.11000000    0.05000000
   18.39777756   83.76580048    0.11000000    0.05000000
   18.40083313   84.32589722    0.11000000    0.05000000
   18.40416718   80.50589752    0.11000000    0.05000000
   18.42166519   84.79530334    0.11000000    0.05000000
   18.42416573   90.33110046    0.11000000    0.05000000
   18.42722130   82.36109924    0.11000000    0.05000000
   18.43055534   89.36730194    0.11000000    0.05000000
   18.43666649   89.36730194    0.11000000    0.05000000
   18.44055557   83.71289825    0.11000000    0.05000000
   18.44388771   89.02439880    0.11000000    0.05000000
   18.44722176   88.03890228    0.11000000    0.05000000
   18.45027924   86.43270111    0.11000000    0.05000000
   18.45361137   86.55120087    0.11000000    0.05000000
   18.45499992   92.80169678    0.11000000    0.05000000
   18.45750046   83.94779968    0.11000000    0.05000000
   18.46055603   87.69400024    0.11000000    0.05000000
   18.46389008   84.30519867    0.11000000    0.05000000
   18.46694565   86.95330048    0.11000000    0.05000000
   18.47027779   85.35970306    0.11000000    0.05000000
   18.47361183   90.50409698    0.11000000    0.05000000
   18.47944450   90.50409698    0.11000000    0.05000000
   18.48361206   89.59069824    0.11000000    0.05000000
   18.48666763   90.21450043    0.11000000    0.05000000
   18.48833275   86.49870300    0.11000000    0.05000000
   18.49055672   91.90249634    0.11000000    0.05000000
   18.49361229   89.28070068    0.11000000    0.05000000
   18.49694443   87.41369629    0.11000000    0.05000000
   18.50027847   87.73799896    0.11000000    0.05000000
   18.50333405   85.90080261    0.11000000    0.05000000
   18.50666618   88.71420288    0.11000000    0.05000000
   18.50972176   81.13729858    0.11000000    0.05000000
   18.51305580   80.65499878    0.11000000    0.05000000
   18.51638794   84.23049927    0.11000000    0.05000000
   18.52222252   84.23049927    0.11000000    0.05000000
   18.52638817   86.64070129    0.11000000    0.05000000
   18.52972221   81.68209839    0.11000000    0.05000000
   18.53277779   90.56410217    0.11000000    0.05000000
   18.53610992   89.81279755    0.11000000    0.05000000
   18.53916550   85.72450256    0.11000000    0.05000000
   18.54249954   87.40989685    0.11000000    0.05000000
   18.54583359   83.56839752    0.11000000    0.05000000
   18.54888916   88.91600037    0.11000000    0.05000000
   18.55222130   87.83159637    0.11000000    0.05000000
   18.55499840   85.58010101    0.11000000    0.05000000
   18.55583191   83.08609772    0.11000000    0.05000000
   18.55888748   90.73919678    0.11000000    0.05000000
   18.56499863   90.73919678    0.11000000    0.05000000
   18.56916809   90.11530304    0.11000000    0.05000000
   18.57250023   84.70950317    0.11000000    0.05000000
   18.57555580   90.48249817    0.11000000    0.05000000
   18.57888985   87.66079712    0.11000000    0.05000000
   18.58222389   83.94950104    0.11000000    0.05000000
   18.58527756   88.63330078    0.11000000    0.05000000
   18.58833313   88.41159821    0.11000000    0.05000000
   18.58916664   89.46679688    0.11000000    0.05000000
   18.59222221   83.35520172    0.11000000    0.05000000
   18.59555626   90.43160248    0.11000000    0.05000000
   18.59889030   86.85379791    0.11000000    0.05000000
   18.60194397   87.93409729    0.11000000    0.05000000
   18.60805511   87.93409729    0.11000000    0.05000000
   18.61194420   87.94930267    0.11000000    0.05000000
   18.61527824   85.34519958    0.11000000    0.05000000
   18.61861038   84.26679993    0.11000000    0.05000000
   18.62166595   82.11769867    0.11000000    0.05000000
   18.62222290   87.39179993    0.11000000    0.05000000
   18.62555504   81.92800140    0.11000000    0.05000000
   18.62861061   79.92739868    0.11000000    0.05000000
   18.63194466   83.48699951    0.11000000    0.05000000
   18.63500023   86.21189880    0.11000000    0.05000000
   18.63833237   78.76830292    0.11000000    0.05000000
   18.64166641   84.05210114    0.11000000    0.05000000
   18.64472198   84.94429779    0.11000000    0.05000000
   18.65083313   84.94429779    0.11000000    0.05000000
   18.65499878   85.10279846    0.11000000    0.05000000
   18.65527725   86.60500336    0.11000000    0.05000000
   18.65861130   82.95950317    0.11000000    0.05000000
   18.66194344   87.68779755    0.11000000    0.05000000
   18.66499901   84.71170044    0.11000000    0.05000000
   18.66833305   85.08660126    0.11000000    0.05000000
   18.67166519   85.89920044    0.11000000    0.05000000
   18.67472076   87.01679993    0.11000000    0.05000000
   18.67805481   84.78430176    0.11000000    0.05000000
   18.68138885   89.70379639    0.11000000    0.05000000
   18.68444443   83.52380371    0.11000000    0.05000000
   18.68777657   83.65429688    0.11000000    0.05000000
   18.68861008   88.45549774    0.11000000    0.05000000
   18.69361115   88.45549774    0.11000000    0.05000000
   18.69777679   86.26619720    0.11000000    0.05000000
   18.70111275   84.19460297    0.11000000    0.05000000
   18.70416832   89.51309967    0.11000000    0.05000000
   18.70750046   83.44029999    0.11000000    0.05000000
   18.71055603   88.00399780    0.11000000    0.05000000
   18.71389008   87.50430298    0.11000000    0.05000000
   18.71722221   88.94319916    0.11000000    0.05000000
   18.72027779   89.29609680    0.11000000    0.05000000
   18.72222328   88.57879639    0.11000000    0.05000000
   18.72389030   91.07499695    0.11000000    0.05000000
   18.72722244   84.68620300    0.11000000    0.05000000
   18.73027802   81.02670288    0.11000000    0.05000000
   18.73638916   81.02670288    0.11000000    0.05000000
   18.74055672   84.26550293    0.11000000    0.05000000
   18.74388885   87.24800110    0.11000000    0.05000000
   18.74694443   83.77089691    0.11000000    0.05000000
   18.75027847   93.32029724    0.11000000    0.05000000
   18.75361061   84.83309937    0.11000000    0.05000000
   18.75527763   85.29949951    0.11000000    0.05000000
   18.75722313   86.63159943    0.11000000    0.05000000
   18.76055527   89.09159851    0.11000000    0.05000000
   18.76361084   87.60820007    0.11000000    0.05000000
   18.76694489   86.31829834    0.11000000    0.05000000
   18.77027702   90.29419708    0.11000000    0.05000000
   18.77333260   89.92790222    0.11000000    0.05000000
   18.77944374   89.92790222    0.11000000    0.05000000
   18.78333282   83.76450348    0.11000000    0.05000000
   18.78666687   86.96499634    0.11000000    0.05000000
   18.78888893   87.17199707    0.11000000    0.05000000
   18.79027748   83.07890320    0.11000000    0.05000000
   18.79361153   83.90160370    0.11000000    0.05000000
   18.79666710   82.56310272    0.11000000    0.05000000
   18.79999924   84.64939880    0.11000000    0.05000000
   18.80333328   87.61869812    0.11000000    0.05000000
   18.80638885   87.70269775    0.11000000    0.05000000
   18.80972099   87.93509674    0.11000000    0.05000000
   18.81305504   88.90000153    0.11000000    0.05000000
   18.81611061   88.35720062    0.11000000    0.05000000
   18.82222366   88.35720062    0.11000000    0.05000000
   18.82638931   79.30909729    0.11000000    0.05000000
   18.82944489   85.57700348    0.11000000    0.05000000
   18.83277893   85.24770355    0.11000000    0.05000000
   18.83611107   84.75340271    0.11000000    0.05000000
   18.83916664   80.43859863    0.11000000    0.05000000
   18.84250069   81.27700043    0.11000000    0.05000000
   18.84555626   84.63449860    0.11000000    0.05000000
   18.84889030   80.58480072    0.11000000    0.05000000
   18.85222244   83.36740112    0.11000000    0.05000000
   18.85527802   82.54199982    0.11000000    0.05000000
   18.85583305   89.87860107    0.11000000    0.05000000
   18.85916710   88.57579803    0.11000000    0.05000000
   18.86499977   88.57579803    0.11000000    0.05000000
   18.86916733   88.08080292    0.11000000    0.05000000
   18.87249947   86.73339844    0.11000000    0.05000000
   18.87555504   85.54589844    0.11000000    0.05000000
   18.87888908   89.48829651    0.11000000    0.05000000
   18.88194466   88.12629700    0.11000000    0.05000000
   18.88527679   87.55329895    0.11000000    0.05000000
   18.88861084   82.43969727    0.11000000    0.05000000
   18.88916588   86.04389954    0.11000000    0.05000000
   18.89249992   87.52909851    0.11000000    0.05000000
   18.89583397   82.71189880    0.11000000    0.05000000
   18.89888954   81.70379639    0.11000000    0.05000000
   18.90222168   85.68560028    0.11000000    0.05000000
   18.90777779   85.68560028    0.11000000    0.05000000
   18.91194344   90.49859619    0.11000000    0.05000000
   18.91527748   84.89869690    0.11000000    0.05000000
   18.91833305   84.88890076    0.11000000    0.05000000
   18.92166519   84.91660309    0.11000000    0.05000000
   18.92249870   91.37339783    0.11000000    0.05000000
   18.92527771   84.77220154    0.11000000    0.05000000
   18.92833328   83.88040161    0.11000000    0.05000000
   18.93166542   81.76550293    0.11000000    0.05000000
   18.93499947   82.43129730    0.11000000    0.05000000
   18.93805504   83.68930054    0.11000000    0.05000000
   18.94138718   88.05079651    0.11000000    0.05000000
   18.94472122   82.52050018    0.11000000    0.05000000
   18.95083427   82.52050018    0.11000000    0.05000000
   18.95472336   85.59590149    0.11000000    0.05000000
   18.95583344   80.93270111    0.11000000    0.05000000
   18.95861244   86.55760193    0.11000000    0.05000000
   18.96166801   82.43710327    0.11000000    0.05000000
   18.96500015   85.78160095    0.11000000    0.05000000
   18.96833420   84.33000183    0.11000000    0.05000000
   18.97138977   84.08820343    0.11000000    0.05000000
   18.97472191   81.16909790    0.11000000    0.05000000
   18.97777748   81.36820221    0.11000000    0.05000000
   18.98111153   80.41780090    0.11000000    0.05000000
   18.98416710   88.68609619    0.11000000    0.05000000
   18.98750114   84.80339813    0.11000000    0.05000000
   18.98916626   85.46170044    0.11000000    0.05000000
   18.99361229   85.46170044    0.11000000    0.05000000
   18.99777794   81.87010193    0.11000000    0.05000000
   19.00083351   78.29550171    0.11000000    0.05000000
   19.00416756   84.05439758    0.11000000    0.05000000
   19.00749969   82.66230011    0.11000000    0.05000000
   19.01055527   82.47239685    0.11000000    0.05000000
   19.01388931   80.63110352    0.11000000    0.05000000
   19.01694489   86.52339935    0.11000000    0.05000000
   19.02027702   83.25479889    0.11000000    0.05000000
   19.02249908   87.12110138    0.11000000    0.05000000
   19.02388954   83.70549774    0.11000000    0.05000000
   19.02694511   81.81279755    0.11000000    0.05000000
   19.03027725   82.12429810    0.11000000    0.05000000
   19.03638840   82.12429810    0.11000000    0.05000000
   19.04055595   87.27500153    0.11000000    0.05000000
   19.04388809   82.41760254    0.11000000    0.05000000
   19.04694366   83.54820251    0.11000000    0.05000000
   19.05027771   83.06569672    0.11000000    0.05000000
   19.05333328   89.08580017    0.11000000    0.05000000
   19.05583191   88.46859741    0.11000000    0.05000000
   19.05722237   89.40799713    0.11000000    0.05000000
   19.06027794   88.32969666    0.11000000    0.05000000
   19.06361008   90.93039703    0.11000000    0.05000000
   19.06694603   89.47669983    0.11000000    0.05000000
   19.07000160   84.53939819    0.11000000    0.05000000
   19.07333374   90.55039978    0.11000000    0.05000000
   19.07916832   90.55039978    0.11000000    0.05000000
   19.08333397   92.41929626    0.11000000    0.05000000
   19.08666801   88.31230164    0.11000000    0.05000000
   19.08916664   85.79190063    0.11000000    0.05000000
   19.09027863   87.85510254    0.11000000    0.05000000
   19.09333420   83.65630341    0.11000000    0.05000000
   19.09694481   85.78430176    0.11000000    0.05000000
   19.10027885   87.91699982    0.11000000    0.05000000
   19.10333443   82.77880096    0.11000000    0.05000000
   19.10666656   81.64420319    0.11000000    0.05000000
   19.11000061   84.62390137    0.11000000    0.05000000
   19.11305618   82.52490234    0.11000000    0.05000000
   19.11638832   84.31240082    0.11000000    0.05000000
   19.12222290   84.31240082    0.11000000    0.05000000
   19.12611198   84.95390320    0.11000000    0.05000000
   19.12944412   86.67900085    0.11000000    0.05000000
   19.13277817   85.58820343    0.11000000    0.05000000
   19.13583374   83.30110168    0.11000000    0.05000000
   19.13916588   88.05470276    0.11000000    0.05000000
   19.14249992   87.91799927    0.11000000    0.05000000
   19.14555550   86.32060242    0.11000000    0.05000000
   19.14888954   87.12049866    0.11000000    0.05000000
   19.15194321   90.82330322    0.11000000    0.05000000
   19.15527725   89.73459625    0.11000000    0.05000000
   19.15722275   89.45059967    0.11000000    0.05000000
   19.15888786   85.67279816    0.11000000    0.05000000
   19.16499901   85.67279816    0.11000000    0.05000000
   19.16916656   85.63220215    0.11000000    0.05000000
   19.17222214   83.12950134    0.11000000    0.05000000
   19.17555428   86.30580139    0.11000000    0.05000000
   19.17888832   87.71769714    0.11000000    0.05000000
   19.18194389   90.28160095    0.11000000    0.05000000
   19.18527603   87.57720184    0.11000000    0.05000000
   19.18833160   91.00969696    0.11000000    0.05000000
   19.19055557   83.67259979    0.11000000    0.05000000
   19.19194412   81.87339783    0.11000000    0.05000000
   19.19527626   85.66929626    0.11000000    0.05000000
   19.19861031   86.12509918    0.11000000    0.05000000
   19.20166779   88.52690125    0.11000000    0.05000000
   19.20777893   88.52690125    0.11000000    0.05000000
   19.21194458   87.32489777    0.11000000    0.05000000
   19.21527863   86.33419800    0.11000000    0.05000000
   19.21833420   81.44180298    0.11000000    0.05000000
   19.22166634   90.87599945    0.11000000    0.05000000
   19.22389030   87.82450104    0.11000000    0.05000000
   19.22527885   84.71029663    0.11000000    0.05000000
   19.22861099   88.68240356    0.11000000    0.05000000
   19.23166656   86.24539948    0.11000000    0.05000000
   19.23500061   89.03089905    0.11000000    0.05000000
   19.23805618   88.18229675    0.11000000    0.05000000
   19.24138832   82.66960144    0.11000000    0.05000000
   19.24472237   88.88749695    0.11000000    0.05000000
   19.25055504   88.88749695    0.11000000    0.05000000
   19.25472260   84.58370209    0.11000000    0.05000000
   19.25722313   83.34059906    0.11000000    0.05000000
   19.25833321   89.45290375    0.11000000    0.05000000
   19.26166725   83.48819733    0.11000000    0.05000000
   19.26472282   89.64540100    0.11000000    0.05000000
   19.26805496   87.19190216    0.11000000    0.05000000
   19.27138901   85.24340057    0.11000000    0.05000000
   19.27444458   84.53070068    0.11000000    0.05000000
   19.27777672   91.96530151    0.11000000    0.05000000
   19.28083229   -1.00000000    0.11000000    0.05000000
   19.28416634   -1.00000000    0.11000000    0.05000000
