    HOUR (UT)   FLARE FACTOR    SKY TESTER    SUN TESTER
   11.81333351   -1.00000000   -1.00000000   -1.00000000
   11.83972168  128.19000244    2.05999994    2.23000002
   11.84277725  124.93900299    2.07999992    2.21000004
   11.84638882  127.83699799    2.13000011    2.23000002
   11.84972191  128.48199463    2.17000008    2.23000002
   11.85305595  134.17399597    2.15000010    2.23000002
   11.85972214  134.17399597    2.07999992    2.23000002
   11.86388969  133.96099854    2.09999990    2.23000002
   11.86694431  130.16900635    2.15000010    2.25000000
   11.87027836  136.58599854    2.19000006    2.23000002
   11.87277794  125.59999847    2.19000006    2.25000000
   11.87388897  131.85000610    2.19000006    2.23000002
   11.87722206  121.26399994    2.13000011    2.23000002
   11.88055611  132.98699951    2.13000011    2.23000002
   11.88361073  125.47899628    2.13000011    2.23000002
   11.88694477  129.03100586    2.15000010    2.23000002
   11.89027786  134.54699707    2.15000010    2.23000002
   11.89333344  143.74899292    2.15000010    2.23000002
   11.89666653  131.67700195    2.17000008    2.23000002
   11.90249920  131.67700195    2.19000006    2.23000002
   11.90666676  137.86700439    2.21000004    2.23000002
   11.90999985  139.03900146    2.21000004    2.23000002
   11.91305542  131.26400757    2.21000004    2.23000002
   11.91638851  138.06599426    2.21000004    2.21000004
   11.91944504  131.20100403    2.21000004    2.23000002
   11.92277813  131.70899963    2.21000004    2.23000002
   11.92611122  120.03900146    2.21000004    2.23000002
   11.92916679  138.41900635    2.21000004    2.23000002
   11.93249989  115.81600189    2.21000004    2.23000002
   11.93583298  129.16299438    2.23000002    2.23000002
   11.93888855  134.91400146    2.21000004    2.23000002
   11.93944454  121.82800293    2.21000004    2.23000002
   11.94527817  121.82800293    2.21000004    2.23000002
   11.94944477  124.28299713    2.21000004    2.25000000
   11.95277786  135.33799744    2.21000004    2.23000002
   11.95583344  144.42199707    2.19000006    2.25000000
   11.95916653  128.50199890    2.19000006    2.23000002
   11.96249962  111.61599731    2.19000006    2.23000002
   11.96555519  131.82699585    2.19000006    2.25000000
   11.96888828  135.38400269    2.19000006    2.23000002
   11.97222137  137.54800415    2.19000006    2.25000000
   11.97277737  138.62500000    2.19000006    2.23000002
   11.97583294  134.35899353    2.19000006    2.25000000
   11.97888851  130.94000244    2.19000006    2.25000000
   11.98222160  141.17799377    2.19000006    2.25000000
   11.98833370  141.17799377    2.19000006    2.25000000
   11.99222279  133.74699402    2.21000004    2.23000002
   11.99555588  141.87899780    2.21000004    2.23000002
   11.99888897  140.22999573    2.19000006    2.23000002
   12.00194454  143.91900635    2.19000006    2.23000002
   12.00527763  141.79100037    2.19000006    2.23000002
   12.00611115  135.44400024    2.19000006    2.23000002
   12.00888920  140.05099487    2.19000006    2.23000002
   12.01194477  133.64700317    2.19000006    2.25000000
   12.01527786  130.09500122    2.17000008    2.25000000
   12.01861095  126.73400116    2.17000008    2.25000000
   12.02166653  128.15699768    2.15000010    2.25000000
   12.02499962  122.93599701    2.13000011    2.25000000
   12.03111076  122.93599701    2.11999989    2.25000000
   12.03527832  121.25199890    2.11999989    2.25000000
   12.03833389  120.46900177    2.11999989    2.25000000
   12.03944492  120.37200165    2.11999989    2.25000000
   12.04222298  125.21499634    2.11999989    2.25000000
   12.04527855  121.82900238    2.11999989    2.26999998
   12.04861164  124.86599731    2.11999989    2.26999998
   12.05194473  130.10899353    2.11999989    2.26999998
   12.05500031  127.75299835    2.11999989    2.28999996
   12.05833340  124.32099915    2.09999990    2.26999998
   12.06138897  132.56900024    2.09999990    2.26999998
   12.06472206  122.04699707    2.09999990    2.26999998
   12.06805515  120.52799988    2.09999990    2.26999998
   12.07388878  120.52799988    2.09999990    2.26999998
   12.07805538  128.23399353    2.07999992    2.28999996
   12.08111095  133.11799622    2.07999992    2.26999998
   12.08444405  123.76999664    2.05999994    2.26999998
   12.08777714  128.24800110    2.05999994    2.26999998
   12.09083271  122.44300079    2.05999994    2.26999998
   12.09416676  120.99800110    2.07999992    2.28999996
   12.09749985  116.36199951    2.05999994    2.26999998
   12.10055637  123.04100037    2.05999994    2.28999996
   12.10388947  126.94799805    2.05999994    2.30999994
   12.10611153  123.16999817    2.05999994    2.30999994
   12.10750008  128.72599792    2.05999994    2.30999994
   12.11055565  127.20200348    2.05999994    2.30999994
   12.11666679  127.20200348    2.05999994    2.30999994
   12.12083340  117.45899963    2.09999990    2.30999994
   12.12416649  126.37599945    2.09999990    2.30999994
   12.12722206  128.11900330    2.11999989    2.30999994
   12.13055611  133.64700317    2.11999989    2.30999994
   12.13388920  123.83499908    2.09999990    2.30999994
   12.13694477  118.26000214    2.09999990    2.28999996
   12.13944435  119.10900116    2.09999990    2.28999996
   12.14083290  126.94200134    2.09999990    2.28999996
   12.14388847  130.67999268    2.07999992    2.30999994
   12.14722252  125.57399750    2.05999994    2.30999994
   12.15055561  126.62599945    2.05999994    2.30999994
   12.15388870  118.46299744    2.03999996    2.30999994
   12.15972137  118.46299744    1.98000002    2.32999992
   12.16361046  119.48899841    1.91999996    2.32999992
   12.16694450  117.62500000    1.91999996    2.32999992
   12.17027855  120.12599945    1.88000000    2.32999992
   12.17277813  122.79699707    1.88000000    2.32999992
   12.17388916  124.76699829    1.88000000    2.34999990
   12.17694473  128.72300720    1.86000001    2.34999990
   12.18027782  116.67800140    1.85000002    2.34999990
   12.18361092  120.69000244    1.80999994    2.36999989
   12.18666649  120.62400055    1.80999994    2.36999989
   12.19000053  110.58899689    1.80999994    2.36999989
   12.19333363  122.48400116    1.80999994    2.36999989
   12.19638920  112.58499908    1.80999994    2.36999989
   12.20249939  112.58499908    1.86000001    2.39000010
   12.20666695  112.08899689    2.13000011    2.39000010
   12.20972157  135.23199463    1.94000006    2.39000010
   12.21305561  129.05799866    1.94000006    2.39000010
   12.21638870  119.33499908    1.91999996    2.39000010
   12.21944427  108.44400024    1.86000001    2.39000010
   12.22277737  122.53800201    1.80999994    2.39000010
   12.22583294  118.05100250    1.80999994    2.39000010
   12.22916603  121.99199677    1.78999996    2.39000010
   12.23249912  121.76699829    1.78999996    2.39000010
   12.23555565  120.15200043    1.80999994    2.39000010
   12.23888874  122.48100281    1.83000004    2.36999989
   12.23944473  120.80500031    1.83000004    2.36999989
   12.24527836  120.80500031    1.83000004    2.36999989
   12.24944496  119.55000305    1.80999994    2.39000010
   12.25277805  111.75099945    1.80999994    2.39000010
   12.25583363  121.50199890    1.80999994    2.39000010
   12.25916672  116.58799744    1.76999998    2.39000010
   12.26222229  121.12999725    1.76999998    2.39000010
   12.26555538  105.41000366    1.75000000    2.39000010
   12.26888847  111.47399902    1.71000004    2.39000010
   12.27194405  110.19899750    1.71000004    2.40000010
   12.27277756  113.71399689    1.71000004    2.39000010
   12.27555561  123.61100006    1.71000004    2.40000010
   12.27861118  112.49600220    1.66999996    2.40000010
   12.28194427  124.71099854    1.69000006    2.40000010
   12.28888893  124.71099854    1.66999996    2.40000010
   12.29277802  121.16300201    1.66999996    2.40000010
   12.29611111  115.44000244    1.64999998    2.42000008
   12.29944515  114.01200104    1.64999998    2.40000010
   12.30249977  111.16300201    1.63000000    2.42000008
   12.30583382  120.45800018    1.63000000    2.42000008
   12.30638885  114.35800171    1.63000000    2.42000008
   12.31000042  117.90399933    1.63000000    2.42000008
   12.31333351  117.01499939    1.63000000    2.42000008
   12.31666660  113.96700287    1.63000000    2.42000008
   12.31972218  112.04799652    1.66999996    2.42000008
   12.32305527  111.63500214    1.64999998    2.40000010
   12.32638836  111.19400024    1.66999996    2.40000010
   12.33111095  111.19400024    1.66999996    2.42000008
   12.33500004  118.22399902    1.64999998    2.42000008
   12.33833313  117.34799957    1.63000000    2.42000008
   12.33972168  115.49099731    1.63000000    2.42000008
   12.34222221  117.59999847    1.63000000    2.42000008
   12.34527779  120.27600098    1.63000000    2.44000006
   12.34861088  109.61199951    1.60000002    2.44000006
   12.35166740  127.02400208    1.60000002    2.44000006
   12.35500050  115.57499695    1.60000002    2.44000006
   12.35833359  122.58599854    1.58000004    2.44000006
   12.36138916  114.28700256    1.58000004    2.44000006
   12.36472225  124.74700165    1.58000004    2.42000008
   12.36777782  116.93099976    1.60000002    2.44000006
   12.37388897  116.93099976    1.58000004    2.44000006
   12.37805557  111.68099976    1.60000002    2.42000008
   12.38111115  114.75599670    1.60000002    2.42000008
   12.38444424  115.52700043    1.60000002    2.44000006
   12.38749981  116.87000275    1.61000001    2.44000006
   12.39083290  114.63700104    1.61000001    2.42000008
   12.39416695  107.41799927    1.61000001    2.44000006
   12.39722252  106.12400055    1.61000001    2.44000006
   12.40055561  114.69999695    1.63000000    2.44000006
   12.40388870  104.53399658    1.61000001    2.44000006
   12.40638828  106.56300354    1.61000001    2.44000006
   12.40722179  110.40499878    1.61000001    2.44000006
   12.41055489  123.82099915    1.61000001    2.44000006
   12.41666698  123.82099915    1.61000001    2.44000006
   12.42083359  111.40499878    1.61000001    2.44000006
   12.42388916  118.33599854    1.61000001    2.44000006
   12.42722225  118.42600250    1.61000001    2.44000006
   12.43055630  109.52200317    1.61000001    2.44000006
   12.43361092  116.91300201    1.61000001    2.44000006
   12.43694496  120.17299652    1.61000001    2.44000006
   12.43972206  114.38300323    1.61000001    2.44000006
   12.44083309  113.78900146    1.61000001    2.44000006
   12.44388866  115.56800079    1.60000002    2.44000006
   12.44722271  117.47499847    1.61000001    2.44000006
   12.45027733  122.02799988    1.60000002    2.46000004
   12.45361137  122.99500275    1.60000002    2.44000006
   12.45944405  122.99500275    1.60000002    2.46000004
   12.46361065  122.00099945    1.60000002    2.46000004
   12.46722221  108.18099976    1.61000001    2.46000004
   12.47055531  120.45999908    1.60000002    2.46000004
   12.47305489  119.62100220    1.61000001    2.46000004
   12.47416592  119.68099976    1.61000001    2.46000004
   12.47722149  112.77500153    1.60000002    2.46000004
   12.48055553  109.12899780    1.60000002    2.46000004
   12.48361111  121.52700043    1.60000002    2.46000004
   12.48722267  126.09600067    1.60000002    2.46000004
   12.49027824  118.99800110    1.60000002    2.46000004
   12.49361134  123.12400055    1.60000002    2.46000004
   12.49666691  117.38200378    1.60000002    2.46000004
   12.50222206  117.38200378    1.60000002    2.46000004
   12.50638866  120.34400177    1.60000002    2.46000004
   12.50972176  126.13099670    1.61000001    2.46000004
   12.51305580  120.98999786    1.60000002    2.46000004
   12.51611137  119.38700104    1.60000002    2.46000004
   12.51944447  116.24500275    1.60000002    2.46000004
   12.52277756  117.18900299    1.58000004    2.46000004
   12.52583313  118.15899658    1.60000002    2.46000004
   12.52916622  125.64299774    1.58000004    2.46000004
   12.53249931  122.20099640    1.58000004    2.48000002
   12.53555584  113.82099915    1.60000002    2.46000004
   12.53888893  106.71399689    1.60000002    2.46000004
   12.53972244  118.51999664    1.60000002    2.46000004
   12.54527855  118.51999664    1.60000002    2.46000004
   12.54944515  113.66999817    1.60000002    2.46000004
   12.55277824  113.97799683    1.60000002    2.46000004
   12.55583382  112.17700195    1.60000002    2.46000004
   12.55916691  110.81199646    1.60000002    2.46000004
   12.56250000  115.16899872    1.60000002    2.46000004
   12.56555557  108.14700317    1.61000001    2.46000004
   12.56888866  111.82499695    1.60000002    2.46000004
   12.57194424  107.05200195    1.60000002    2.46000004
   12.57305527  113.67800140    1.61000001    2.48000002
   12.57583332  107.49800110    1.60000002    2.46000004
   12.57888889  113.96800232    1.60000002    2.48000002
   12.58222198  108.29499817    1.60000002    2.48000002
   12.58805561  108.29499817    1.58000004    2.48000002
   12.59222221  116.17600250    1.58000004    2.48000002
   12.59527779  115.94699860    1.58000004    2.48000002
   12.59861088  110.62599945    1.58000004    2.48000002
   12.60194492  117.50099945    1.58000004    2.48000002
   12.60527802  118.23200226    1.58000004    2.48000002
   12.60638905  109.75700378    1.58000004    2.48000002
   12.60888958  114.96499634    1.58000004    2.48000002
   12.61194515  112.04299927    1.58000004    2.48000002
   12.61527824  118.97399902    1.58000004    2.50000000
   12.61861134  110.38300323    1.60000002    2.48000002
   12.62166691  110.49600220    1.60000002    2.50000000
   12.62500000  118.36699677    1.60000002    2.50000000
   12.63083363  118.36699677    1.60000002    2.50000000
   12.63500023  109.82499695    1.58000004    2.48000002
   12.63833332  107.23100281    1.58000004    2.48000002
   12.63972187  108.20700073    1.58000004    2.48000002
   12.64194393  109.08499908    1.58000004    2.48000002
   12.64499950  113.00199890    1.58000004    2.48000002
   12.64833355  106.92600250    1.58000004    2.48000002
   12.65138817  111.22200012    1.58000004    2.48000002
   12.65472221  106.58599854    1.58000004    2.48000002
   12.65805531  109.80799866    1.58000004    2.48000002
   12.66111088  107.91000366    1.58000004    2.48000002
   12.66444397  107.16500092    1.58000004    2.48000002
   12.66777802  110.87200165    1.58000004    2.48000002
   12.67388916  110.87200165    1.58000004    2.50000000
   12.67777824  110.43399811    1.58000004    2.50000000
   12.68111134  115.53299713    1.55999994    2.50000000
   12.68444443  110.19100189    1.51999998    2.50000000
   12.68750000  114.85900116    1.50000000    2.51999998
   12.69083309  111.72499847    1.50000000    2.51999998
   12.69416714  111.38300323    1.50000000    2.51999998
   12.69722271   99.50150299    1.50000000    2.51999998
   12.70055580  105.77600098    1.50000000    2.50000000
   12.70361137  114.64600372    1.55999994    2.50000000
   12.70638847  114.79799652    1.55999994    2.50000000
   12.70749950  112.08599854    1.55999994    2.48000002
   12.71055508  115.77200317    1.58000004    2.48000002
   12.71666622  115.77200317    1.58000004    2.50000000
   12.72083282  111.27500153    1.58000004    2.48000002
   12.72388840  106.03099823    1.58000004    2.50000000
   12.72722149  111.23600006    1.63000000    2.48000002
   12.73027706  112.46600342    1.64999998    2.48000002
   12.73361111  108.71800232    1.64999998    2.48000002
   12.73694515  107.39399719    1.64999998    2.50000000
   12.73972225  114.00099945    1.63000000    2.50000000
   12.74055576  111.98899841    1.63000000    2.50000000
   12.74361134  109.44100189    1.61000001    2.50000000
   12.74694443  114.69899750    1.61000001    2.50000000
   12.75000000  111.25800323    1.61000001    2.50000000
   12.75333309  118.37200165    1.60000002    2.50000000
   12.75944424  118.37200165    1.61000001    2.50000000
   12.76361084  107.72399902    1.61000001    2.50000000
   12.76666641  113.03500366    1.61000001    2.50000000
   12.76999950  110.14900208    1.61000001    2.50000000
   12.77305508  106.64800262    1.61000001    2.50000000
   12.77388859  106.24099731    1.61000001    2.50000000
   12.77694416  107.54199982    1.61000001    2.50000000
   12.78027725  109.62999725    1.61000001    2.50000000
   12.78333378  113.26999664    1.61000001    2.50000000
   12.78666687  111.29399872    1.61000001    2.51999998
   12.79000092  111.40100098    1.61000001    2.50000000
   12.79305553  107.20099640    1.61000001    2.50000000
   12.79638958  113.92900085    1.63000000    2.51999998
   12.80222225  113.92900085    1.63000000    2.50000000
   12.80749989  110.60500336    1.63000000    2.50000000
   12.81055546  108.63899994    1.64999998    2.50000000
   12.81388950  115.75900269    1.64999998    2.50000000
   12.81722260  118.36299896    1.64999998    2.50000000
   12.82027817  101.46900177    1.64999998    2.50000000
   12.82361126  109.07199860    1.60000002    2.51999998
   12.82694435  111.21900177    1.60000002    2.51999998
   12.82999992  103.48200226    1.58000004    2.51999998
   12.83333302  108.65299988    1.58000004    2.51999998
   12.83638859  111.91500092    1.58000004    2.51999998
   12.83972168  108.53199768    1.55999994    2.51999998
   12.84027767  109.76599884    1.55999994    2.51999998
   12.86083412  109.76599884    1.55999994    2.53999996
   12.86500072  104.43099976    1.53999996    2.51999998
   12.86833382  106.46600342    1.48000002    2.53999996
   12.87138939  110.89299774    1.48000002    2.53999996
   12.87305546  105.07700348    1.48000002    2.53999996
   12.87500000  107.54900360    1.46000004    2.53999996
   12.87833309  102.01399994    1.46000004    2.53999996
   12.88138866  100.97200012    1.46000004    2.53999996
   12.88472176  103.21199799    1.46000004    2.51999998
   12.88805580  105.38500214    1.46000004    2.53999996
   12.89111137  107.55799866    1.46000004    2.53999996
   12.89444447  103.95700073    1.46000004    2.55999994
   12.89750004  105.68299866    1.46000004    2.53999996
   12.90361118  105.68299866    1.44000006    2.55999994
   12.90777779  108.13300323    1.46000004    2.53999996
   12.91111088  111.76999664    1.44000006    2.55999994
   12.91444397  109.10299683    1.41999996    2.55999994
   12.91750050  107.00299835    1.41999996    2.55999994
   12.92083359  110.13400269    1.39999998    2.55999994
   12.92416668  113.30100250    1.38000000    2.55999994
   12.92722225  109.31400299    1.38000000    2.57999992
   12.93055630  107.94300079    1.36000001    2.55999994
   12.93388939  110.27600098    1.36000001    2.55999994
   12.93694496  108.09400177    1.34000003    2.57999992
   12.94000053  107.92700195    1.33000004    2.55999994
   12.94083309  109.11900330    1.33000004    2.55999994
   12.94638920  109.11900330    1.33000004    2.57999992
   12.95055580  108.78500366    1.34000003    2.57999992
   12.95388889  103.12200165    1.34000003    2.55999994
   12.95694447  105.83200073    1.34000003    2.57999992
   12.96055508  105.92099762    1.36000001    2.55999994
   12.96361065  100.59799957    1.36000001    2.57999992
   12.96694374  101.78199768    1.36000001    2.57999992
   12.96999931  109.92099762    1.36000001    2.57999992
   12.97333336  101.54199982    1.36000001    2.57999992
   12.97361088  103.09100342    1.36000001    2.57999992
   12.97694397  102.25900269    1.34000003    2.57999992
   12.97999954  110.54799652    1.36000001    2.59999990
   12.98333359   95.49199677    1.36000001    2.57999992
   12.98944473   95.49199677    1.36000001    2.55999994
   12.99333382  114.94699860    1.36000001    2.57999992
   12.99666691  109.09899902    1.36000001    2.57999992
   13.00000000  102.90200043    1.36000001    2.57999992
   13.00305557  100.32599640    1.36000001    2.55999994
   13.00638866  109.66300201    1.36000001    2.57999992
   13.00694466  107.37799835    1.36000001    2.57999992
   13.01000023  108.46299744    1.36000001    2.57999992
   13.01333332  106.70600128    1.36000001    2.57999992
   13.01666641  104.51699829    1.36000001    2.57999992
   13.01972198  110.32599640    1.36000001    2.57999992
   13.02305508  105.57700348    1.38000000    2.57999992
   13.02638817  104.56400299    1.38000000    2.57999992
   13.03222179  104.56400299    1.39999998    2.57999992
   13.03638935  109.09200287    1.39999998    2.55999994
   13.03944492  115.28399658    1.41999996    2.55999994
   13.04027843  101.49500275    1.41999996    2.55999994
   13.04305553  109.69599915    1.41999996    2.55999994
   13.04638958  115.15200043    1.41999996    2.57999992
   13.04972267  110.23899841    1.39999998    2.55999994
   13.05277824  110.38099670    1.39999998    2.57999992
   13.05611134  107.66100311    1.36000001    2.57999992
   13.05944443  104.60399628    1.36000001    2.57999992
   13.06250000  106.18599701    1.36000001    2.57999992
   13.06583309  104.46700287    1.36000001    2.57999992
   13.06888866  106.34700012    1.36000001    2.59999990
   13.07499981  106.34700012    1.36000001    2.57999992
   13.07916641  105.37799835    1.34000003    2.57999992
   13.08222198  101.56700134    1.33000004    2.59999990
   13.08555508  104.37799835    1.33000004    2.59999990
   13.08888817  101.33200073    1.33000004    2.57999992
   13.09194374  100.82700348    1.33000004    2.57999992
   13.09527779  105.89900208    1.33000004    2.61999989
   13.09861088  102.62500000    1.30999994    2.59999990
   13.10166740  104.30100250    1.30999994    2.59999990
   13.10500050  106.88800049    1.28999996    2.61999989
   13.10694504  101.66899872    1.28999996    2.61999989
   13.10833359  103.87200165    1.28999996    2.59999990
   13.11166668  109.47399902    1.28999996    2.59999990
   13.11805534  109.47399902    1.28999996    2.59999990
   13.12222195  103.27500153    1.28999996    2.61999989
   13.12527752  102.56199646    1.28999996    2.61999989
   13.12861156  107.75000000    1.33000004    2.59999990
   13.13194466  101.80799866    1.34000003    2.59999990
   13.13500023  100.35299683    1.34000003    2.59999990
   13.13833332  109.15000153    1.34000003    2.59999990
   13.14027786  104.22699738    1.34000003    2.59999990
   13.14166641  103.86599731    1.36000001    2.57999992
   13.14499950   98.18229675    1.33000004    2.59999990
   13.14833355  103.86499786    1.30999994    2.59999990
   13.15138817   97.73850250    1.28999996    2.59999990
   13.15472221  102.40100098    1.28999996    2.61999989
   13.16083336  102.40100098    1.19000006    2.61999989
   13.16472149  102.01100159    1.19000006    2.61999989
   13.16805553  105.85099792    1.16999996    2.61999989
   13.17138958  100.92700195    1.16999996    2.64000010
   13.17361164  109.44300079    1.16999996    2.64000010
   13.17500019   97.78279877    1.14999998    2.59999990
   13.17805576  102.55400085    1.14999998    2.61999989
   13.18138885   93.40519714    1.14999998    2.61999989
   13.18444443  106.68900299    1.14999998    2.61999989
   13.18777752  105.10900116    1.13000000    2.64000010
   13.19111156  105.29699707    1.13000000    2.64000010
   13.19416714  102.66400146    1.13000000    2.61999989
   13.19750023   98.59940338    1.14999998    2.64000010
   13.20361137   98.59940338    1.13000000    2.64000010
   13.20777798  104.66699982    1.14999998    2.64000010
   13.21083355  105.65699768    1.13000000    2.64000010
   13.21416664  106.84600067    1.13000000    2.64000010
   13.21749973  109.44000244    1.13000000    2.61999989
   13.22055531  110.88899994    1.14999998    2.61999989
   13.22388840  108.53600311    1.13000000    2.64000010
   13.22694397  108.24199677    1.14999998    2.64000010
   13.23027706  106.16000366    1.13000000    2.64000010
   13.23361111  100.16400146    1.13000000    2.61999989
   13.23666668  100.26499939    1.13000000    2.61999989
   13.24000072  107.83499908    1.13000000    2.64000010
   13.24055576  100.21099854    1.13000000    2.64000010
   13.24638939  100.21099854    1.14999998    2.61999989
   13.25055599  102.52899933    1.14999998    2.64000010
   13.25361156  100.46299744    1.14999998    2.61999989
   13.25694466  102.38600159    1.14999998    2.64000010
   13.26027775  105.84300232    1.13000000    2.64000010
   13.26333332  104.40100098    1.13000000    2.64000010
   13.26666641  101.16699982    1.23000002    2.61999989
   13.26999950  104.07299805    1.23000002    2.61999989
   13.27305508  109.41799927    1.23000002    2.61999989
   13.27388859  111.05699921    1.23000002    2.61999989
   13.27694416  103.59300232    1.25000000    2.61999989
   13.27999973  100.77200317    1.26999998    2.59999990
   13.28333378   99.68270111    1.26999998    2.59999990
   13.28916740   99.68270111    1.26999998    2.61999989
   13.29333401  101.80599976    1.25000000    2.61999989
   13.29666710  105.89900208    1.25000000    2.64000010
   13.30000019   97.89140320    1.28999996    2.61999989
   13.30305576   94.98750305    1.28999996    2.61999989
   13.30638885  104.36100006    1.28999996    2.64000010
   13.30722237  109.10600281    1.28999996    2.64000010
   13.31000042  104.61399841    1.30999994    2.61999989
   13.31305599  102.92299652    2.39000010    2.59999990
   13.31638908  110.33699799    4.90999985    2.64000010
   13.31944466   98.85130310    4.90999985    1.94000006
   13.32277775  101.02200317    2.64000010    2.57999992
   13.32611084  122.66999817    4.90999985    2.61999989
   13.33222198  122.66999817    4.90999985    2.55999994
   13.33611107   97.62560272    1.63000000    2.59999990
   13.33944416   97.27189636    1.30999994    2.61999989
   13.34055519  100.29699707    1.26999998    2.64000010
   13.34305477   98.70590210    1.25000000    2.61999989
   13.34611034  109.38300323    1.25000000    2.61999989
   13.34944439  101.31600189    1.25000000    2.61999989
   13.35249996  101.37899780    1.25000000    2.61999989
   13.35583401   99.60549927    1.21000004    2.66000009
   13.35916710  107.82099915    1.21000004    2.61999989
   13.36222267  108.09400177    1.21000004    2.61999989
   13.36555576  104.45700073    1.19000006    2.66000009
   13.36888885  100.80599976    1.16999996    2.64000010
   13.37500000  100.80599976    1.19000006    2.66000009
   13.37916660   97.46839905    1.19000006    2.64000010
   13.38222218  102.26699829    1.16999996    2.66000009
   13.38555527  103.38700104    1.19000006    2.64000010
   13.38888836   99.00009918    1.21000004    2.64000010
   13.39194393  102.10299683    1.23000002    2.64000010
   13.39527798  101.00399780    1.25000000    2.64000010
   13.39833355  104.18499756    1.25000000    2.64000010
   13.40166664   95.61609650    1.25000000    2.64000010
   13.40499973  105.67700195    1.23000002    2.64000010
   13.40722179  100.05100250    1.23000002    2.64000010
   13.40861034  102.23899841    1.23000002    2.64000010
   13.41166592  100.51100159    1.23000002    2.64000010
   13.41777802  100.51100159    1.21000004    2.64000010
   13.42194462  100.25399780    1.21000004    2.64000010
   13.42527771  104.95899963    1.19000006    2.66000009
   13.42833328  101.09400177    1.19000006    2.66000009
   13.43166733  107.09999847    1.16999996    2.66000009
   13.43472195  102.20500183    1.19000006    2.64000010
   13.43805599  100.73000336    1.23000002    2.66000009
   13.44055557   99.02570343    1.23000002    2.66000009
   13.44194412   99.46559906    1.23000002    2.66000009
   13.44499969  103.98899841    1.21000004    2.66000009
   13.44833374   94.58969879    1.23000002    2.67000008
   13.45138836  109.32700348    1.21000004    2.66000009
   13.45472240  107.75299835    1.19000006    2.66000009
   13.46055508  107.75299835    1.19000006    2.66000009
   13.46472168   95.49890137    1.19000006    2.66000009
   13.46805477  100.05699921    1.14999998    2.66000009
   13.47111034   93.90200043    1.11000001    2.67000008
   13.47388840  103.91400146    1.11000001    2.67000008
   13.47499943  102.43299866    1.11000001    2.67000008
   13.47805500  104.35500336    1.11000001    2.67000008
   13.48138809   99.31900024    1.11000001    2.66000009
   13.48444462  102.80799866    1.13000000    2.67000008
   13.48777771  103.30100250    1.13000000    2.67000008
   13.49111176   94.16970062    1.13000000    2.67000008
   13.49416733  101.49700165    1.16999996    2.67000008
   13.49750042  101.61299896    1.23000002    2.66000009
   13.50333309  101.61299896    1.23000002    2.66000009
   13.50749969   99.36969757    1.38000000    2.66000009
   13.51083374  103.59700012    1.23000002    2.61999989
   13.51416683   95.82170105    1.25000000    2.64000010
   13.51722240   94.13179779    1.25000000    2.64000010
   13.52055550  103.50000000    1.28999996    2.64000010
   13.52361107   90.29789734    4.90999985    2.66000009
   13.52694416  103.13700104    4.90999985    2.32999992
   13.53027725   -1.00000000    4.90999985    2.00000000
   13.53333378   -1.00000000    4.90999985    0.31999999
   13.53666687  101.76300049    4.90999985    1.19000006
   13.54000092  104.04599762    4.90999985    2.55999994
   13.54055595  102.97399902    4.90999985    2.55999994
   13.54638958  102.97399902    1.16999996    2.66000009
   13.55055618   99.55780029    1.13000000    2.66000009
   13.55361176  103.59999847    1.14999998    2.66000009
   13.55694485   98.24240112    1.14999998    2.66000009
   13.56000042  108.70200348    1.11000001    2.67000008
   13.56333351  104.02799988    1.09000003    2.67000008
   13.56666660   98.01820374    1.09000003    2.67000008
   13.56972218  107.09799957    1.07000005    2.67000008
   13.57305527  105.96900177    1.07000005    2.67000008
   13.57388878  104.35299683    1.09000003    2.67000008
   13.57666683  105.50900269    1.09000003    2.67000008
   13.57972240  106.23500061    1.07000005    2.67000008
   13.58305550  104.40200043    1.05999994    2.67000008
   13.58916664  104.40200043    1.07000005    2.67000008
   13.59333324   99.35720062    1.05999994    2.67000008
   13.59666634  115.03099823    1.05999994    2.67000008
   13.59972191  105.12100220    1.05999994    2.69000006
   13.60305595  105.63700104    1.05999994    2.69000006
   13.60611153  106.74900055    1.07000005    2.69000006
   13.60722256  102.13800049    1.07000005    2.69000006
   13.61000061  102.96900177    1.07000005    2.69000006
   13.61305618  105.72000122    1.78999996    2.69000006
   13.61638927  104.13500214    1.03999996    2.67000008
   13.61972237  108.58300018    1.01999998    2.67000008
   13.62277794  104.62200165    1.34000003    2.69000006
   13.62611103  104.61799622    2.01999998    2.67000008
   13.63194466  104.61799622    2.44000006    2.69000006
   13.63611126  104.09500122    1.03999996    2.69000006
   13.63944435  106.99700165    1.03999996    2.67000008
   13.64055538  105.41999817    1.01999998    2.67000008
   13.64305496  110.99600220    1.01999998    2.69000006
   13.64611053  105.73000336    0.98000002    2.69000006
   13.64944458  112.82199860    1.00000000    2.69000006
   13.65277767  109.56800079    1.00000000    2.69000006
   13.65583324  106.57499695    1.00000000    2.69000006
   13.65916634  111.17500305    1.01999998    2.69000006
   13.66249943  106.01799774    1.01999998    2.67000008
   13.66555500  109.82900238    1.01999998    2.67000008
   13.66888905  109.59600067    1.01999998    2.69000006
   13.67472267  109.59600067    1.01999998    2.69000006
   13.67888927  108.20800018    1.00000000    2.69000006
   13.68222237  108.33899689    1.00000000    2.69000006
   13.68555546  104.97000122    1.00000000    2.69000006
   13.68861103  106.77400208    0.95999998    2.69000006
   13.69194412  106.57199860    0.94000000    2.69000006
   13.69527817  106.75399780    0.94000000    2.69000006
   13.69833374  110.45200348    0.94000000    2.69000006
   13.70166683  108.99700165    0.95999998    2.69000006
   13.70472240  105.53500366    0.98000002    2.71000004
   13.70722198  106.17600250    0.98000002    2.69000006
   13.70861053  106.68099976    1.00000000    2.69000006
   13.71166611  116.71800232    1.00000000    2.69000006
   13.71777725  116.71800232    1.00000000    2.69000006
   13.72194386  114.41500092    1.00000000    2.69000006
   13.72499943  102.90699768    0.98000002    2.69000006
   13.72833252  106.60800171    0.98000002    2.69000006
   13.73138809  105.11799622    0.98000002    2.69000006
   13.73472214  104.41500092    1.00000000    2.71000004
   13.73805618  110.41300201    1.01999998    2.69000006
   13.74055576  107.38500214    1.01999998    2.69000006
   13.74166679  102.06300354    1.01999998    2.69000006
   13.74472237  101.65799713    1.01999998    2.71000004
   13.74805546  109.93800354    1.01999998    2.71000004
   13.75138855  109.42199707    1.01999998    2.69000006
   13.75444412  106.16999817    1.03999996    2.69000006
   13.76055527  106.16999817    1.03999996    2.69000006
   13.76472187  103.47399902    1.03999996    2.69000006
   13.76805496  109.49199677    1.03999996    2.69000006
   13.77111053  100.36599731    1.03999996    2.69000006
   13.77388859  100.20800018    1.03999996    2.69000006
   13.77499962  102.46299744    1.03999996    2.69000006
   13.77805519  110.60299683    1.03999996    2.69000006
   13.78138828  104.47899628    1.05999994    2.69000006
   13.78472233  106.47699738    1.05999994    2.69000006
   13.78777790  105.41799927    1.05999994    2.69000006
   13.79111195   98.45310211    1.05999994    2.69000006
   13.79444504   96.03600311    1.03999996    2.69000006
   13.79750061  103.42500305    1.05999994    2.69000006
   13.80333328  103.42500305    1.03999996    2.71000004
   13.80749989  101.26799774    1.03999996    2.71000004
   13.81083393   97.65519714    1.09000003    2.67000008
   13.81388950  100.98699951    1.09000003    2.67000008
   13.81722260  106.80200195    1.09000003    2.67000008
   13.82055569  106.34899902    1.09000003    2.67000008
   13.82361126  102.45400238    1.09000003    2.69000006
   13.82694435  103.74900055    1.11000001    2.67000008
   13.82999992  106.10399628    1.14999998    2.69000006
   13.83333302  105.67600250    1.14999998    2.69000006
   13.83666611   97.19580078    1.14999998    2.69000006
   13.83972168  102.40599823    1.14999998    2.69000006
   13.84055519  102.25099945    1.14999998    2.69000006
   13.84611034  102.25099945    1.19000006    2.69000006
   13.85027790  103.37400055    1.19000006    2.69000006
   13.85361195  103.06400299    1.14999998    2.67000008
   13.85694504  101.87899780    1.13000000    2.69000006
   13.87444496   98.76249695    1.05999994    2.69000006
   13.87694454  110.59799957    1.05999994    2.69000006
   13.88000011  102.58200073    1.05999994    2.71000004
   13.88333321  102.73300171    1.07000005    2.69000006
   13.88916683  102.73300171    1.07000005    2.71000004
   13.89333344  102.02799988    1.05999994    2.71000004
   13.89666653  105.62899780    1.05999994    2.69000006
   13.89999962  103.34799957    1.07000005    2.69000006
   13.90305519  109.10600281    1.05999994    2.69000006
   13.90638828  103.45899963    1.05999994    2.69000006
   13.90777779  112.92700195    1.05999994    2.69000006
   13.90999985  106.26300049    1.05999994    2.69000006
   13.91333294  107.10399628    1.05999994    2.69000006
   13.91666698  103.57299805    1.03999996    2.69000006
   13.91972256  108.45300293    1.05999994    2.71000004
   13.92305565  105.66100311    1.03999996    2.69000006
   13.92611122   99.01249695    1.01999998    2.71000004
   13.93222237   99.01249695    1.01999998    2.71000004
   13.93611145  105.10700226    1.00000000    2.71000004
   13.93944454  111.37799835    1.05999994    2.69000006
   13.94111156  103.60500336    1.05999994    2.69000006
   13.94305515  110.47100067    1.05999994    2.71000004
   13.94638920  107.66699982    1.03999996    2.71000004
   13.94972229  111.51599884    1.01999998    2.71000004
   13.95277786  100.97399902    1.01999998    2.71000004
   13.95611095  105.85299683    1.03999996    2.71000004
   13.95944405  107.98600006    1.01999998    2.71000004
   13.96249962  105.08100128    1.00000000    2.71000004
   13.96583271  107.88099670    1.00000000    2.69000006
   13.96888828  107.89499664    1.00000000    2.71000004
   13.97499943  107.89499664    1.00000000    2.71000004
   13.97916603  110.76200104    1.01999998    2.71000004
   13.98222160  102.30799866    1.01999998    2.71000004
   13.98555565  105.97699738    1.01999998    2.71000004
   13.98888874  108.72000122    1.03999996    2.71000004
   13.99194431  103.61000061    1.03999996    2.71000004
   13.99527836  111.60800171    1.03999996    2.71000004
   13.99833393  111.31099701    1.09000003    2.67000008
   14.00166702  111.61199951    1.11000001    2.71000004
   14.00500011  111.73200226    1.11000001    2.71000004
   14.00777817  107.66100311    4.90999985    2.75000000
   14.00861073  108.76200104    4.90999985    2.75000000
   14.01194477  107.62899780    4.90999985    2.46000004
   14.01777744  107.62899780    4.90999985    1.33000004
   14.02194405  122.87500000    4.90999985    2.84999990
   14.02527714   -1.00000000    4.90999985    2.01999998
   14.02833271   -1.00000000    4.90999985    0.36000001
   14.03166676   -1.00000000    4.90999985    0.07000000
   14.03472233   -1.00000000    4.90999985    0.07000000
   14.03805637   -1.00000000    4.90999985    0.09000000
   14.04166698   -1.00000000    4.90999985    0.05000000
   14.04500008   -1.00000000    4.90999985    0.17000000
   14.04805565  113.81600189    4.90999985    1.39999998
   14.05138874  130.13400269    4.90999985    2.75000000
   14.05444431  116.51699829    1.53999996    2.69000006
   14.06055546  116.51699829    2.82999992    2.71000004
   14.06472206  123.21800232    2.50000000    2.46000004
   14.06805515  111.74199677    2.15000010    2.67000008
   14.07111073  105.21299744    1.25000000    2.67000008
   14.07444477  104.36000061    1.23000002    2.67000008
   14.07472229  104.25199890    1.23000002    2.67000008
   14.07805538  107.49400330    1.23000002    2.67000008
   14.08138847  104.29299927    1.25000000    2.67000008
   14.08444405  101.46600342    1.25000000    2.67000008
   14.08777714  104.64099884    1.26999998    2.67000008
   14.09111118  110.91600037    1.48000002    2.66000009
   14.09416676  106.69699860    3.51999998    2.30999994
   14.09749985  107.16000366    1.69000006    2.69000006
   14.10361195  107.16000366    1.14999998    2.67000008
   14.10777855  108.76899719    1.13000000    2.69000006
   14.10805607  108.58100128    1.11000001    2.69000006
   14.11138916  105.91100311    1.09000003    2.69000006
   14.11472225  109.83999634    1.05999994    2.69000006
   14.11777782  115.41699982    1.03999996    2.69000006
   14.12111092  110.22299957    1.03999996    2.71000004
   14.12416649  103.60800171    1.03999996    2.71000004
   14.12750053  108.48699951    1.05999994    2.71000004
   14.13083363  103.77999878    1.03999996    2.71000004
   14.13388920  110.17199707    1.05999994    2.71000004
   14.13722229  102.48999786    1.05999994    2.71000004
   14.14055538  108.00399780    1.03999996    2.71000004
   14.14111137  107.20300293    1.03999996    2.71000004
   14.14638901  107.20300293    1.03999996    2.73000002
   14.15055561  108.95700073    1.01999998    2.73000002
   14.15361118  104.37599945    1.00000000    2.75000000
   14.15694427  102.58300018    0.98000002    2.73000002
   14.16027737  108.15799713    0.95999998    2.73000002
   14.16333294  103.82299805    0.98000002    2.73000002
   14.16666698  101.38999939    1.00000000    2.73000002
   14.16972256  110.44100189    0.98000002    2.73000002
   14.17305565  103.92600250    1.00000000    2.73000002
   14.17444515  103.62599945    1.00000000    2.73000002
   14.17666721  107.65699768    1.00000000    2.73000002
   14.18000031  105.05200195    1.00000000    2.73000002
   14.18333340   99.21479797    0.95999998    2.75000000
   14.18916702   99.21479797    0.94000000    2.73000002
   14.19333363  104.73600006    0.94000000    2.73000002
   14.19666672   99.04920197    0.94000000    2.75000000
   14.19972229   99.55500031    0.94000000    2.75000000
   14.20305538  101.01799774    0.94000000    2.75000000
   14.20611095  100.21199799    0.95999998    2.73000002
   14.20777798  103.26000214    0.98000002    2.75000000
   14.20972157  105.81099701    1.33000004    2.75000000
   14.21305561  106.33799744    1.00000000    2.75000000
   14.21638870  105.23600006    1.00000000    2.75000000
   14.21944427  106.68000031    0.98000002    2.75000000
   14.22277737   99.92610168    1.03999996    2.75000000
   14.22611046  104.56900024    1.41999996    2.73000002
   14.23194408  104.56900024    4.90999985    2.80999994
   14.23611164   80.72850037    4.90999985    0.40000001
   14.23944473  106.59500122    4.90999985    2.80999994
   14.24111176  106.72100067    4.90999985    2.78999996
   14.24305534  102.15799713    4.90999985    2.78999996
   14.24611092  102.16799927    0.89999998    2.76999998
   14.24944496  108.08899689    0.88000000    2.75000000
   14.25249958  109.55500031    0.86000001    2.75000000
   14.25583363  104.11799622    0.88000000    2.75000000
   14.25916672  108.25000000    0.88000000    2.75000000
   14.26222229  106.91799927    0.86000001    2.75000000
   14.26555538  102.34899902    0.86000001    2.75000000
   14.26888847  101.48799896    0.86000001    2.75000000
   14.27499962  101.48799896    0.88000000    2.75000000
   14.27888870  107.56700134    0.88000000    2.75000000
   14.28222179  132.71899414    0.88000000    2.75000000
   14.28555584  109.12599945    3.48000002    2.66000009
   14.28861141  102.48300171    2.57999992    2.76999998
   14.29194450  110.79100037    4.65999985    2.75000000
   14.29527855  112.38899994    2.96000004    2.59999990
   14.29833412  109.85099792    2.36999989    2.73000002
   14.30166721  106.82099915    3.59999990    2.73000002
   14.30472279  124.86399841    4.90999985    2.51999998
   14.30777836   96.36959839    4.90999985    2.26999998
   14.30833340  107.00900269    4.90999985    2.75000000
   14.31166649   90.26979828    4.90999985    1.60000002
   14.32166672   -1.00000000    4.90999985    0.23000000
   14.32499981   -1.00000000    4.90999985    0.11000000
   14.32833290   -1.00000000    4.90999985    0.03000000
   14.33138847  109.76499939    4.90999985    0.05000000
   14.33472157  112.66600037    4.90999985    2.78999996
   14.33777714  106.44200134    2.78999996    2.78999996
   14.34111118  109.21700287    3.26999998    2.76999998
   14.34138870  104.43699646    3.26999998    2.76999998
   14.34472179  106.09200287    2.21000004    2.75000000
   14.34805489   97.84970093    4.90999985    2.78999996
   14.35111141  110.73600006    4.86999989    2.75000000
   14.35444450  131.12100220    4.71999979    2.78999996
   14.36055565  131.12100220    4.90999985    2.75000000
   14.36472225  116.31600189    4.90999985    2.36999989
   14.36805534  104.69100189    4.90999985    2.71000004
   14.37111092  106.28099823    1.96000004    2.75000000
   14.37444496  110.58999634    2.75000000    2.69000006
   14.37472248  111.69699860    3.80999994    2.67000008
   14.37805557  105.37699890    4.90999985    2.76999998
   14.38138866  149.92700195    4.90999985    2.46000004
   14.38444424  113.85099792    4.90999985    2.80999994
   14.38777733  164.44700623    4.90999985    1.33000004
   14.39111137  220.68499756    4.90999985    2.78999996
   14.39416695  276.94400024    4.90999985    2.25000000
   14.39750004  140.84700012    4.90999985    2.23000002
   14.40333271  140.84700012    4.90999985    2.76999998
   14.40749931  213.32800293    4.90999985    2.13000011
   14.41138840   -1.00000000    4.90999985    0.92000002
   14.41472149   -1.00000000    4.90999985    0.94000000
   14.41777802   -1.00000000    4.90999985    1.14999998
   14.42111111   81.06189728    4.90999985    1.46000004
   14.42416668  331.40701294    4.90999985    3.00000000
   14.42750072   -1.00000000    4.90999985    0.70999998
   14.43083382   -1.00000000    4.90999985    0.80000001
   14.43388939  234.67399597    4.90999985    1.61000001
   14.43722248  272.72399902    4.90999985    2.50000000
   14.44055557  192.20899963    4.90999985    2.46000004
   14.44138908  140.20399475    4.90999985    2.15000010
   14.44611073  140.20399475    4.90999985    2.86999989
   14.45027733   -1.00000000    4.90999985    1.11000001
   14.45361137  110.51899719    4.90999985    1.16999996
   14.45694447   -1.00000000    4.90999985    2.67000008
   14.46000004  263.80801392    4.90999985    1.60000002
   14.46333313  100.48200226    4.90999985    1.34000003
   14.46638870   -1.00000000    4.90999985    2.21000004
   14.46972179   -1.00000000    4.90999985    0.03000000
   14.47305489   -1.00000000    4.90999985    0.03000000
   14.47638798   -1.00000000    4.90999985    0.03000000
   14.47972202   -1.00000000    4.90999985    0.03000000
   14.48305511   -1.00000000    4.90999985    0.03000000
   14.49305534   -1.00000000    4.90999985    0.09000000
   14.49638939   -1.00000000    4.90999985    0.07000000
   14.49972248   93.67649841    4.90999985    0.73000002
   14.50277805   -1.00000000    4.90999985    0.40000001
   14.50611115   -1.00000000    4.90999985    0.46000001
   14.50944424   -1.00000000    4.90999985    0.31999999
   14.51277733   -1.00000000    4.90999985    0.28000000
   14.51611137   -1.00000000    4.90999985    0.61000001
   14.51916599   -1.00000000    4.90999985    1.23000002
   14.52250004   -1.00000000    4.90999985    0.73000002
   14.52555561  138.51600647    4.90999985    0.38000000
   14.53194427  138.51600647    4.90999985    1.91999996
   14.53611183  183.82699585    4.90999985    2.50000000
   14.53916740  184.45599365    4.90999985    1.51999998
   14.54138947  122.40299988    4.90999985    1.03999996
   14.54305553  149.47999573    4.90999985    2.78999996
   14.54611111   -1.00000000    4.90999985    0.75000000
   14.54944515   -1.00000000    4.90999985    0.73000002
   14.55277824   -1.00000000    4.90999985    0.20999999
   14.55583382  207.39599609    4.90999985    1.03999996
   14.55916691   -1.00000000    4.90999985    2.25000000
   14.56222248  116.94000244    4.90999985    0.80000001
   14.56555557  159.48800659    4.90999985    2.46000004
   14.56888866  140.36199951    4.90999985    1.63000000
   14.57888889   -1.00000000    4.90999985    0.15000001
   14.58194447   -1.00000000    4.90999985    0.11000000
   14.58527756   -1.00000000    4.90999985    0.09000000
   14.58861065   -1.00000000    4.90999985    0.17000000
   14.59166622  241.11599731    4.90999985    0.86000001
   14.59499931   -1.00000000    4.90999985    1.44000006
   14.59833336   -1.00000000    4.90999985    2.19000006
   14.60138893  348.59899902    4.90999985    1.13000000
   14.60472298  116.57700348    4.90999985    2.93000007
   14.60777855  127.41999817    4.90999985    1.41999996
   14.60833359  122.00199890    4.90999985    1.88000000
   14.61166668   -1.00000000    4.90999985    1.86000001
   14.61750031   -1.00000000    4.90999985    1.75000000
   14.62166691   23.57019997    4.90999985    0.73000002
   14.62500000  126.19300079    4.90999985    2.00000000
   14.62833309   -1.00000000    4.90999985    1.80999994
   14.63138866   -1.00000000    4.90999985    1.36000001
   14.63472176   -1.00000000    4.90999985    1.03999996
   14.63777733  128.55700684    4.90999985    0.89999998
   14.64111137  107.89900208    4.90999985    1.51999998
   14.64166641  126.07199860    4.90999985    1.51999998
   14.64472198  194.76600647    4.90999985    2.51999998
   14.64805508  108.45099640    4.90999985    1.69000006
   14.65111065  113.71199799    4.90999985    2.91000009
   14.65444374  107.13899994    4.90999985    2.86999989
   14.66055489  107.13899994    4.76000023    2.07999992
   14.66472149   93.87370300    4.90999985    2.82999992
   14.66777802  180.25599670    4.90999985    2.25000000
   14.67111111  108.46099854    4.90999985    1.58000004
   14.67416668   -1.00000000    4.90999985    2.23000002
   14.67500019  125.91799927    4.90999985    0.94000000
   14.67777824  108.85600281    4.90999985    1.38000000
   14.68111134  134.51100159    4.90999985    2.86999989
   14.68416691  102.99099731    4.90999985    1.73000002
   14.68750000  139.11700439    4.90999985    2.59999990
   14.69083309  139.53500366    4.90999985    2.93000007
   14.69388866  113.31900024    4.90999985    1.73000002
   14.69722271  103.18099976    4.90999985    3.01999998
   14.70749950   -1.00000000    4.90999985    0.63000000
   14.71111107   -1.00000000    4.90999985    1.09000003
   14.71416664   -1.00000000    4.90999985    0.23000000
   14.71749973   -1.00000000    4.90999985    0.17000000
   14.72083282   -1.00000000    4.90999985    0.13000000
   14.72388840   -1.00000000    4.90999985    0.79000002
   14.72722149   -1.00000000    4.90999985    0.25000000
   14.73027706   -1.00000000    4.90999985    0.73000002
   14.73361111  128.30200195    4.90999985    1.30999994
   14.73694515  144.91299438    4.90999985    2.39000010
   14.74000072  110.62100220    4.90999985    2.75000000
   14.74166679  110.15200043    4.90999985    2.61999989
   14.74611092  110.15200043    4.90999985    2.78999996
   14.75027752  108.99900055    4.90999985    2.42000008
   14.75361156  105.00900269    4.90999985    2.82999992
   14.75666714  175.40100098    4.90999985    2.76999998
   14.76000023   90.24019623    4.90999985    2.40000010
   14.76333332  106.22200012    4.90999985    2.03999996
   14.76638889  151.19900513    4.90999985    0.70999998
   14.76972198  124.59899902    4.90999985    0.56999999
   14.77305508  235.53500366    4.90999985    2.40000010
   14.77499962  141.05200195    4.90999985    1.58000004
   14.77666664  127.40200043    4.90999985    2.32999992
   14.77999973   98.10469818    4.90999985    2.34999990
   14.78305531  130.99899292    4.90999985    2.86999989
   14.78888893  130.99899292    4.90999985    2.78999996
   14.79305553  104.76499939    3.05999994    2.80999994
   14.79638958  113.64800262    3.73000002    2.75000000
   14.79972267   97.93440247    4.90999985    2.75000000
   14.80277824  104.46099854    4.84999990    2.78999996
   14.80611134  111.12100220    4.32999992    2.78999996
   14.80833340  100.71199799    4.90999985    2.82999992
   14.80972195  103.86199951    4.90999985    2.84999990
   14.81305599  113.47699738    4.90999985    1.44000006
   14.81611156  100.12599945    4.90999985    1.23000002
   14.81944466   95.97260284    4.90999985    2.86999989
   14.82277775  106.22000122    0.89999998    2.78999996
   14.82583332  104.29199982    1.48000002    2.76999998
   14.83194447  104.29199982    1.91999996    2.78999996
   14.83611107  102.48699951    1.03999996    2.76999998
   14.83916664  105.19799805    2.82999992    2.78999996
   14.84166622  106.88500214    1.73000002    2.78999996
   14.84277725   99.96260071    1.33000004    2.78999996
   14.84611034  112.31700134    4.90999985    2.80999994
   14.84916592  104.43299866    4.90999985    2.66000009
   14.85249996  104.93399811    2.67000008    2.80999994
   14.85583401  102.04299927    2.07999992    2.82999992
   14.85888958  102.38200378    3.07999992    2.80999994
   14.86222267  101.11399841    4.65999985    2.80999994
   14.86555576   98.66179657    3.50000000    2.78999996
   14.86861134   97.11579895    3.99000001    2.73000002
   14.87472248   97.11579895    1.78999996    2.76999998
   14.89305496  105.48899841    1.44000006    2.61999989
   14.89638901  105.80599976    4.13999987    2.78999996
   14.89944458  101.12400055    2.91000009    2.78999996
   14.90277767  103.22399902    2.91000009    2.78999996
   14.90611076  109.63200378    1.80999994    2.80999994
   14.90916634  106.69000244    1.13000000    2.78999996
   14.91249943  100.88200378    1.23000002    2.78999996
   14.91777802  100.88200378    1.63000000    2.78999996
   14.92194462   99.11000061    1.63000000    2.76999998
   14.92527771  101.00399780    3.82999992    2.80999994
   14.92611122   99.53990173    2.96000004    2.80999994
   14.92888927  104.63600159    3.30999994    2.80999994
   14.93194485  101.80500031    4.90999985    2.75000000
   14.93527794  101.94000244    4.90999985    2.71000004
   14.93861103   99.70400238    1.55999994    2.78999996
   14.94166660   97.27400208    1.73000002    2.76999998
   14.94499969  104.02200317    1.78999996    2.76999998
   14.94833374  102.13400269    2.11999989    2.76999998
   14.95138836   98.01149750    2.13000011    2.75000000
   14.95472240   98.94509888    2.11999989    2.75000000
   14.96055508   98.94509888    1.96000004    2.76999998
   14.96472168  108.34500122    3.95000005    2.76999998
   14.96805477  101.07099915    2.86999989    2.76999998
   14.97111034  101.96199799    1.71000004    2.76999998
   14.97444439  104.57900238    1.71000004    2.76999998
   14.97777748  108.93599701    1.28999996    2.76999998
   14.98083305  107.50900269    1.21000004    2.76999998
   14.98416710  101.64800262    1.28999996    2.76999998
   14.98750019  102.47000122    1.30999994    2.76999998
   14.99055576  101.98400116    1.34000003    2.75000000
   14.99277782  105.95500183    1.34000003    2.75000000
   14.99416733  107.23999786    1.33000004    2.76999998
   14.99722290  106.41400146    1.36000001    2.76999998
   15.00361156  106.41400146    1.44000006    2.76999998
   15.00749969  104.55500031    1.34000003    2.75000000
   15.01083374  104.80699921    1.28999996    2.76999998
   15.01416683  106.12100220    1.21000004    2.78999996
   15.01722240  101.28099823    1.11000001    2.76999998
   15.02055550  100.29599762    1.09000003    2.76999998
   15.02388859  105.65200043    1.07000005    2.76999998
   15.02611065  106.24900055    1.07000005    2.76999998
   15.02750015  101.41899872    0.94000000    2.76999998
   15.03083324  103.01799774    0.95999998    2.76999998
   15.03388977  102.96900177    0.95999998    2.76999998
   15.03722286  108.23300171    0.98000002    2.78999996
   15.04027843  101.18800354    1.00000000    2.76999998
   15.04638958  101.18800354    0.98000002    2.78999996
   15.14861107   -1.00000000   -1.00000000   -1.00000000
   15.25333309   -1.00000000   -1.00000000   -1.00000000
   15.35361195   -1.00000000   -1.00000000   -1.00000000
   15.40361118  103.27500153    4.90999985    2.66000009
   15.40694427  109.70500183    4.90999985    2.59999990
   15.41027737  104.89099884    4.90999985    2.67000008
   15.41333294  112.62899780    4.90999985    2.64000010
   15.41666698  113.17500305    4.90999985    2.73000002
   15.41972256  109.21900177    4.90999985    2.73000002
   15.42388916  109.21900177    4.90999985    2.75000000
   15.42805576  112.58899689    4.90999985    2.71000004
   15.43138885  101.21800232    4.90999985    2.48000002
   15.43444443  129.35000610    4.90999985    2.73000002
   15.43694496  104.45400238    4.90999985    2.26999998
   15.43833351  109.78199768    4.90999985    2.71000004
   15.44166660  101.68399811    4.90999985    2.71000004
   15.44472218  104.69200134    4.90999985    2.69000006
   15.44805527  103.38700104    4.90999985    2.71000004
   15.45111084  104.26200104    4.90999985    2.71000004
   15.45444393  106.75800323    4.90999985    2.71000004
   15.45777798  103.82199860    4.90999985    2.75000000
   15.46083355  101.59400177    4.88999987    2.75000000
   15.46694374  101.59400177    4.90999985    2.69000006
   15.47083282  105.81700134    4.71999979    2.73000002
   15.47416592  106.07900238    4.51000023    2.71000004
   15.47749996  104.47200012    4.80999994    2.71000004
   15.48055553  112.99900055    4.90999985    2.73000002
   15.48388958  100.82299805    4.90999985    2.71000004
   15.48722267   91.25759888    4.80999994    2.66000009
   15.49027824  106.31500244    4.90999985    2.44000006
   15.49361134  107.05500031    4.90999985    2.71000004
   15.49666691  103.13999939    4.07999992    2.73000002
   15.50000000  102.83899689    3.89000010    2.73000002
   15.50333309  103.64399719    3.84999990    2.73000002
   15.50388908  110.40899658    3.84999990    2.73000002
   15.50972176  110.40899658    3.55999994    2.75000000
   15.51388931  101.40200043    3.73000002    2.66000009
   15.51694393  104.02100372    3.86999989    2.73000002
   15.52027798  104.04799652    3.16000009    2.75000000
   15.52361107  101.61000061    3.11999989    2.75000000
   15.52666664  103.87200165    2.98000002    2.75000000
   15.52999973  106.06999969    2.80999994    2.78999996
   15.53305531  103.51699829    2.23000002    2.78999996
   15.53638935  107.43299866    2.46000004    2.76999998
   15.53722286   92.03479767    2.53999996    2.76999998
   15.54000092  102.75800323    2.71000004    2.75000000
   15.54333401  103.88300323    3.14000010    2.76999998
   15.54666710  104.08999634    2.57999992    2.78999996
   15.55249977  104.08999634    4.59999990    2.80999994
   15.55666733  102.90299988    4.90999985    2.82999992
   15.56000042   99.83850098    4.90999985    2.78999996
   15.56305599   98.74569702    4.90999985    2.73000002
   15.56638908  129.92799377    4.90999985    2.36999989
   15.56972218   -1.00000000    4.90999985    0.61000001
   15.57055569  151.28900146    4.90999985    0.58999997
   15.57305527   91.94200134    4.90999985    1.85000002
   15.57638836   98.78109741    4.90999985    2.64000010
   15.57972240   99.65699768    4.90999985    2.80999994
   15.58277798  105.52200317    3.82999992    2.78999996
   15.58611107  104.21099854    4.19999981    2.78999996
   15.58916664  100.61599731    2.66000009    2.80999994
   15.59527779  100.61599731    4.90999985    2.82999992
   15.59944439  100.82900238    4.90999985    2.34999990
   15.60277843  104.82700348    4.90999985    2.78999996
   15.60388947  111.58100128    4.90999985    2.80999994
   15.60638905  102.14600372    4.90999985    2.71000004
   15.60972214  111.54499817    4.90999985    2.34999990
   15.61305618  101.84899902    4.90999985    2.69000006
   15.61611176  104.92700195    4.90999985    2.76999998
   15.61944485  113.12000275    4.90999985    2.71000004
   15.62250042  105.19999695    4.90999985    2.71000004
   15.62583351  102.28700256    4.90999985    2.73000002
   15.62916660   96.93920135    4.90999985    2.67000008
   15.63222218   97.07070160    4.90999985    2.64000010
   15.63833332   97.07070160    4.76000023    2.66000009
   15.64222240  102.39099884    4.86999989    2.64000010
   15.64555550  104.90200043    4.90999985    2.71000004
   15.64888859  103.19000244    4.73999977    2.73000002
   15.65194416  101.90499878    4.78000021    2.73000002
   15.65527725   95.78019714    4.90999985    2.75000000
   15.65861034   98.54039764    3.80999994    2.67000008
   15.66166592   95.86100006    4.86999989    2.78999996
   15.66499996   96.87239838    4.90999985    2.59999990
   15.66805553  109.59799957    4.90999985    2.67000008
   15.67055607  116.76000214    4.90999985    2.28999996
   15.67166710  141.61399841    4.90999985    1.96000004
   15.67500019  293.86099243    4.90999985    2.21000004
   15.68111134  293.86099243    4.90999985    2.53999996
   15.68527794  222.57899475    4.90999985    2.44000006
   15.68833351  187.79800415    4.90999985    2.13000011
   15.69166660  205.29899597    4.90999985    2.30999994
   15.69499969  130.13200378    4.90999985    2.09999990
   15.69805527  110.33699799    4.90999985    2.44000006
   15.70138836  316.22399902    4.90999985    2.51999998
   15.70388889  136.77299500    4.90999985    1.75000000
   15.70499992  131.79100037    4.90999985    2.00000000
   15.70833302  103.20500183    4.90999985    1.48000002
   15.71166611  226.99000549    4.90999985    2.34999990
   15.71472168  133.72099304    4.90999985    1.26999998
   15.71805477   -1.00000000    4.90999985    1.69000006
   15.72805500   -1.00000000    4.90999985    0.64999998
   15.73111057   -1.00000000    4.90999985    0.80000001
   15.73444462   -1.00000000    4.90999985    0.55000001
   15.73805618   -1.00000000    4.90999985    0.56999999
   15.74138927   -1.00000000    4.90999985    0.55000001
   15.74444485   -1.00000000    4.90999985    0.52999997
   15.74777794   -1.00000000    4.90999985    0.73000002
   15.75083351   -1.00000000    4.90999985    0.55000001
   15.75416660   -1.00000000    4.90999985    0.55000001
   15.75749969   -1.00000000    4.90999985    0.52999997
   15.76055527   -1.00000000    4.90999985    0.58999997
   15.77083302   -1.00000000    4.90999985    0.55000001
   15.77388859   -1.00000000    4.90999985    0.76999998
   15.77722168   -1.00000000    4.90999985    0.70999998
   15.78055573   -1.00000000    4.90999985    0.40000001
   15.78361130   -1.00000000    4.90999985    0.28000000
   15.78694534   -1.00000000    4.90999985    0.19000000
   15.79027843   -1.00000000    4.90999985    0.13000000
   15.79333401   -1.00000000    4.90999985    0.13000000
   15.79666710   -1.00000000    4.90999985    0.19000000
   15.79972267   -1.00000000    4.90999985    0.20999999
   15.80305576   -1.00000000    4.90999985    0.19000000
   15.81361103   -1.00000000    4.90999985    0.19000000
   15.81694412   -1.00000000    4.90999985    0.19000000
   15.81999969   -1.00000000    4.90999985    0.28000000
   15.82333374   -1.00000000    4.90999985    0.61000001
   15.82666683   -1.00000000    4.90999985    0.46000001
   15.82972240   -1.00000000    4.90999985    0.30000001
   15.83305550   -1.00000000    4.90999985    0.25000000
   15.83611107   -1.00000000    4.90999985    0.25000000
   15.83972168   -1.00000000    4.90999985    0.20999999
   15.84305477   -1.00000000    4.90999985    0.25000000
   15.84611034   -1.00000000    4.90999985    0.30000001
   15.85638905   -1.00000000    4.90999985    0.40000001
   15.85972214   -1.00000000    4.90999985    0.46000001
   15.86305618   -1.00000000    4.90999985    0.51999998
   15.86611176   -1.00000000    4.90999985    0.38000000
   15.86944485   -1.00000000    4.90999985    0.44000000
   15.87277794   -1.00000000    4.90999985    0.52999997
   15.87611103   -1.00000000    4.90999985    0.63000000
   15.87916660   -1.00000000    4.90999985    0.73000002
   15.88249969   -1.00000000    4.90999985    0.81999999
   15.88583279   -1.00000000    4.90999985    1.14999998
   15.88888836  216.47900391    4.90999985    1.34000003
   15.89527798  216.47900391    4.90999985    2.51999998
   15.89944458  115.29199982    4.90999985    2.67000008
   15.90249920  116.87300110    4.90999985    2.00000000
   15.90388870  113.17700195    4.90999985    2.42000008
   15.90611076  113.21900177    4.90999985    2.34999990
   15.90944386  174.79299927    4.90999985    2.76999998
   15.91277695  107.12100220    4.90999985    2.73000002
   15.91583252  102.51999664    4.90999985    2.75000000
   15.91916656  105.87500000    4.90999985    2.67000008
   15.92250061  117.84400177    4.90999985    2.80999994
   15.92555618  141.21800232    4.90999985    2.75000000
   15.92888927  150.30000305    4.90999985    2.66000009
   15.93194485   -1.00000000    4.90999985    1.73000002
   15.93805599   -1.00000000    4.90999985    1.01999998
   15.94222260   -1.00000000    4.90999985    1.39999998
   15.94555569   -1.00000000    4.90999985    0.80000001
   15.94861126  190.25199890    4.90999985    1.19000006
   15.95194435  264.50399780    4.90999985    2.03999996
   15.95527744  207.32800293    4.90999985    2.13000011
   15.95833302  166.24699402    4.90999985    1.86000001
   15.96166611  109.13600159    4.90999985    1.58000004
   15.96500015  151.83599854    4.90999985    2.69000006
   15.96944427  113.13600159    4.90999985    2.26999998
   15.97055531  152.69500732    4.90999985    2.11999989
   15.97305489  107.34600067    4.90999985    2.25000000
   15.97638798  160.05700684    4.90999985    2.51999998
   15.98083305  160.05700684    4.90999985    2.40000010
   15.98500061  131.06500244    4.90999985    2.30999994
   15.98833370  108.90200043    4.90999985    2.21000004
   15.99166679  174.31199646    4.90999985    2.17000008
   15.99499989  146.13900757    4.90999985    2.11999989
   15.99833393   -1.00000000    4.90999985    2.09999990
   16.00138855  138.44900513    4.90999985    1.26999998
   16.00388908  169.87500000    4.90999985    2.28999996
   16.00499916   -1.00000000    4.90999985    2.25000000
   16.00833321   38.26169968    4.90999985    1.64999998
   16.01166725   -1.00000000    4.90999985    1.53999996
   16.01472282  135.77999878    4.90999985    1.73000002
   16.01805496  271.11099243    4.90999985    2.03999996
   16.02416611  271.11099243    4.90999985    1.91999996
   16.02833366  153.70599365    4.90999985    2.09999990
   16.03138924  178.60600281    4.90999985    2.25000000
   16.04361153   -1.00000000    0.00000000    0.00000000
   16.04416656  146.16000366    4.90999985    1.85000002
   16.04722214  103.14499664    4.90999985    2.26999998
   16.05055428  173.10800171    4.90999985    2.55999994
   16.05360985  340.31900024    4.90999985    2.28999996
   16.05694389   -1.00000000    4.90999985    1.98000002
   16.06027794   76.98650360    4.90999985    1.64999998
   16.06361008   -1.00000000    4.90999985    1.44000006
   16.06666756   -1.00000000    4.90999985    1.07000005
   16.07139015   -1.00000000    4.90999985    1.36000001
   16.07555580   -1.00000000    4.90999985    1.25000000
   16.07916832   -1.00000000    4.90999985    1.14999998
   16.08222389   -1.00000000    4.90999985    0.67000002
   16.08555603   -1.00000000    4.90999985    0.76999998
   16.08889008   -1.00000000    4.90999985    0.79000002
   16.09194565   -1.00000000    4.90999985    0.64999998
   16.09527779   -1.00000000    4.90999985    0.40000001
   16.09861183   -1.00000000    4.90999985    0.41999999
   16.10166740   -1.00000000    4.90999985    0.31999999
   16.10499954   -1.00000000    4.90999985    0.30000001
   16.10805511   -1.00000000    4.90999985    0.25999999
   16.11833382   -1.00000000    4.90999985    0.36000001
   16.12138939   -1.00000000    4.90999985    0.47999999
   16.12472153   -1.00000000    4.90999985    0.31999999
   16.12805557   -1.00000000    4.90999985    0.30000001
   16.13111115   -1.00000000    4.90999985    0.23000000
   16.13444519   -1.00000000    4.90999985    0.23000000
   16.13750076   -1.00000000    4.90999985    0.36000001
   16.14083290   -1.00000000    4.90999985    0.63000000
   16.14416695   -1.00000000    4.90999985    0.36000001
   16.14777756   -1.00000000    4.90999985    0.28000000
   16.15083313   -1.00000000    4.90999985    0.23000000
   16.16110992   -1.00000000    4.90999985    0.47999999
   16.16444397   -1.00000000    4.90999985    0.52999997
   16.16749954   -1.00000000    4.90999985    0.81999999
   16.17083359   -1.00000000    4.90999985    0.81999999
   16.17416573   -1.00000000    4.90999985    0.94000000
   16.17722130   -1.00000000    4.90999985    0.88000000
   16.18083191   -1.00000000    4.90999985    1.00000000
   16.18388748   -1.00000000    4.90999985    0.92000002
   16.18722153   -1.00000000    4.90999985    0.70999998
   16.19055557   -1.00000000    4.90999985    0.88000000
   16.19361115   -1.00000000    4.90999985    1.03999996
   16.20000076   -1.00000000    4.90999985    0.94000000
   16.20416832   -1.00000000    4.90999985    1.13000000
   16.20750046   -1.00000000    4.90999985    1.61000001
   16.21055603   -1.00000000    4.90999985    0.94000000
   16.21194458  194.74000549    4.90999985    1.00000000
   16.21444511  179.68499756    4.90999985    1.63000000
   16.23333359   23.57019997    0.00000000    0.00000000
   16.23666763   -1.00000000    4.90999985    1.73000002
   16.24277878   -1.00000000    4.90999985    1.75000000
   16.24694443  134.52600098    4.90999985    1.96000004
   16.24888992  151.69500732    4.90999985    2.32999992
   16.25055504  139.30299377    4.90999985    2.67000008
   16.25388908  208.53399658    4.90999985    2.25000000
   16.25694466  129.84199524    4.90999985    2.19000006
   16.26027870  107.13099670    4.90999985    2.71000004
   16.26361084  146.29600525    4.90999985    2.11999989
   16.26666641  107.22000122    4.90999985    2.39000010
   16.27000046  109.50599670    4.90999985    2.69000006
   16.27305603  119.40399933    4.90999985    2.75000000
   16.27638817  120.53099823    4.90999985    2.36999989
   16.27972221  101.95300293    4.90999985    2.55999994
   16.28555489  101.95300293    4.84999990    2.75000000
   16.28972244  102.78500366    2.69000006    2.75000000
   16.29305458  103.96600342    2.57999992    2.75000000
   16.29611015  104.20700073    2.34999990    2.73000002
   16.29944420  109.54100037    1.80999994    2.75000000
   16.30277634  105.36299896    1.75000000    2.76999998
   16.30583191  107.07499695    1.64999998    2.78999996
   16.30916595  100.61000061    1.55999994    2.76999998
   16.31222153  104.72200012    1.58000004    2.76999998
   16.31555557  106.29900360    1.53999996    2.76999998
   16.31638718  102.42500305    1.58000004    2.78999996
   16.31916809  102.93099976    2.80999994    2.76999998
   16.32250023  103.92199707    3.16000009    2.64000010
   16.32861137  103.92199707    3.66000009    2.78999996
   16.33250046  107.58999634    3.46000004    2.76999998
   16.33583450  102.27799988    1.83000004    2.78999996
   16.33916664  106.61299896    1.36000001    2.78999996
   16.34222221  107.65100098    1.58000004    2.78999996
   16.34555626  124.16400146    4.76000023    2.75000000
   16.34889030  124.95200348    4.90999985    2.75000000
   16.34972191  119.98999786    4.90999985    2.71000004
   16.35250092  127.97299957    4.90999985    2.64000010
   16.35583305  179.69999695    4.90999985    2.17000008
   16.35888863  149.41999817    4.90999985    2.32999992
   16.36222267  119.52100372    4.90999985    1.88000000
   16.36555672  275.57501221    4.90999985    2.34999990
   16.37138939  275.57501221    4.90999985    1.86000001
   16.37555504  106.15799713    4.90999985    2.32999992
   16.37861061  158.06500244    4.90999985    2.39000010
   16.38194466  133.69400024    4.90999985    2.32999992
   16.38333321  123.48000336    4.90999985    2.42000008
   16.38555527   -1.00000000    4.90999985    2.48000002
   16.38861084  190.05299377    4.90999985    1.66999996
   16.39194489  239.69000244    4.90999985    2.05999994
   16.39749908   90.06390381    4.90999985    1.61000001
   16.40083313  121.22100067    4.90999985    2.55999994
   16.40416718  220.08999634    4.90999985    2.11999989
   16.40722275  137.53999329    4.90999985    2.69000006
   16.41416550  137.53999329    4.90999985    2.91000009
   16.43249893   -1.00000000    4.90999985    1.36000001
   16.43583298   -1.00000000    4.90999985    1.69000006
   16.43888855   -1.00000000    4.90999985    1.09000003
   16.44222069  151.57400513    4.90999985    1.00000000
   16.44555473   -1.00000000    4.90999985    1.98000002
   16.44861031   -1.00000000    4.90999985    1.11000001
   16.45194435   -1.00000000    4.90999985    0.67000002
   16.46138954   -1.00000000    4.90999985    1.25000000
   16.46444511  120.06199646    4.90999985    0.94000000
   16.46555710  207.39799500    4.90999985    2.07999992
   16.46833420  109.36699677    4.90999985    1.03999996
   16.47138977  123.99500275    4.90999985    2.82999992
   16.47472191  169.33799744    4.90999985    2.84999990
   16.47805595   -1.00000000    4.90999985    2.26999998
   16.48111153  171.68499756    4.90999985    1.53999996
   16.48444557   -1.00000000    4.90999985    1.46000004
   16.48777771  117.98000336    4.90999985    1.48000002
   16.49083328  171.62899780    4.90999985    2.76999998
   16.49416733  143.63999939    4.90999985    1.38000000
   16.50416756   -1.00000000    4.90999985    0.79000002
   16.50749969   -1.00000000    4.90999985    1.34000003
   16.51055527   -1.00000000    4.90999985    0.44000000
   16.51388931   -1.00000000    4.90999985    1.00000000
   16.51694489   -1.00000000    4.90999985    1.41999996
   16.52027702   -1.00000000    4.90999985    0.47999999
   16.52361107  136.24800110    4.90999985    2.23000002
   16.52666664   -1.00000000    4.90999985    1.55999994
   16.53000069  122.49900055    4.90999985    0.86000001
   16.53222275  170.72500610    4.90999985    2.66000009
   16.53361130  206.64399719    4.90999985    1.71000004
   16.53666687  301.94799805    4.90999985    2.13000011
   16.54305458  301.94799805    4.90999985    2.67000008
   16.54694366   -1.00000000    4.90999985    1.55999994
   16.55027771  217.73699951    4.90999985    1.07000005
   16.55360985  121.44100189    4.90999985    1.64999998
   16.55666542  175.07400513    4.90999985    2.93000007
   16.55999947  107.60800171    4.90999985    2.84999990
   16.56333351  139.10899353    4.51000023    2.84999990
   16.56555557  102.08899689    3.39000010    2.13000011
   16.56694603  109.41600037    4.36999989    2.50000000
   16.57000160  160.02200317    4.90999985    2.82999992
   16.57333374  112.86599731    4.90999985    2.09999990
   16.57666779  100.66899872    4.90999985    2.40000010
   16.57972336   98.68450165    4.90999985    2.91000009
   16.58583450   98.68450165    4.90999985    2.84999990
   16.59000015   84.72550201    4.90999985    2.46000004
   16.59305573   -1.00000000    4.90999985    0.31999999
   16.59638977   -1.00000000    4.90999985    0.31999999
   16.59972191   -1.00000000    4.90999985    1.69000006
   16.60305595  102.23300171    4.90999985    2.13000011
   16.60639000  152.24400330    4.90999985    2.39000010
   16.60944557  100.51799774    4.90999985    1.76999998
   16.61277771   -1.00000000    4.90999985    1.01999998
   16.61611176   -1.00000000    4.90999985    0.28000000
   16.61916733   -1.00000000    4.90999985    0.09000000
   16.62249947   -1.00000000    4.90999985    0.05000000
   16.63277817   87.84819794    4.90999985    0.28000000
   16.63583374  104.03800201    4.90999985    3.01999998
   16.64805603  119.88300323    0.00000000    0.00000000
   16.65138817  104.01499939    4.90999985    2.82999992
   16.65472221  108.17900085    4.90999985    2.80999994
   16.65777779  102.83100128    4.36999989    2.78999996
   16.66110992  108.54599762    4.90999985    2.82999992
   16.66444397   97.05770111    2.73000002    2.82999992
   16.66555595  104.39199829    4.28999996    2.84999990
   16.66805458  112.34600067    4.90999985    2.84999990
   16.67111015   77.58560181    4.90999985    1.85000002
   16.67583275   77.58560181    4.90999985    2.91000009
   16.68000031   97.80370331    4.90999985    2.82999992
   16.68305397  101.00900269    4.90999985    2.78999996
   16.68638802  102.96600342    4.90999985    2.82999992
   16.68972206  101.30899811    4.90999985    2.73000002
   16.69277763   97.18029785    4.90999985    2.64000010
   16.69610977  101.27400208    4.90999985    2.80999994
   16.70194435   97.47270203    4.84999990    2.80999994
   16.70277786  100.20700073    4.84999990    2.80999994
   16.70583344  100.86299896    4.90999985    2.86999989
   16.70916748   96.98650360    4.90999985    2.67000008
   16.71250153  109.12300110    4.90999985    2.73000002
   16.71861076  109.12300110    4.90999985    2.80999994
   16.72277832  100.80300140    4.90999985    2.82999992
   16.72611237   94.08489990    4.90999985    2.86999989
   16.72916794   95.22049713    4.90999985    2.86999989
   16.73222351  100.69000244    4.90999985    2.76999998
   16.73305511   98.16709900    4.90999985    2.82999992
   16.73611069  101.69400024    4.90999985    2.82999992
   16.73944473   93.48079681    4.90999985    2.80999994
   16.74277878  117.95700073    4.90999985    2.84999990
   16.74583435  131.99800110    4.90999985    2.48000002
   16.74916649  106.21299744    4.90999985    1.63000000
   16.75250053  113.31400299    4.90999985    2.36999989
   16.75555611  100.94100189    4.90999985    2.75000000
   16.76138878  100.94100189    2.96000004    2.75000000
   16.76555634   99.60769653    2.53999996    2.76999998
   16.76888847   97.41719818    2.67000008    2.76999998
   16.77222252  101.34600067    2.69000006    2.76999998
   16.77527809  101.98300171    2.98000002    2.76999998
   16.77861023  101.07499695    3.36999989    2.76999998
   16.78166580  100.89399719    3.80999994    2.75000000
   16.78499985   97.27179718    4.01999998    2.75000000
   16.78833199   99.41459656    4.90999985    2.78999996
   16.79138756  106.02200317    4.90999985    2.53999996
   16.79472160  103.01899719    4.90999985    2.71000004
   16.79805565  140.30200195    4.90999985    2.64000010
   16.79888916  106.07900238    4.90999985    2.67000008
   16.80444336  106.07900238    4.90999985    2.76999998
   16.80861092  109.62400055    4.90999985    2.82999992
   16.81166649   92.74060059    4.90999985    2.64000010
   16.81499863   91.52809906    4.90999985    1.19000006
   16.81805611   -1.00000000    4.90999985    1.25000000
   16.82139015  135.88299561    4.90999985    1.05999994
   16.82472229   -1.00000000    4.90999985    0.44000000
   16.82777786   -1.00000000    4.90999985    0.15000001
   16.83111191   -1.00000000    4.90999985    0.13000000
   16.83472252   -1.00000000    4.90999985    0.17000000
   16.83777809   -1.00000000    4.90999985    0.17000000
   16.84111214  131.92999268    4.90999985    0.67000002
   16.84722328  131.92999268    4.90999985    2.67000008
   16.85138893  107.06300354    4.90999985    2.75000000
   16.85444450  108.81900024    4.90999985    2.84999990
   16.85777855  103.45099640    4.90999985    2.86999989
   16.86111069  102.69699860    4.90999985    2.84999990
   16.86416626  107.36599731    4.90999985    2.89000010
   16.86555672  108.48100281    4.90999985    2.91000009
   16.86777878  152.76600647    4.90999985    2.94000006
   16.87083435   -1.00000000    4.90999985    1.30999994
   16.87416649  157.91600037    4.90999985    0.28000000
   16.87750053  106.99500275    4.90999985    2.11999989
   16.88055611  107.72299957    4.90999985    2.82999992
   16.88388824   98.29029846    3.00000000    2.76999998
   16.88999939   98.29029846    2.59999990    2.76999998
   16.89416695  115.44599915    2.64000010    2.76999998
   16.89749908  117.81900024    4.90999985    2.75000000
   16.89916611   94.45259857    3.39000010    2.36999989
   16.90111160  108.75900269    4.90999985    2.67000008
   16.90444374  105.25499725    2.91000009    2.76999998
   16.90777779  101.90899658    2.01999998    2.78999996
   16.91083336  102.71600342    1.96000004    2.76999998
   16.91416550  105.61900330    4.90999985    2.78999996
   16.91722107  102.17500305    4.90999985    2.61999989
   16.92055511  108.49900055    4.90999985    2.78999996
   16.92388916  109.50399780    4.26000023    2.73000002
   16.92694473   99.68640137    4.90999985    2.78999996
   16.93277740   99.68640137    4.90999985    2.82999992
   16.93694305   -1.00000000    4.90999985    2.76999998
   16.94027710   -1.00000000    4.90999985    0.07000000
   16.94333267   -1.00000000    4.90999985    0.09000000
   16.94666672   97.94180298    4.90999985    0.09000000
   16.95000076  105.48100281    4.90999985    2.76999998
   16.95305634  106.94300079    4.90999985    2.86999989
   16.95639038  100.36599731    4.90999985    2.89000010
   16.95944595   -1.00000000    4.90999985    1.80999994
   16.96277809  101.90799713    4.90999985    1.30999994
   16.96555710  106.80799866    4.90999985    2.86999989
   16.96638870  104.23600006    4.90999985    2.86999989
   16.96944427   -1.00000000    4.90999985    2.36999989
   16.97583389   -1.00000000    4.90999985    1.38000000
   16.97972298   -1.00000000    4.90999985    0.36000001
   16.98305511   -1.00000000    4.90999985    0.25000000
   16.98638916   -1.00000000    4.90999985    0.69000000
   16.98944473   -1.00000000    4.90999985    0.05000000
   16.99277878   -1.00000000    3.34999990    0.01000000
   16.99583435   -1.00000000    2.93000007    0.01000000
   16.99972153   -1.00000000    2.86999989    0.03000000
   17.00277710   -1.00000000    4.90999985    0.07000000
   17.00611115   -1.00000000    4.90999985    0.15000001
   17.00944519  139.69999695    4.90999985    0.86000001
   17.01250076   -1.00000000    4.90999985    0.70999998
   17.01861000   -1.00000000    4.90999985    0.44000000
   17.02277756  111.58699799    4.90999985    2.46000004
   17.02583313  112.73200226    4.90999985    2.76999998
   17.02916718  106.80599976    4.32999992    2.71000004
   17.03222275  110.19699860    4.19999981    2.67000008
   17.03277779  114.20200348    4.23999977    2.71000004
   17.03610992  120.15399933    4.90999985    2.73000002
   17.03916550  146.29600525    4.90999985    2.64000010
   17.04249954  108.52500153    4.90999985    2.07999992
   17.04583359  111.26200104    4.90999985    2.78999996
   17.04888916   -1.00000000    4.90999985    2.17000008
   17.05222130   -1.00000000   -1.00000000   -1.00000000
   17.05527687  181.22900391    4.90999985    1.01999998
   17.06138802  181.22900391    4.90999985    1.63000000
   17.06555557  130.99400330    4.90999985    2.76999998
   17.06916809   -1.00000000    4.90999985    0.47999999
   17.07250023   -1.00000000    4.90999985    0.17000000
   17.07583427  126.76899719    4.90999985    0.44000000
   17.07888985  126.75399780    4.90999985    2.17000008
   17.08222389  176.86399841    4.90999985    2.69000006
   17.08527756  174.70399475    4.90999985    2.42000008
   17.08861160  105.03299713    4.90999985    2.78999996
   17.09194565  279.36898804    4.90999985    2.51999998
   17.09500122  244.19500732    4.90999985    1.78999996
   17.09833336  134.22500610    4.90999985    2.00000000
   17.09944534  178.46800232    4.90999985    2.42000008
   17.10833359   -1.00000000    4.90999985    0.11000000
   17.11138916   -1.00000000    4.90999985    0.15000001
   17.11472321   -1.00000000    4.90999985    0.03000000
   17.11805534   -1.00000000    4.90999985    0.01000000
   17.12111092   -1.00000000    1.21000004    0.01000000
   17.12444496   -1.00000000    1.88000000    0.01000000
   17.12777710   -1.00000000    4.90999985    0.05000000
   17.13083267   -1.00000000    4.90999985    0.09000000
   17.13444519   -1.00000000    4.90999985    0.15000001
   17.13777733   -1.00000000    4.90999985    0.17000000
   17.14083290   -1.00000000    4.90999985    0.23000000
   17.14722252   -1.00000000    4.90999985    0.88000000
   17.15111160   -1.00000000    4.90999985    0.28000000
   17.15444374  207.17799377    4.90999985    0.38000000
   17.15777779  109.34899902    4.90999985    1.33000004
   17.16083336  196.66700745    4.90999985    1.75000000
   17.16416550  108.81300354    4.90999985    1.48000002
   17.16611099  107.16300201    4.90999985    2.80999994
   17.16777802  106.94599915    4.90999985    2.84999990
   17.17083359  104.73799896    4.84999990    2.76999998
   17.17416573  114.02600098    1.85000002    2.76999998
   17.17749977  109.27799988    1.66999996    2.78999996
   17.18055534  107.39399719    1.96000004    2.78999996
   17.18388748  112.14099884    1.61000001    2.78999996
   17.19083214  112.14099884    1.80999994    2.78999996
   17.19499969  108.71199799    2.40000010    2.78999996
   17.20388985  111.66600037    4.90999985    2.57999992
   17.20444489   95.17259979    2.15000010    2.78999996
   17.20750046  108.72799683    1.75000000    2.78999996
   17.21055603  107.34400177    1.60000002    2.78999996
   17.21389008  103.73100281    4.90999985    2.80999994
   17.21722221  100.19200134    4.90999985    2.32999992
   17.22027779  206.11000061    4.90999985    1.09000003
   17.22361183  174.10800171    4.90999985    2.13000011
   17.22666740   -1.00000000    4.90999985    1.80999994
   17.23694420   -1.00000000    4.90999985    0.40000001
   17.24027824   -1.00000000    4.90999985    0.25999999
   17.24361229   -1.00000000    4.90999985    0.58999997
   17.24694443   -1.00000000    4.90999985    0.67000002
   17.25000000   -1.00000000    4.90999985    0.56999999
   17.25333405   -1.00000000    4.90999985    0.40000001
   17.25638962   -1.00000000    4.90999985    0.83999997
   17.25972176   -1.00000000    4.90999985    1.01999998
   17.26305580   -1.00000000    4.90999985    0.63000000
   17.26611137   -1.00000000    4.90999985    1.11000001
   17.26944351  149.80999756    4.90999985    1.16999996
   17.27555466   -1.00000000    4.90999985    1.19000006
   17.27972221  247.21600342    4.90999985    1.63000000
   17.28305435  124.65799713    4.90999985    2.50000000
   17.28610992  134.24000549    4.90999985    2.28999996
   17.28944397  112.92299652    4.90999985    2.28999996
   17.29277802  113.29199982    4.90999985    1.98000002
   17.29611015   97.70719910    4.90999985    2.75000000
   17.29944420  102.47599792    4.90999985    2.75000000
   17.30249977  110.10299683    4.90999985    2.71000004
   17.30444336  112.68900299    4.90999985    2.71000004
   17.30638885  108.22299957    4.90999985    2.76999998
   17.30944443  108.99199677    2.82999992    2.76999998
   17.31277657  107.69000244    2.25000000    2.78999996
   17.31861115  107.69000244    2.67000008    2.80999994
   17.32250023   96.56520081    4.57999992    2.82999992
   17.32583427  106.48999786    4.90999985    2.80999994
   17.32916832   -1.00000000    4.90999985    2.96000004
   17.33222389   -1.00000000    4.90999985    0.89999998
   17.33555603  133.68800354    4.90999985    1.60000002
   17.33777809  110.17299652    4.90999985    2.21000004
   17.33916664  101.91799927    4.90999985    2.40000010
   17.34277916  106.35600281    4.90999985    2.50000000
   17.34583473  100.13899994    4.90999985    2.93000007
   17.34916687  116.88200378    4.90999985    2.71000004
   17.35222244   -1.00000000    4.90999985    2.17000008
   17.35555649  101.69400024    4.90999985    1.21000004
   17.36138916  101.69400024    4.90999985    0.98000002
   17.36555672   -1.00000000    4.90999985    0.30000001
   17.36861038   -1.00000000    4.90999985    0.20999999
   17.37222290   -1.00000000    4.90999985    0.03000000
   17.37555504   -1.00000000    4.26999998    0.01000000
   17.37888908   -1.00000000    4.90999985    0.01000000
   17.38194466   -1.00000000    4.90999985    0.03000000
   17.38527679   -1.00000000    4.90999985    0.05000000
   17.38833237   -1.00000000    4.90999985    0.07000000
   17.39166641   -1.00000000    4.90999985    0.07000000
   17.39500046   -1.00000000    4.90999985    0.05000000
   17.39805603   -1.00000000    2.25000000    0.01000000
   17.40805435   -1.00000000    2.25000000    0.01000000
   17.41138840   -1.00000000    2.25000000    0.01000000
   17.41472244   -1.00000000    2.25000000    0.01000000
   17.41777802   -1.00000000    2.25000000    0.01000000
   17.42166519   -1.00000000    2.25000000    0.01000000
   17.42472076   -1.00000000    2.25000000    0.01000000
   17.42805481   -1.00000000    2.25000000    0.01000000
   17.43111038   -1.00000000    2.25000000    0.01000000
   17.45750046   -1.00000000    2.25000000    0.01000000
   17.46083450   -1.00000000    2.25000000    0.01000000
   17.46416664   -1.00000000    2.25000000    0.01000000
   17.46722221   -1.00000000    2.25000000    0.01000000
   17.47055626   -1.00000000    2.25000000    0.01000000
   17.47361183   -1.00000000    2.25000000    0.01000000
   17.47694588   -1.00000000    2.25000000    0.01000000
   17.48027802   -1.00000000    2.25000000    0.01000000
   17.48361206   -1.00000000    3.73000002    0.01000000
   17.48694420   -1.00000000    4.90999985    0.05000000
   17.48999977   -1.00000000    4.90999985    0.30000001
   17.49638939   -1.00000000    4.90999985    0.88000000
   17.50055504  161.81700134    4.90999985    0.75000000
   17.50388908   -1.00000000    4.90999985    0.44000000
   17.50694466   -1.00000000    4.90999985    0.23000000
   17.51861000   -1.00000000    4.90999985    0.07000000
   17.52222252   -1.00000000    3.45000005    0.03000000
   17.52527809   -1.00000000    4.01999998    0.03000000
   17.52861023   -1.00000000    4.67999983    0.05000000
   17.53166580   -1.00000000    4.73999977    0.07000000
   17.53499985   -1.00000000    4.90999985    0.13000000
   17.53833199  195.08700562    4.90999985    0.23000000
   17.54138756   -1.00000000    4.90999985    2.36999989
   17.55027771  169.36399841    4.90999985    0.69000000
   17.55249977  221.63200378    4.90999985    1.86000001
   17.55388832  111.00700378    4.90999985    1.76999998
   17.55722237  113.96800232    4.90999985    2.91000009
   17.56027794  296.18600464    4.90999985    2.48000002
   17.56361008  163.60099792    4.90999985    2.36999989
   17.56666756  156.13699341    4.90999985    1.66999996
   17.57000160  116.51499939    4.90999985    1.66999996
   17.57333374   -1.00000000    4.90999985    1.21000004
   17.57638931  261.01998901    4.90999985    0.47999999
   17.57972336   -1.00000000    4.90999985    2.40000010
   17.58305550  107.75900269    4.90999985    1.01999998
   17.58916664  107.75900269    4.90999985    2.44000006
   17.59333420   -1.00000000    4.90999985    1.63000000
   17.59638977   -1.00000000    4.90999985    0.80000001
   17.59972191   -1.00000000    4.90999985    0.70999998
   17.60305595   88.51180267    4.90999985    1.03999996
   17.60611153   -1.00000000    4.90999985    1.63000000
   17.61111069   -1.00000000    4.90999985    1.09000003
   17.61416626  146.26300049    4.90999985    0.67000002
   17.61750031  107.65100098    4.90999985    2.11999989
   17.62000084  106.63899994    4.90999985    2.86999989
   17.62111092  110.14299774    4.80000019    2.84999990
   17.62444496  109.88700104    3.84999990    2.80999994
   17.62750053  128.64900208    4.90999985    2.59999990
   17.63194466  128.64900208    4.90999985    2.55999994
   17.63611031  110.75399780    4.90999985    2.78999996
   17.63944435  108.62799835    4.90999985    2.69000006
   17.64249992   95.28160095    4.90999985    2.66000009
   17.64583397  142.38999939    4.90999985    2.75000000
   17.64916611  110.18299866    4.90999985    2.44000006
   17.65222168  115.45200348    4.90999985    2.48000002
   17.65333366  104.26899719    4.90999985    2.84999990
   17.65583229  149.03999329    4.90999985    2.30999994
   17.65888786  115.97299957    4.90999985    2.39000010
   17.66222191   -1.00000000    4.90999985    2.76999998
   17.66555595   -1.00000000    4.90999985    0.03000000
   17.66860962   -1.00000000    4.90999985    0.03000000
   17.67888832   -1.00000000    4.90999985    0.03000000
   17.68222237   -1.00000000    4.90999985    0.03000000
   17.68527603   -1.00000000    4.71999979    0.01000000
   17.68888855   -1.00000000    4.71999979    0.01000000
   17.69222069   -1.00000000    4.71999979    0.01000000
   17.69555473   -1.00000000    4.71999979    0.01000000
   17.69861031   -1.00000000    4.71999979    0.01000000
   17.70194435   -1.00000000    4.71999979    0.01000000
   17.70499992   -1.00000000    4.90999985    0.01000000
   17.70833397   -1.00000000    4.90999985    0.05000000
   17.71166801   -1.00000000    4.90999985    0.07000000
   17.71777916   -1.00000000    4.90999985    1.09000003
   17.72194481   -1.00000000    4.90999985    0.70999998
   17.72500038   -1.00000000    4.90999985    0.07000000
   17.72833443   -1.00000000    1.13000000    0.01000000
   17.73139000   -1.00000000    1.13000000    0.01000000
   17.73472214   -1.00000000    1.13000000    0.01000000
   17.73805618   -1.00000000    1.13000000    0.01000000
   17.74111176   -1.00000000    1.13000000    0.01000000
   17.74444389   -1.00000000    1.13000000    0.01000000
   17.74777794   -1.00000000    1.13000000    0.01000000
   17.75083351   -1.00000000    1.13000000    0.01000000
   17.75444412   -1.00000000    1.13000000    0.01000000
   17.76472282   -1.00000000    2.51999998    0.03000000
   17.76777840   -1.00000000    4.90999985    0.09000000
   17.77111053   -1.00000000    4.90999985    0.19000000
   17.77416611  160.60000610    4.90999985    0.50000000
   17.77750015  120.58399963    4.90999985    2.07999992
   17.78083229  151.43499756    4.90999985    2.64000010
   17.78388786  127.09400177    4.90999985    2.42000008
   17.78694344  110.12599945    3.80999994    2.57999992
   17.78777695  108.36100006    4.38999987    2.67000008
   17.79083252  102.44499969    4.65999985    2.75000000
   17.79416656  110.47200012    3.55999994    2.75000000
   17.79749870  105.32800293    4.69999981    2.78999996
   17.80333328  105.32800293    4.90999985    2.84999990
   17.80749893   99.77929688    4.90999985    2.89000010
   17.81083298  104.20800018    4.90999985    2.84999990
   17.81388855  102.20500183    4.90999985    2.82999992
   17.81722260  101.21499634    4.90999985    2.82999992
   17.82027817  103.10800171    4.90999985    2.73000002
   17.82083511   90.89610291    4.90999985    2.73000002
   17.82389069  114.66200256    4.90999985    2.82999992
   17.82722282  100.07099915    4.90999985    2.75000000
   17.83055687  148.06900024    4.90999985    2.76999998
   17.83361244  102.30000305    4.90999985    2.64000010
   17.83694458  100.71399689    4.90999985    2.76999998
   17.84000015   98.58370209    4.90999985    2.75000000
   17.84638977   98.58370209    4.90999985    2.75000000
   17.85027885   99.03859711    3.07999992    2.73000002
   17.85361099  102.66100311    3.51999998    2.73000002
   17.85416794  101.27300262    3.51999998    2.73000002
   17.85722351  100.45800018    4.23999977    2.69000006
   17.86055565   98.64679718    4.90999985    2.69000006
   17.86388969  102.48699951    4.90999985    2.57999992
   17.86694527  108.35700226    4.90999985    2.55999994
   17.87027740  132.93299866    4.90999985    2.51999998
   17.87333298  103.62799835    4.90999985    2.21000004
   17.87666702  117.09799957    4.90999985    1.48000002
   17.88000107  105.25800323    4.90999985    2.44000006
   17.88305473  116.02899933    4.90999985    2.59999990
   17.88916588  116.02899933    4.90999985    2.59999990
   17.89333344  113.05599976    4.90999985    2.07999992
   17.89638901  103.35700226    4.90999985    2.66000009
   17.89972115  111.62300110    4.90999985    2.53999996
   17.90277672  116.12899780    4.90999985    2.55999994
   17.90611076  107.83599854    4.90999985    2.61999989
   17.90944481  111.31600189    4.90999985    2.57999992
   17.91277695  117.73799896    4.90999985    2.48000002
   17.91583252  115.57599640    4.90999985    2.50000000
   17.91916656  116.73899841    4.90999985    2.51999998
   17.92027664  111.01100159    4.90999985    2.36999989
   17.92277718  106.51000214    4.90999985    2.61999989
   17.92583275   -1.00000000    4.90999985    2.36999989
   17.93194389   -1.00000000    4.90999985    2.11999989
   17.93638802   -1.00000000    4.90999985    0.38000000
   17.93944359  112.07299805    4.90999985    2.09999990
   17.94277763  108.39700317    4.90999985    2.67000008
   17.94583321  106.98200226    4.90999985    2.75000000
   17.94916534  103.72000122    4.90999985    2.76999998
   17.95250130  105.22000122    4.48999977    2.34999990
   17.95361137  108.86299896    4.82999992    2.57999992
   17.95611191  102.57800293    4.90999985    2.73000002
   17.95916748  102.33000183    4.90999985    2.78999996
   17.96250153  104.23400116    4.90999985    2.78999996
   17.96583366  123.51799774    4.90999985    2.76999998
   17.96888924  105.03800201    4.90999985    2.76999998
   17.97472191  105.03800201    4.90999985    2.82999992
   17.97888947  106.31400299    4.90999985    2.71000004
   17.98222351  105.91799927    4.90999985    2.34999990
   17.98527718  106.62400055    4.90999985    2.75000000
   17.98722267  104.97399902    4.90999985    2.78999996
   17.98916626  107.80200195    4.90999985    2.80999994
   17.99222183  106.53800201    4.90999985    2.80999994
   17.99555588  103.30300140    4.90999985    2.84999990
   17.99861145  112.45400238    4.90999985    2.84999990
   18.00194359  123.10399628    4.90999985    1.88000000
   18.00527763  137.26899719    4.90999985    2.26999998
   18.00833321  105.68900299    4.90999985    1.78999996
   18.01166725  135.30000305    4.90999985    2.11999989
   18.02166557   -1.00000000    4.90999985    0.34000000
   18.02499962  111.84799957    4.90999985    0.89999998
   18.02805519  125.76000214    4.90999985    1.66999996
   18.03138924   -1.00000000    4.90999985    0.76999998
   18.03444481   -1.00000000    4.90999985    0.73000002
   18.03777695   -1.00000000    4.90999985    0.31999999
   18.04111099   -1.00000000    4.90999985    0.40000001
   18.04416656   -1.00000000    4.90999985    1.14999998
   18.04749870  133.22300720    4.90999985    0.94000000
   18.05083275   -1.00000000    4.90999985    1.73000002
   18.05416679   -1.00000000    4.90999985    0.63000000
   18.06055450   -1.00000000    4.90999985    1.48000002
   18.06472206  114.58200073    4.90999985    2.78999996
   18.06777954  244.30700684    4.90999985    2.86999989
   18.07111168  109.44999695    4.90999985    2.86999989
   18.07416725  109.18900299    4.90999985    2.71000004
   18.07750130  104.05599976    4.90999985    2.80999994
   18.08083344   97.62850189    4.90999985    2.39000010
   18.08388901  136.81900024    4.90999985    2.13000011
   18.08722305  104.67400360    4.90999985    2.46000004
   18.08777809  112.61399841    4.90999985    2.59999990
   18.09083366  107.15699768    4.90999985    2.50000000
   18.09416771  106.84400177    4.90999985    2.64000010
   18.09722328  103.26399994    4.90999985    2.71000004
   18.10333443  103.26399994    4.90999985    2.34999990
   18.10750008  109.66999817    4.90999985    2.73000002
   18.11055565  104.86699677    4.90999985    2.69000006
   18.11388969  108.06500244    4.90999985    2.69000006
   18.11722183  103.81999969    4.90999985    2.67000008
   18.12027740  113.47899628    4.90999985    2.53999996
   18.12083435  109.66699982    4.90999985    2.23000002
   18.12416649  106.36799622    4.90999985    2.59999990
   18.12750053  114.11599731    4.90999985    2.55999994
   18.13055611  109.96900177    4.90999985    2.59999990
   18.13388824  108.83000183    4.90999985    2.64000010
   18.13694382  103.37000275    4.71999979    2.69000006
   18.14027786  106.74600220    4.05999994    2.69000006
   18.14611053  106.74600220    3.48000002    2.75000000
   18.15027809  102.12100220    3.57999992    2.71000004
   18.15361023  108.54000092    3.51999998    2.75000000
   18.15416718  107.92600250    3.45000005    2.75000000
   18.15722275  109.37000275    3.48000002    2.73000002
   18.16055489  104.91300201    4.00000000    2.73000002
   18.16361046  104.30500031    4.32999992    2.71000004
   18.16694450  103.00099945    4.48999977    2.73000002
   18.17000008  107.37599945    4.90999985    2.69000006
   18.17333221  104.07900238    4.90999985    2.69000006
   18.17666626  101.37699890    4.80999994    2.71000004
   18.17972183  104.11000061    4.59999990    2.71000004
   18.18305397   99.34590149    4.05999994    2.73000002
   18.18888855   99.34590149    3.61999989    2.75000000
   18.19305420  107.98600006    4.90999985    2.76999998
   18.19638824  127.17400360    4.90999985    2.78999996
   18.19972038  103.89700317    4.90999985    2.78999996
   18.20277786  109.55599976    4.90999985    2.84999990
   18.20611191  103.79499817    4.90999985    2.76999998
   18.20916748  104.41799927    4.90999985    2.82999992
   18.21250153  101.82399750    4.90999985    2.80999994
   18.21583366  101.03900146    4.90999985    2.76999998
   18.21888924  110.43599701    4.90999985    2.76999998
   18.22083473  109.48899841    4.90999985    2.69000006
   18.22277832  104.12599945    4.90999985    2.71000004
   18.22611237  111.22799683    4.90999985    2.78999996
   18.23194504  111.22799683    4.90999985    2.80999994
   18.23583412  107.75399780    4.90999985    2.57999992
   18.23916626  148.50199890    4.90999985    2.21000004
   18.24250031  109.63300323    4.90999985    2.34999990
   18.24555588  120.80699921    4.90999985    2.78999996
   18.24888992  111.21399689    4.90999985    2.59999990
   18.25222206  106.75499725    4.90999985    2.71000004
   18.25416756  111.30999756    4.53999996    2.75000000
   18.25583267  111.12999725    4.23999977    2.75000000
   18.25916672  106.76100159    4.90999985    2.76999998
   18.26222229  102.51999664    4.90999985    2.78999996
   18.26555634  114.96399689    4.90999985    2.75000000
   18.26861000  110.55300140    4.90999985    2.75000000
   18.27472115  110.55300140    4.90999985    2.73000002
   18.27888870  104.93499756    4.90999985    2.75000000
   18.28194427  102.60900116    4.38999987    2.75000000
   18.28527641  110.25800323    4.90999985    2.73000002
   18.28750038  104.16400146    3.84999990    2.73000002
   18.28888893  104.38500214    4.00000000    2.73000002
   18.29222107  106.38500214    4.90999985    2.75000000
   18.29527664  152.27200317    4.90999985    2.64000010
   18.29861069  138.38499451    4.90999985    2.28999996
   18.30166626  118.10800171    4.90999985    2.36999989
   18.30499840  141.08299255    4.90999985    2.57999992
   18.30833244   -1.00000000    4.90999985    1.88000000
   18.31138802   -1.00000000    4.90999985    0.50000000
   18.31750107   -1.00000000    4.90999985    1.50000000
   18.32166672  114.60600281    4.90999985    2.53999996
   18.32500076  104.25800323    4.90999985    2.50000000
   18.32805634  107.06199646    4.90999985    2.53999996
   18.33139038  108.08300018    4.90999985    2.57999992
   18.33444595  115.65000153    4.90999985    2.59999990
   18.33777809  106.48300171    4.90999985    2.69000006
   18.34111214  103.56500244    4.90999985    2.73000002
   18.34416771   97.31610107    4.90999985    2.76999998
   18.34749985  100.45800018    4.90999985    2.78999996
   18.35083389  105.13500214    4.90999985    2.78999996
   18.35388947  117.62100220    4.90999985    2.76999998
   18.35444450  101.39900208    4.90999985    2.76999998
   18.36027908  101.39900208    4.90999985    2.44000006
   18.36444473  186.06199646    4.90999985    2.39000010
   18.36777878  106.84300232    4.90999985    2.53999996
   18.37083435  105.64199829    2.09999990    2.80999994
   18.37416649  101.73799896    1.63000000    2.78999996
   18.37750053  101.66999817    1.64999998    2.80999994
   18.38055611  112.27600098    3.26999998    2.80999994
   18.38388824  102.68099976    4.63999987    2.75000000
   18.38722229  106.40000153    4.90999985    2.89000010
   18.38777733  100.15000153    4.90999985    2.86999989
   18.39083290  110.27400208    4.90999985    1.76999998
   18.39416695  104.97399902    4.90999985    2.89000010
   18.39722252  117.16100311    4.90999985    2.86999989
   18.40333366  117.16100311    4.90999985    2.55999994
   18.40722275  113.48899841    4.90999985    2.64000010
   18.41055489  136.65400696    4.90999985    2.73000002
   18.41388893  108.35600281    4.90999985    1.55999994
   18.41694450  112.53700256    4.90999985    2.09999990
   18.42027664  114.56900024    4.90999985    2.15000010
   18.42111015  114.90599823    4.90999985    2.15000010
   18.42388916   -1.00000000    4.90999985    1.89999998
   18.42722130  108.94699860    4.90999985    1.85000002
   18.43027687  122.54399872    4.90999985    1.89999998
   18.43361092   -1.00000000    4.90999985    1.46000004
   18.43666649  110.51499939    4.90999985    1.60000002
   18.43999863  157.74099731    4.90999985    1.63000000
   18.44610977  157.74099731    4.90999985    2.46000004
   18.46666718  108.92800140    4.63999987    2.82999992
   18.46722221  107.38300323    4.63999987    2.82999992
   18.47027779  101.57599640    4.90999985    2.67000008
   18.47361183  106.88300323    2.64000010    2.78999996
   18.47694588  103.62899780    1.96000004    2.78999996
   18.48000145  104.71099854    1.66999996    2.76999998
   18.48333359  103.16200256    1.60000002    2.76999998
   18.48916626  103.16200256    1.83000004    2.75000000
   18.49333382  100.13200378    3.43000007    2.76999998
   18.49638939  101.52899933    4.36999989    2.76999998
   18.49972153  102.55599976    2.03999996    2.76999998
   18.50055504   97.04260254    2.05999994    2.78999996
   18.50333405   98.17369843    2.23000002    2.78999996
   18.50666618  101.93499756    4.90999985    2.78999996
   18.51000023  100.74500275    4.90999985    2.76999998
   18.51305580  100.47599792    4.90999985    2.48000002
   18.51638794  105.95500183    4.90999985    2.80999994
   18.51944351  105.55300140    4.90999985    2.80999994
   18.52277756   98.74859619    4.90999985    2.39000010
   18.52611160   88.01129913    4.90999985    2.64000010
   18.53194427   88.01129913    4.90999985    2.39000010
   18.53610992  105.60099792    4.53000021    2.78999996
   18.53916550  108.30200195    4.48999977    2.78999996
   18.54249954  108.31500244    4.44999981    2.78999996
   18.54583359  108.55000305    4.90999985    2.82999992
   18.54888916  131.67999268    4.90999985    2.59999990
   18.55222130   -1.00000000    4.90999985    2.55999994
   18.55555534  123.11499786    4.90999985    0.92000002
   18.55861092  108.09100342    4.90999985    2.82999992
   18.56194305  112.67199707    4.90999985    2.84999990
   18.56499863  108.27100372    4.73999977    2.80999994
   18.56722260  118.67400360    4.90999985    2.26999998
   18.56861115  115.98200226    4.90999985    2.42000008
   18.57472229  115.98200226    4.90999985    2.80999994
   18.57888985  176.00599670    4.90999985    1.00000000
   18.58222389   -1.00000000    4.90999985    0.95999998
   18.58527756  165.72700500    4.90999985    1.13000000
   18.58861160   -1.00000000    4.90999985    0.75000000
   18.59194565  112.49199677    4.90999985    1.38000000
   18.59500122   -1.00000000    4.90999985    1.13000000
   18.59833336   -1.00000000    4.90999985    0.41999999
   18.60194397   -1.00000000    4.90999985    0.17000000
   18.60527802  102.92800140    4.90999985    0.73000002
   18.60833359  175.57600403    4.90999985    2.46000004
   18.61166763  115.28900146    4.90999985    2.73000002
   18.61750031  115.28900146    4.90999985    2.82999992
   18.62166595   -1.00000000    4.90999985    0.89999998
   18.62500000   -1.00000000    4.90999985    0.55000001
   18.62833405   -1.00000000    4.90999985    1.01999998
   18.63138962  266.62399292    4.90999985    1.19000006
   18.63388824  112.80799866    4.90999985    1.91999996
   18.63500023  110.28299713    4.90999985    2.30999994
   18.63833237  120.07199860    4.90999985    2.55999994
   18.64166641  111.59700012    4.90999985    2.32999992
   18.64472198  106.84500122    4.90999985    2.69000006
   18.64805603  115.26799774    4.90999985    2.71000004
   18.65138817  129.19900513    4.90999985    2.73000002
   18.65444374  109.57700348    4.90999985    2.50000000
   18.66055489  109.57700348    4.19999981    2.75000000
   18.66472244  104.15399933    3.70000005    2.75000000
   18.66722107  104.19899750    4.90999985    2.75000000
   18.66833305  106.95500183    4.90999985    2.75000000
   18.67138863  109.27799988    4.90999985    2.75000000
   18.67472076  105.37200165    4.90999985    2.71000004
   18.67777634  106.84999847    4.90999985    2.28999996
   18.68111038  104.95899963    4.90999985    2.75000000
   18.68444443  106.53700256    3.11999989    2.69000006
   18.68750000  109.86799622    3.39000010    2.75000000
   18.69083214  107.80400085    3.01999998    2.73000002
   18.69388771  109.98699951    3.14000010    2.75000000
   18.69722176  104.63400269    3.01999998    2.75000000
   18.70333481  104.63400269    2.71000004    2.75000000
   18.70750046  103.31400299    2.48000002    2.75000000
   18.71055603  102.40200043    2.61999989    2.76999998
   18.71389008  102.37300110    3.76999998    2.75000000
   18.71722221  102.26899719    3.26999998    2.75000000
   18.72055626  101.46199799    3.72000003    2.75000000
   18.72361183  138.54299927    4.90999985    2.61999989
   18.72694588   98.76100159    4.90999985    2.25000000
   18.73000145  103.18599701    4.90999985    2.53999996
   18.73333359  113.13500214    4.90999985    2.76999998
   18.73416710  115.04399872    4.90999985    2.76999998
   18.73694420   99.23400116    4.05999994    2.75000000
   18.73999977  105.49099731    4.01999998    2.67000008
   18.74611092  105.49099731    4.90999985    2.75000000
   18.75027847  105.51699829    4.11999989    2.75000000
   18.75361061  104.81099701    3.03999996    2.75000000
   18.75666618  104.13899994    3.28999996    2.75000000
   18.76000023  106.68299866    3.21000004    2.76999998
   18.76333427  107.21299744    3.18000007    2.73000002
   18.76638794  103.54399872    2.36999989    2.75000000
   18.76749992  105.27200317    2.50000000    2.76999998
   18.77000046  103.89199829    3.05999994    2.76999998
   18.77305603  103.37300110    4.42999983    2.76999998
   18.77638817  106.98100281    4.71999979    2.78999996
   18.77972221  105.77999878    3.50000000    2.78999996
   18.78277779  104.81800079    2.75000000    2.76999998
   18.78916550  104.81800079    1.98000002    2.75000000
   18.79305458  106.50099945    2.13000011    2.76999998
   18.79638863  104.29900360    3.86999989    2.75000000
   18.79972076  106.04399872    4.01999998    2.76999998
   18.80111122  107.97599792    4.01999998    2.76999998
   18.80333328  102.14700317    2.64000010    2.76999998
   18.80638885   98.62960052    4.90999985    2.76999998
   18.80972099  196.87300110    4.90999985    2.07999992
   18.81305504  115.09200287    4.90999985    2.26999998
   18.81611061  119.99299622    4.90999985    2.21000004
   18.81944466   -1.00000000    4.90999985    1.50000000
   18.82277870  101.29199982    4.90999985    1.19000006
   18.82583427  105.66400146    4.90999985    1.83000004
   18.83194542  105.66400146    4.90999985    2.53999996
   18.83611107  113.21099854    4.90999985    2.28999996
   18.83916664  127.77799988    4.90999985    2.55999994
   18.84250069   -1.00000000    4.90999985    1.33000004
   18.84555626  254.44000244    4.90999985    0.50000000
   18.84889030   -1.00000000    4.90999985    1.53999996
   18.85222244   -1.00000000    4.90999985    0.94000000
   18.85527802   -1.00000000    4.90999985    1.19000006
   18.85861206  111.16500092    4.90999985    0.94000000
   18.86194420  126.11399841    4.90999985    2.69000006
   18.86499977  133.46400452    4.90999985    2.73000002
   18.86777878  109.80000305    4.44999981    2.73000002
   18.86888885  101.52600098    3.32999992    2.76999998
   18.87472153  101.52600098    1.85000002    2.78999996
   18.87888908  109.40299988    4.90999985    2.76999998
   18.88194466   -1.00000000    4.90999985    1.39999998
   18.88527679  143.28700256    4.90999985    0.67000002
   18.88861084   94.06220245    4.90999985    2.67000008
   18.89166641  112.83499908    4.90999985    2.19000006
   18.89500046  106.20099640    4.90999985    2.39000010
   18.89833260   -1.00000000    4.90999985    2.71000004
   18.90166664   57.44649887    4.90999985    0.98000002
   18.90499878  100.17900085    4.90999985    2.19000006
   18.90833282  104.71600342    4.90999985    2.82999992
   18.91138840   99.09259796    3.80999994    2.80999994
   18.91749954   99.09259796    1.33000004    2.75000000
   18.92166519  102.33599854    1.33000004    2.73000002
   18.92499924  103.55000305    1.33000004    2.76999998
   18.92805481  104.68900299    1.33000004    2.75000000
   18.93138885  102.33300018    1.33000004    2.75000000
   18.93444443  101.58300018    1.33000004    2.76999998
   18.93499947  100.41500092    1.33000004    2.76999998
   18.93805504   99.02799988    1.33000004    2.75000000
   18.94138718  102.25900269    1.34000003    2.73000002
   18.94472122  100.39299774    1.34000003    2.73000002
   18.94777679  102.18599701    1.34000003    2.75000000
   18.95111275   98.78469849    1.34000003    2.75000000
   18.95444489  100.00499725    1.38000000    2.76999998
   18.96027946  100.00499725    1.44000006    2.76999998
   18.96444511  100.47299957    1.46000004    2.75000000
   18.96777916   94.69529724    1.46000004    2.75000000
   18.96833420   97.13960266    1.46000004    2.75000000
   18.97138977  101.66600037    1.44000006    2.75000000
   18.97472191  100.07099915    1.39999998    2.76999998
   18.97805595   95.99720001    1.39999998    2.76999998
   18.98111153   99.31900024    1.39999998    2.75000000
   18.98444557   97.45939636    1.36000001    2.76999998
   18.98750114   99.57530212    1.33000004    2.76999998
   18.99083328   98.59639740    1.33000004    2.76999998
   18.99416733   99.70169830    1.34000003    2.76999998
   18.99722290   98.91470337    1.34000003    2.75000000
   19.00333405   98.91470337    1.36000001    2.76999998
   19.00749969  102.10600281    1.36000001    2.75000000
   19.01055527  101.97299957    1.39999998    2.76999998
   19.01388931  108.57900238    1.34000003    2.76999998
   19.01694489  100.95600128    1.34000003    2.76999998
   19.02027702   98.67990112    1.33000004    2.76999998
   19.02361107  104.90799713    1.33000004    2.76999998
   19.02666664  101.32599640    1.23000002    2.76999998
   19.03000069   97.61769867    1.23000002    2.76999998
   19.03333282   97.96540070    1.19000006    2.76999998
   19.03444481  100.80000305    1.19000006    2.76999998
   19.03694344   96.99639893    1.19000006    2.76999998
   19.03999901   99.69680023    1.19000006    2.76999998
   19.04611015   99.69680023    1.16999996    2.76999998
   19.05027771  104.36599731    1.21000004    2.76999998
   19.05388832  105.54199982    1.26999998    2.76999998
   19.05694389  110.97200012    1.28999996    2.76999998
   19.06027794  102.72200012    1.28999996    2.76999998
   19.06333351  104.40000153    1.30999994    2.76999998
   19.06666756  100.01000214    1.33000004    2.76999998
   19.06777954  109.58899689    1.30999994    2.76999998
   19.07027817  102.92299652    1.33000004    2.76999998
   19.07333374  101.73699951    1.30999994    2.75000000
   19.07666779  106.93000031    1.33000004    2.76999998
   19.08000183  101.58699799    1.30999994    2.76999998
   19.08333397   98.92359924    1.25000000    2.75000000
   19.08889008   98.92359924    1.25000000    2.76999998
   19.09305573   99.55590057    1.28999996    2.75000000
   19.09638977   99.13590240    1.34000003    2.76999998
   19.09944534  102.06199646    1.38000000    2.75000000
   19.10138893  107.53900146    1.39999998    2.75000000
   19.10333443  103.05100250    1.36000001    2.76999998
   19.10639000   98.53919983    1.34000003    2.75000000
   19.10972214  100.02300262    1.33000004    2.76999998
   19.11277771  100.69999695    1.26999998    2.75000000
   19.11611176  101.90599823    1.26999998    2.76999998
   19.11944389  103.24900055    1.25000000    2.75000000
   19.12249947  103.57900238    1.25000000    2.75000000
   19.12583351  104.05699921    1.26999998    2.76999998
   19.13194466  104.05699921    1.14999998    2.76999998
   19.13583374  105.33000183    1.14999998    2.75000000
   19.13916588  102.10600281    1.19000006    2.76999998
   19.14249992  104.87100220    1.21000004    2.76999998
   19.14555550  102.92199707    1.21000004    2.76999998
   19.14888954  103.80000305    1.23000002    2.76999998
   19.15194321  106.74199677    1.23000002    2.76999998
   19.15527725  102.89299774    1.16999996    2.76999998
   19.15861130  102.97200012    1.13000000    2.75000000
   19.16166687   99.38690186    1.14999998    2.76999998
   19.16499901  103.03800201    1.14999998    2.76999998
   19.16805458   99.84919739    1.13000000    2.76999998
   19.16860962  100.02899933    1.13000000    2.76999998
   19.17472076  100.02899933    1.13000000    2.76999998
   19.17888832  100.76300049    1.13000000    2.76999998
   19.18194389  101.09799957    1.13000000    2.76999998
   19.18527603   99.54850006    1.13000000    2.76999998
   19.18833160   99.06649780    1.13000000    2.76999998
   19.19166565  102.02200317    1.13000000    2.76999998
   19.19499969  102.75900269    1.13000000    2.76999998
   19.19805527  104.27899933    1.14999998    2.76999998
   19.20138931   99.89250183    1.25000000    2.76999998
   19.20194435  103.68800354    1.25000000    2.76999998
   19.20499992  101.88300323    1.21000004    2.75000000
   19.20833397  102.02799988    1.46000004    2.76999998
   19.21166801  100.55699921    1.51999998    2.76999998
   19.21750069  100.55699921    1.30999994    2.76999998
   19.22166634  107.50099945    1.14999998    2.78999996
   19.22472191  106.85099792    1.14999998    2.78999996
   19.22805595  109.47799683    1.14999998    2.76999998
   19.23139000  105.94400024    1.14999998    2.76999998
   19.23444557  104.16500092    1.16999996    2.76999998
   19.23500061  105.61199951    1.14999998    2.76999998
   19.23833275  108.63800049    1.13000000    2.76999998
   19.24166679  102.91200256    1.13000000    2.76999998
   19.24472237  106.46499634    1.13000000    2.76999998
   19.24805641  105.60199738    1.13000000    2.76999998
   19.25111198  101.93000031    1.13000000    2.76999998
   19.25444412  103.20400238    1.13000000    2.76999998
   19.26027870  103.20400238    1.14999998    2.76999998
   19.26444435  103.30000305    1.25000000    2.76999998
   19.26777840   97.34870148    1.25000000    2.76999998
   19.26833344  105.76399994    1.36000001    2.76999998
   19.27138901  105.89700317    1.36000001    2.76999998
   19.27472115  101.56099701    1.36000001    2.75000000
   19.27777672  105.17900085    1.36000001    2.75000000
   19.28111076  101.21600342    1.34000003    2.75000000
   19.28416634  101.87100220    1.28999996    2.76999998
   19.28750038  105.02899933    1.28999996    2.75000000
   19.29083252  105.75499725    1.30999994    2.76999998
   19.29388809   98.77809906    1.30999994    2.76999998
   19.29722214  104.12400055    1.19000006    2.78999996
   19.30305481  104.12400055    1.19000006    2.76999998
   19.30722237  102.06300354    1.25000000    2.76999998
   19.31055450  108.87500000    1.25000000    2.76999998
   19.31388855  103.72899628    1.25000000    2.78999996
   19.31694603  108.31500244    1.26999998    2.78999996
   19.32027817  107.88500214    1.21000004    2.76999998
   19.32361221  107.21700287    1.21000004    2.76999998
   19.32666779  108.14700317    1.25000000    2.76999998
   19.33000183  103.80999756    1.25000000    2.76999998
   19.33305550  110.06300354    1.44000006    2.76999998
   19.33527756  101.96399689    1.38000000    2.75000000
   19.33694458  112.29799652    1.38000000    2.75000000
   19.34027863  103.05200195    1.46000004    2.75000000
   19.34611130  103.05200195    1.44000006    2.75000000
   19.35027885  103.05300140    1.33000004    2.75000000
   19.35333443  104.31199646    1.33000004    2.75000000
   19.35666656  103.05000305    1.33000004    2.75000000
   19.36000061   99.55660248    1.33000004    2.75000000
   19.36305618  101.16699982    1.34000003    2.75000000
   19.36638832  102.65299988    1.34000003    2.75000000
   19.36833382  102.33100128    1.38000000    2.76999998
   19.37000084  100.24600220    1.38000000    2.76999998
   19.37333298  104.08499908    1.46000004    2.75000000
   19.37638855   99.04229736    1.51999998    2.75000000
   19.37972260  102.95899963    1.60000002    2.75000000
   19.38277817  106.45700073    1.61000001    2.75000000
   19.38888931  106.45700073    1.69000006    2.75000000
   19.39305496  108.90200043    1.76999998    2.75000000
   19.39611053  110.36000061    2.07999992    2.75000000
   19.39944458  108.12899780    2.30999994    2.75000000
   19.40166664  106.06400299    2.46000004    2.75000000
   19.40305519  109.41400146    2.46000004    2.75000000
   19.40638924  110.48200226    4.15999985    2.75000000
   19.40944481  110.73699951    4.90999985    2.76999998
   19.41277695  101.75599670    3.21000004    2.75000000
   19.41611099  113.35299683    3.05999994    2.73000002
   19.41916656  105.00700378    3.21000004    2.69000006
   19.42249870  107.22299957    2.91000009    2.71000004
   19.42583275  102.95400238    2.50000000    2.73000002
   19.43166542  102.95400238    4.53000021    2.73000002
   19.43583298  104.66000366    3.89000010    2.73000002
   19.43916512  106.15599823    2.50000000    2.71000004
   19.44222069  104.95400238    2.71000004    2.73000002
   19.44555473  103.34799957    2.55999994    2.71000004
   19.44861031  105.88400269    2.50000000    2.73000002
   19.45194435  103.24900055    2.51999998    2.73000002
   19.45527840  106.56400299    2.28999996    2.73000002
   19.45833397  106.94799805    2.28999996    2.71000004
   19.46166801  103.44799805    2.19000006    2.73000002
   19.46500015  108.80799866    1.86000001    2.75000000
   19.48361206  107.21299744    2.05999994    2.75000000
   19.48777771  107.21299744    2.07999992    2.75000000
   19.49194527  105.42099762    2.66000009    2.75000000
   19.49527740  105.44899750    3.00000000    2.75000000
   19.49833298  103.12799835    3.25000000    2.75000000
   19.50166702  104.11900330    4.90999985    2.73000002
   19.50499916  100.73300171    3.20000005    2.73000002
   19.50805473  104.62300110    2.36999989    2.73000002
   19.51138878   97.64399719    2.51999998    2.71000004
   19.51472282   98.96829987    2.21000004    2.69000006
   19.51694489   97.92639923    2.28999996    2.71000004
   19.51833344  100.06099701    2.25000000    2.73000002
   19.52138901  100.88999939    1.88000000    2.71000004
   19.52472115   99.29239655    1.86000001    2.73000002
   19.53083229   99.29239655    1.50000000    2.75000000
   19.53472137  108.88400269    1.33000004    2.73000002
   19.53805542  103.83399963    1.30999994    2.75000000
   19.54138756  103.49700165    1.30999994    2.75000000
   19.54444313  106.02899933    1.28999996    2.75000000
   19.54777718  103.56800079    1.25000000    2.75000000
   19.55055428  103.64499664    1.25000000    2.73000002
   19.55138779  106.34300232    1.23000002    2.75000000
   19.55472183  107.60099792    1.21000004    2.75000000
   19.55805397  106.18000031    1.25000000    2.75000000
   19.56110954  100.93900299    1.34000003    2.75000000
   19.56444359  101.42700195    1.25000000    2.75000000
   19.56777954  106.93900299    1.26999998    2.75000000
   19.57472229  106.93900299    1.44000006    2.75000000
   19.57888985  105.19499969    1.36000001    2.75000000
   19.58222389  102.70800018    1.23000002    2.75000000
   19.59277916   98.27480316    1.30999994    2.75000000
   19.59500122  104.32299805    1.30999994    2.75000000
   19.59833336   98.87300110    1.28999996    2.75000000
   19.60138893  104.01000214    1.33000004    2.73000002
   19.60472298  104.55699921    1.39999998    2.73000002
   19.60805511   96.14659882    1.39999998    2.73000002
   19.61111069  101.97100067    1.39999998    2.75000000
   19.61444473   98.14720154    1.39999998    2.75000000
   19.62055588   98.14720154    1.50000000    2.75000000
   19.62444496  105.49099731    1.51999998    2.75000000
   19.62777710  103.98100281    1.55999994    2.75000000
   19.63111115  104.62400055    1.60000002    2.75000000
   19.63416672   99.04920197    1.61000001    2.75000000
   19.63750076   97.74810028    1.96000004    2.73000002
   19.64083290  102.16600037    2.07999992    2.75000000
   19.64388847  102.37300110    2.51999998    2.73000002
   19.64722252  101.13400269    2.59999990    2.73000002
   19.65027809  111.76699829    2.82999992    2.73000002
   19.65138817  103.38500214    2.82999992    2.73000002
   19.65388870  101.93299866    3.01999998    2.71000004
   19.65722275  104.01399994    2.91000009    2.73000002
   19.66333389  104.01399994    2.80999994    2.73000002
   19.66749954  104.45999908    2.69000006    2.71000004
   19.67055511  101.75399780    2.75000000    2.71000004
   19.67388916  100.49500275    2.64000010    2.71000004
   19.67722130   97.40380096    2.57999992    2.71000004
   19.68027687  103.80699921    2.66000009    2.71000004
   19.68361092  106.00099945    2.76999998    2.71000004
   19.68472099  102.97499847    2.82999992    2.69000006
   19.68722153  107.26599884    2.91000009    2.69000006
   19.69055557   99.67710114    3.14000010    2.71000004
   19.69388771  103.83899689    3.09999990    2.69000006
   19.69694328  103.56600189    2.80999994    2.69000006
   19.70027924  107.85700226    2.73000002    2.69000006
   19.70611191  107.85700226    2.71000004    2.71000004
   19.71027946  106.18499756    2.76999998    2.69000006
   19.71333504  104.67900085    2.84999990    2.71000004
   19.71666718  105.90299988    2.73000002    2.69000006
   19.71833420  105.15299988    2.76999998    2.69000006
   19.72027779  108.41200256    2.91000009    2.69000006
   19.72361183  105.63700104    3.18000007    2.69000006
   19.72666740  106.85600281    3.23000002    2.69000006
   19.73000145  108.40399933    3.07999992    2.71000004
   19.73333359  105.32499695    2.94000006    2.71000004
   19.73638916  106.05000305    2.91000009    2.71000004
   19.73972321  108.20400238    2.94000006    2.71000004
   19.74305534  107.82499695    2.94000006    2.71000004
   19.74888992  107.82499695    3.16000009    2.73000002
   19.75305557  107.83899689    3.25000000    2.71000004
   19.75638962  105.04199982    2.89000010    2.73000002
   19.75944519  104.27100372    2.76999998    2.73000002
   19.76277733  102.59999847    3.07999992    2.73000002
   19.76611137  105.82099915    4.67999983    2.75000000
   19.76916695  109.72399902    4.90999985    2.75000000
   19.77249908  101.31300354    4.90999985    2.76999998
   19.77583313  106.64399719    4.90999985    2.76999998
   19.77888870   91.41729736    4.90999985    2.80999994
   19.78222275   -1.00000000    4.90999985    0.89999998
   19.78583336   -1.00000000    4.90999985    0.73000002
   19.79194450   -1.00000000    4.90999985    2.50000000
   19.79583359   -1.00000000    4.90999985    0.58999997
   19.79916573  112.99400330    4.90999985    1.33000004
   19.80249977   -1.00000000    4.90999985    0.30000001
   19.80555534   -1.00000000    4.90999985    0.46000001
   19.80888748  208.22900391    4.90999985    0.52999997
   19.81194305  108.35399628    4.90999985    2.17000008
   19.81527710  121.74299622    4.90999985    1.23000002
   19.81833458  106.06500244    4.90999985    1.25000000
   19.81888962   -1.00000000    4.90999985    1.38000000
   19.82222366   -1.00000000    4.90999985    0.94000000
   19.82527924   -1.00000000    4.90999985    1.26999998
   19.82861137  176.79499817    4.90999985    0.89999998
   19.83472252  176.79499817    4.90999985    0.52999997
   19.83889008   -1.00000000    4.90999985    0.46000001
   19.84194565   -1.00000000    4.90999985    0.34000000
   19.84527779   -1.00000000    4.90999985    0.52999997
   19.84833336  199.82000732    4.90999985    0.67000002
   19.85194397   -1.00000000    4.90999985    0.44000000
   19.85499954   -1.00000000    4.90999985    0.30000001
   19.85833359   -1.00000000    4.90999985    0.50000000
   19.86166763  122.58599854    4.90999985    1.75000000
   19.86499977   91.57550049    4.90999985    2.26999998
   19.86805534   -1.00000000    4.90999985    0.58999997
   19.87138939   -1.00000000    4.90999985    0.52999997
   19.88166618   -1.00000000    4.90999985    0.34000000
   19.88472176   -1.00000000    4.90999985    0.30000001
   19.88833237   -1.00000000    4.90999985    0.28000000
   19.89166641   -1.00000000    4.90999985    1.09000003
   19.89500046   -1.00000000    4.90999985    1.13000000
   19.89805603   -1.00000000    4.90999985    0.94000000
   19.90138817  138.37699890    4.90999985    1.28999996
   19.90472221   -1.00000000    4.90999985    1.39999998
   19.90777779   -1.00000000    4.90999985    0.50000000
   19.91110992   -1.00000000    4.90999985    0.44000000
   19.91416550   -1.00000000    4.90999985    0.81999999
   19.92444420  246.24099731    4.90999985    1.38000000
   19.92749977  151.38600159    4.90999985    2.00000000
   19.93083191   -1.00000000    4.90999985    0.98000002
   19.93416595  123.52300262    4.90999985    0.95999998
   19.93722153  147.13499451    4.90999985    1.13000000
   19.94055557   -1.00000000    4.90999985    1.03999996
   19.94388771   65.03230286    4.90999985    1.25000000
   19.94694328   -1.00000000    4.90999985    0.67000002
   19.95027924  216.26400757    4.90999985    1.98000002
   19.95194435  138.36500549    4.90999985    1.85000002
   19.95388985  110.97100067    4.90999985    1.71000004
   19.95694542  116.33699799    4.90999985    2.64000010
   19.96333504  116.33699799    4.90999985    2.66000009
   19.96722221  107.87000275    4.90999985    2.67000008
   19.97055626  110.42900085    4.90999985    2.69000006
   19.97389030  113.59999847    4.90999985    2.64000010
   19.97694588  109.26799774    4.90999985    2.53999996
   19.98027802  111.81700134    4.90999985    2.66000009
   19.98361206  116.35399628    4.90999985    2.03999996
   19.98527718  107.19799805    4.90999985    2.07999992
   19.98722267  114.11199951    4.90999985    2.42000008
   19.99027824   91.20610046    4.90999985    2.57999992
   19.99361229  116.73500061    4.90999985    2.34999990
   19.99694443  110.88300323    4.90999985    2.40000010
   20.00000000  106.68599701    4.90999985    2.53999996
   20.00611115  106.68599701    4.90999985    2.66000009
   20.01027870  115.50800323    4.90999985    2.64000010
   20.01333427  114.47299957    4.90999985    2.66000009
   20.01666641  109.81700134    4.90999985    2.51999998
   20.01888847  114.67099762    4.90999985    2.40000010
   20.02055550  119.42199707    4.90999985    2.53999996
   20.02361107  201.02299500    4.90999985    2.13000011
   20.02694511  111.61199951    4.90999985    1.98000002
   20.03027725  123.27100372    4.90999985    2.34999990
   20.03333282  119.80599976    4.90999985    2.50000000
   20.03666687  130.10800171    4.90999985    2.46000004
   20.03972244  115.24500275    4.90999985    2.50000000
   20.04305458  121.25599670    4.90999985    2.55999994
   20.04888916  121.25599670    4.90999985    2.51999998
   20.06166649  117.08000183    0.00000000    0.00000000
   20.06499863  108.97599792    4.90999985    2.71000004
   20.06805611  114.36900330    4.90999985    2.75000000
   20.07139015   90.05690002    4.90999985    1.64999998
   20.08027840  140.27999878    4.90999985    2.67000008
   20.08333397  165.08000183    4.90999985    2.55999994
   20.08555603  161.11799622    4.90999985    1.23000002
   20.08694458   -1.00000000    4.90999985    1.05999994
   20.09166718   -1.00000000    4.90999985    0.25000000
   20.09583473   -1.00000000    4.90999985    0.17000000
   20.09916687   -1.00000000    4.90999985    0.15000001
   20.10222244   -1.00000000    4.90999985    0.13000000
   20.10555649   -1.00000000    4.90999985    0.11000000
   20.10888863   -1.00000000    4.90999985    0.09000000
   20.11194420   -1.00000000    4.90999985    0.09000000
   20.11527824   -1.00000000    4.90999985    0.09000000
   20.11861038   -1.00000000    4.90999985    0.23000000
   20.12222290  136.54200745    4.90999985    1.21000004
   20.12527847  108.06199646    4.90999985    2.44000006
   20.12861061  109.94200134    4.90999985    2.69000006
   20.13472176  109.94200134    4.90999985    2.40000010
   20.13861084  115.63700104    4.90999985    2.55999994
   20.14194489  124.61599731    4.90999985    2.51999998
   20.14527702  118.82299805    4.90999985    2.39000010
   20.14833260  127.50000000    4.90999985    2.48000002
   20.15166664  124.45300293    4.90999985    2.30999994
   20.15222168  156.86099243    4.90999985    2.26999998
   20.15527725  119.19899750    4.90999985    2.42000008
   20.15861130  121.78099823    4.90999985    2.50000000
   20.16166687  110.61299896    4.90999985    2.42000008
   20.16499901  106.37300110    4.90999985    2.39000010
   20.16833305  234.05900574    4.90999985    1.38000000
   20.17138863  123.81300354    4.90999985    1.69000006
   20.17749977  123.81300354    4.90999985    1.41999996
   20.18166542  119.64199829    4.90999985    2.40000010
   20.18472099  143.27600098    4.90999985    2.39000010
   20.18555450  139.76199341    4.90999985    2.15000010
   20.18833160  217.91099548    4.90999985    1.14999998
   20.19166565   -1.00000000    4.90999985    1.39999998
   20.19472122   -1.00000000    4.90999985    0.25000000
   20.19805527  101.07800293    4.90999985    0.44000000
   20.20138931   -1.00000000    4.90999985    1.60000002
   20.20444489   82.60209656    4.90999985    1.19000006
   20.20777893  241.55400085    4.90999985    1.25000000
   20.21111107   -1.00000000    4.90999985    0.94000000
   20.21416664   -1.00000000    4.90999985    0.17000000
   20.22444534   -1.00000000    4.90999985    0.15000001
   20.22750092   -1.00000000    4.90999985    0.51999998
   20.23083305   -1.00000000    4.90999985    0.36000001
   20.23416710   -1.00000000    4.90999985    0.05000000
   20.23722267   -1.00000000    4.90999985    0.01000000
   20.24055672   -1.00000000    4.65999985    0.01000000
   20.24361229   -1.00000000    4.65999985    0.01000000
   20.24694443   -1.00000000    4.65999985    0.01000000
   20.25027847   -1.00000000    4.65999985    0.01000000
   20.25388908   -1.00000000    4.65999985    0.01000000
   20.25694466   -1.00000000    4.65999985    0.01000000
   20.26722145   -1.00000000    4.90999985    0.01000000
   20.27027702   -1.00000000    4.90999985    0.03000000
   20.27361107   -1.00000000    4.90999985    0.03000000
   20.27694511   -1.00000000    4.90999985    0.07000000
   20.28000069   -1.00000000    4.90999985    0.09000000
   20.28333282   -1.00000000    4.90999985    0.75000000
   20.28694344   -1.00000000    4.90999985    0.25000000
   20.28999901   -1.00000000    4.90999985    0.31999999
   20.29333305   -1.00000000    4.90999985    0.46000001
   20.29666710   -1.00000000    4.90999985    0.40000001
   20.29972076   -1.00000000    4.90999985    0.19000000
   20.30999947   -1.00000000    4.90999985    0.30000001
   20.31333351   -1.00000000    4.90999985    0.70999998
   20.31638718   -1.00000000    4.90999985    0.25000000
   20.32000160   -1.00000000    4.90999985    0.34000000
   20.32305717   -1.00000000    4.90999985    0.67000002
   20.32638931   -1.00000000    4.90999985    0.20999999
   20.32972336  106.37200165    4.90999985    0.25999999
   20.33277893  125.48200226    4.90999985    2.36999989
   20.33611107   -1.00000000    4.90999985    0.52999997
   20.33944511   -1.00000000    4.90999985    0.30000001
   20.34250069  147.36199951    4.90999985    1.63000000
   20.35277748   -1.00000000    4.90999985    0.86000001
   20.35611153  126.45700073    4.90999985    1.38000000
   20.35944557  138.97200012    4.90999985    2.30999994
   20.36250114  115.47699738    4.90999985    2.42000008
   20.36583328  114.60399628    4.90999985    2.53999996
   20.36916733  112.33699799    4.90999985    2.50000000
   20.37222290  106.76200104    4.90999985    2.55999994
   20.37555504  109.64299774    4.90999985    2.48000002
   20.37888908  121.85600281    4.90999985    2.61999989
   20.38194466  121.30500031    4.90999985    2.30999994
   20.38527679  110.43699646    4.90999985    2.50000000
   20.38583374  107.49700165    4.90999985    2.46000004
   20.39277840  107.49700165    4.90999985    2.50000000
   20.39666748  111.08200073    3.86999989    2.66000009
   20.39999962  110.60299683    2.84999990    2.66000009
   20.40361023  104.33000183    2.71000004    2.66000009
   20.40694427  108.01799774    2.51999998    2.66000009
   20.40999985  106.52300262    2.51999998    2.64000010
   20.42249870  110.18900299    0.00000000    0.00000000
   20.42305565  103.80100250    3.32999992    2.67000008
   20.42611122  103.63400269    3.32999992    2.46000004
   20.42944336   79.65019989    4.78000021    2.67000008
   20.44305420   79.65019989    2.13000011    2.66000009
   20.44722176  105.70999908    2.28999996    2.64000010
   20.45055580  105.39099884    2.46000004    2.64000010
   20.45361137  104.61199951    2.50000000    2.66000009
   20.45694542   98.50920105    2.21000004    2.66000009
   20.45888901  105.62100220    2.11999989    2.66000009
   20.46055603  107.22000122    2.03999996    2.66000009
   20.46389008  108.05100250    2.01999998    2.66000009
   20.46694565   91.17819977    2.25000000    2.66000009
   20.47027779   89.80419922    2.59999990    2.66000009
   20.47361183   84.57089996    3.34999990    2.66000009
   20.47777748   84.57089996    3.09999990    2.66000009
   20.48166656  103.13899994    4.90999985    2.66000009
   20.50111198  118.43499756    4.90999985    2.59999990
   20.50138855  132.69599915    4.90999985    2.57999992
   20.50472260  107.04599762    4.90999985    2.39000010
   20.50805473  107.96399689    4.90999985    2.55999994
   20.51111031  105.83100128    4.90999985    2.57999992
   20.51444435  101.06900024    3.93000007    2.61999989
   20.52055550  101.06900024    3.21000004    2.59999990
   20.52472115  112.94699860    3.73000002    2.64000010
   20.52805519   93.93679810    3.82999992    2.61999989
   20.53138924  112.32800293    3.46000004    2.64000010
   20.53444481  101.63200378    3.07999992    2.64000010
   20.53499985  108.80599976    3.07999992    2.64000010
   20.53833199  111.59899902    3.09999990    2.64000010
   20.54138756  103.46900177    3.26999998    2.64000010
   20.54472160  115.18199921    3.48000002    2.61999989
   20.54805565  118.48999786    4.90999985    2.66000009
   20.55111122  109.91799927    4.90999985    2.03999996
   20.55444336  107.86299896    4.90999985    2.59999990
   20.55777740  106.02700043    4.90999985    2.59999990
   20.56361008  106.02700043    4.90999985    2.61999989
   20.56888962  111.56700134    4.13999987    2.64000010
   20.57222366  110.12100220    3.36999989    2.64000010
   20.57555580  110.92800140    2.66000009    2.64000010
   20.57861137  102.58899689    3.23000002    2.64000010
   20.58194542  107.57900238    4.36999989    2.64000010
   20.58527756  106.38200378    4.90999985    2.53999996
   20.58833313  102.63700104    4.90999985    2.59999990
   20.59166718  112.77100372    4.90999985    2.64000010
   20.59472275  107.01499939    4.90999985    2.25000000
   20.59805679  106.05899811    4.90999985    2.73000002
   20.60944557  118.62400055    4.90999985    2.36999989
   20.61750031   -1.00000000    4.90999985    0.13000000
   20.62111092  119.96399689    4.90999985    0.38000000
   20.62416649  115.89499664    4.90999985    2.55999994
   20.62750053   -1.00000000    4.90999985    1.53999996
   20.63083267   -1.00000000    4.90999985    0.07000000
   20.63388824   -1.00000000    4.90999985    0.03000000
   20.63722229   -1.00000000    4.90999985    0.01000000
   20.64055634   -1.00000000    4.90999985    0.01000000
   20.64388847   -1.00000000    4.90999985    0.01000000
   20.64694405   -1.00000000    4.90999985    0.01000000
   20.65027809   -1.00000000    4.90999985    0.01000000
   20.66055489   -1.00000000    4.90999985    0.05000000
   20.66361046   -1.00000000    4.90999985    0.05000000
   20.66805458   -1.00000000    4.90999985    0.25000000
   20.67138863  180.53700256    4.90999985    0.47999999
   20.67472076  109.79900360    4.90999985    1.91999996
   20.67805481  114.68199921    4.90999985    2.57999992
   20.68111038   83.98799896    4.90999985    2.66000009
   20.68444443  102.22899628    4.90999985    2.64000010
   20.68777657  102.55999756    4.90999985    2.61999989
   20.69083214  114.07900238    4.90999985    2.59999990
   20.69416618  114.24800110    4.90999985    2.61999989
   20.69916534  114.24800110    3.05999994    2.64000010
   20.70333481  115.97000122    4.26999998    2.61999989
   20.70666695  110.61000061    4.90999985    2.59999990
   20.70972252  116.40000153    4.90999985    2.44000006
   20.71305656   -1.00000000    4.90999985    1.51999998
   20.71638870   82.60449982    4.90999985    1.21000004
   20.71944427  121.81500244    4.90999985    1.85000002
   20.72277832   98.45079803    4.90999985    2.40000010
   20.72611237   90.11849976    4.90999985    2.61999989
   20.72916794  115.44899750    4.48999977    2.55999994
   20.73250008  105.16699982    4.90999985    2.59999990
   20.73527718   98.12419891    4.90999985    2.59999990
   20.73611069  112.62799835    4.90999985    2.59999990
   20.74222183  112.62799835    4.90999985    2.66000009
   20.74666786  106.97599792    3.14000010    2.67000008
   20.75000000  112.02400208    0.19000000    0.03000000
   20.75305557  111.01599884    0.13000000    0.09000000
   20.75666618  108.41500092    0.13000000    0.09000000
   20.76000023  107.92600250    0.13000000    0.09000000
   20.76333427  108.43000031    0.13000000    0.09000000
   20.76638794  116.98100281    0.13000000    0.09000000
   20.76861000  107.55999756    0.13000000    0.09000000
   20.77027702  110.82099915    0.13000000    0.09000000
   20.77333260  111.16100311    0.13000000    0.09000000
   20.77666664  112.48500061    0.13000000    0.09000000
   20.78000069  107.01399994    0.13000000    0.09000000
   20.78499985  107.01399994    0.13000000    0.09000000
   20.78916550  110.59999847    0.13000000    0.09000000
   20.79222107  113.09899902    0.13000000    0.09000000
   20.79555511  100.14700317    0.13000000    0.09000000
   20.79888916  109.93499756    0.13000000    0.09000000
   20.81083298  110.16400146    0.13000000    0.09000000
   20.81110954  112.97399902    0.13000000    0.09000000
   20.81444359  102.91100311    0.13000000    0.09000000
   20.81777954  106.34500122    0.13000000    0.09000000
   20.82083511  111.64499664    0.13000000    0.09000000
   20.82777786  111.64499664    0.13000000    0.09000000
   20.83194542  111.09999847    0.13000000    0.09000000
   20.84361267   88.17780304    0.00000000    0.00000000
   20.84416771  103.42299652    0.13000000    0.09000000
   20.84749985  103.32399750    0.13000000    0.09000000
   20.85083389  105.95999908    0.13000000    0.09000000
   20.85388947  109.04199982    0.13000000    0.09000000
   20.85722351  114.68599701    0.13000000    0.09000000
   20.86055565  105.54299927    0.13000000    0.09000000
   20.86361122  105.09600067    0.13000000    0.09000000
   20.86694527   -1.00000000    0.13000000    0.09000000
   20.87527847   -1.00000000    0.13000000    0.09000000
   20.87888908   -1.00000000    0.13000000    0.09000000
   20.88194466  145.27299500    0.13000000    0.09000000
   20.88527679  111.77500153    0.13000000    0.09000000
   20.88833237  114.40100098    0.13000000    0.09000000
   20.89166641  108.44100189    0.13000000    0.09000000
   20.89500046  108.68699646    0.13000000    0.09000000
   20.89833260  112.28099823    0.13000000    0.09000000
   20.90166664  108.09899902    0.13000000    0.09000000
   20.90472221  115.29799652    0.13000000    0.09000000
   20.90805435  109.78800201    0.13000000    0.09000000
   20.91416550  109.78800201    0.13000000    0.09000000
   20.91833305   -1.00000000    0.13000000    0.09000000
   20.92166519   -1.00000000    0.13000000    0.09000000
   20.92472076   -1.00000000    0.13000000    0.09000000
   20.92805481   85.91030121    0.13000000    0.09000000
   20.93111038  130.02099609    0.13000000    0.09000000
   20.93444443   -1.00000000    0.13000000    0.09000000
   20.93777657   -1.00000000    0.13000000    0.09000000
   20.94083214   -1.00000000    0.13000000    0.09000000
   20.94416618   -1.00000000    0.13000000    0.09000000
   20.94777679   -1.00000000    0.13000000    0.09000000
   20.95083427   -1.00000000    0.13000000    0.09000000
   20.96111107   -1.00000000    0.13000000    0.09000000
   20.96444511   -1.00000000    0.13000000    0.09000000
   20.96750069   -1.00000000    0.13000000    0.09000000
   20.97083473   -1.00000000    0.13000000    0.09000000
   20.97389030   -1.00000000    0.13000000    0.09000000
   20.97722244   -1.00000000    0.13000000    0.09000000
   20.98083305   -1.00000000    0.13000000    0.09000000
   20.98388863   -1.00000000    0.13000000    0.09000000
   20.98722267   -1.00000000    0.13000000    0.09000000
   20.99027824   -1.00000000    0.13000000    0.09000000
   20.99361229   -1.00000000    0.13000000    0.09000000
   21.00388908   -1.00000000    0.13000000    0.09000000
   21.00722313   -1.00000000    0.13000000    0.09000000
   21.01027870   -1.00000000    0.13000000    0.09000000
   21.01194382  109.73300171    0.13000000    0.09000000
   21.01416588  126.33599854    0.13000000    0.09000000
   21.01722145  104.93599701    0.13000000    0.09000000
   21.02333260   77.89720154    0.13000000    0.09000000
   21.02638817  189.12800598    0.13000000    0.09000000
   21.03888893  104.98500061    0.00000000    0.00000000
   21.04222107  115.54100037    0.13000000    0.09000000
   21.04833221  115.54100037    0.13000000    0.09000000
   21.05249977  120.49900055    0.13000000    0.09000000
   21.06472206  118.95800018    0.00000000    0.00000000
   21.06805611   -1.00000000    0.13000000    0.09000000
   21.07139015   -1.00000000    0.13000000    0.09000000
   21.07444572   -1.00000000    0.13000000    0.09000000
   21.07777786   -1.00000000    0.13000000    0.09000000
   21.08194542   98.42209625    0.13000000    0.09000000
   21.08527756   -1.00000000    0.13000000    0.09000000
   21.08833313   -1.00000000    0.13000000    0.09000000
   21.09250069   -1.00000000    0.13000000    0.09000000
   21.09666824  148.78700256    0.13000000    0.09000000
   21.10000038   97.54730225    0.13000000    0.09000000
   21.10333443  134.79400635    0.13000000    0.09000000
   21.10639000   98.77860260    0.13000000    0.09000000
   21.10972214  116.04599762    0.13000000    0.09000000
   21.11277771  106.98999786    0.13000000    0.09000000
   21.11388969  111.06300354    0.13000000    0.09000000
   21.11638832  126.29499817    0.13000000    0.09000000
   21.11972237  105.63300323    0.13000000    0.09000000
   21.12305641  100.20099640    0.13000000    0.09000000
   21.12611198   92.93289948    0.13000000    0.09000000
   21.12944412  108.36399841    0.13000000    0.09000000
   21.13583374  108.36399841    0.13000000    0.09000000
   21.13972282  131.56199646    0.13000000    0.09000000
   21.14305496  115.35199738    0.13000000    0.09000000
   21.14638901  117.52200317    0.13000000    0.09000000
   21.14722252  116.70999908    0.13000000    0.09000000
   21.14999962  111.72000122    0.13000000    0.09000000
   21.15305519  111.91899872    0.13000000    0.09000000
   21.15638924  109.65699768    0.13000000    0.09000000
   21.15944481  110.93699646    0.13000000    0.09000000
   21.16277695  103.41500092    0.13000000    0.09000000
   21.16611099  115.00599670    0.13000000    0.09000000
   21.16916656  102.22200012    0.13000000    0.09000000
   21.17249870  114.77600098    0.13000000    0.09000000
   21.17833328  114.77600098    0.13000000    0.09000000
   21.18249893  108.87999725    0.13000000    0.09000000
   21.18666649  120.69899750    0.13000000    0.09000000
   21.18972206  119.63400269    0.13000000    0.09000000
   21.19305420  103.31300354    0.13000000    0.09000000
   21.19610977  112.23799896    0.13000000    0.09000000
   21.19944382  150.35000610    0.13000000    0.09000000
   21.20277786   -1.00000000    0.13000000    0.09000000
   21.20583344  122.35900116    0.13000000    0.09000000
   21.20916748  109.09700012    0.13000000    0.09000000
   21.21250153  141.05999756    0.13000000    0.09000000
   21.21583366   -1.00000000    0.13000000    0.09000000
   21.22111130   -1.00000000    0.13000000    0.09000000
   21.22527885  116.70099640    0.13000000    0.09000000
   21.22833443  119.60099792    0.13000000    0.09000000
   21.23166656   89.10990143    0.13000000    0.09000000
   21.23500061   -1.00000000    0.13000000    0.09000000
   21.23805618   -1.00000000    0.13000000    0.09000000
   21.24138832   -1.00000000    0.13000000    0.09000000
   21.24472237   -1.00000000    0.13000000    0.09000000
   21.24805641   -1.00000000    0.13000000    0.09000000
   21.25138855   -1.00000000    0.13000000    0.09000000
   21.25472260   -1.00000000    0.13000000    0.09000000
   21.25777817   -1.00000000    0.13000000    0.09000000
   21.26805496   -1.00000000    0.13000000    0.09000000
   21.27111053   -1.00000000    0.13000000    0.09000000
   21.27444458   -1.00000000    0.13000000    0.09000000
   21.27777672   -1.00000000    0.13000000    0.09000000
   21.28138924   -1.00000000    0.13000000    0.09000000
   21.28444481   -1.00000000    0.13000000    0.09000000
   21.28777695  102.43599701    0.13000000    0.09000000
   21.29111099   -1.00000000    0.13000000    0.09000000
   21.29416656   -1.00000000    0.13000000    0.09000000
   21.29749870   -1.00000000    0.13000000    0.09000000
   21.30055428   -1.00000000    0.13000000    0.09000000
   21.31083298   -1.00000000    0.13000000    0.09000000
   21.31444359   -1.00000000    0.13000000    0.09000000
   21.31750107   -1.00000000    0.13000000    0.09000000
   21.32083511   -1.00000000    0.13000000    0.09000000
   21.32416725   -1.00000000    0.13000000    0.09000000
   21.32722282   -1.00000000    0.13000000    0.09000000
   21.33055687   -1.00000000    0.13000000    0.09000000
   21.33361244   -1.00000000    0.13000000    0.09000000
   21.33694458   -1.00000000    0.13000000    0.09000000
   21.34027863   -1.00000000    0.13000000    0.09000000
   21.34333420   -1.00000000    0.13000000    0.09000000
   21.35361099   -1.00000000    0.13000000    0.09000000
   21.35694504   -1.00000000    0.13000000    0.09000000
   21.36000061   -1.00000000    0.13000000    0.09000000
   21.36333466   -1.00000000    0.13000000    0.09000000
   21.36666679   -1.00000000    0.13000000    0.09000000
   21.36972237   -1.00000000    0.13000000    0.09000000
   21.37305641   -1.00000000    0.13000000    0.09000000
   21.37638855   -1.00000000    0.13000000    0.09000000
   21.37944412   86.82540131    0.13000000    0.09000000
   21.38083267  102.40299988    0.13000000    0.09000000
   21.38305473  135.44900513    0.13000000    0.09000000
   21.38638878   -1.00000000    0.13000000    0.09000000
   21.39666748   -1.00000000    0.13000000    0.09000000
   21.39972115  142.13699341    0.13000000    0.09000000
   21.40305519   -1.00000000    0.13000000    0.09000000
   21.40611076   -1.00000000    0.13000000    0.09000000
   21.40944481   -1.00000000    0.13000000    0.09000000
   21.41277695   -1.00000000    0.13000000    0.09000000
   21.41749954   -1.00000000    0.13000000    0.09000000
   21.42083359   -1.00000000    0.13000000    0.09000000
   21.42416573  125.69000244    0.13000000    0.09000000
   21.42722130  133.86900330    0.13000000    0.09000000
   21.43055534   87.79180145    0.13000000    0.09000000
   21.43527603   87.79180145    0.13000000    0.09000000
   21.43944359  128.19799805    0.13000000    0.09000000
   21.44277763  203.00500488    0.13000000    0.09000000
   21.44583321  169.04600525    0.13000000    0.09000000
   21.44749832  126.26499939    0.13000000    0.09000000
   21.44944382  120.78800201    0.13000000    0.09000000
   21.45277786  112.46700287    0.13000000    0.09000000
   21.45611191  115.50000000    0.13000000    0.09000000
   21.45916748   84.95510101    0.13000000    0.09000000
   21.46250153  129.90800476    0.13000000    0.09000000
   21.46555710  105.54000092    0.13000000    0.09000000
   21.46888924   -1.00000000    0.13000000    0.09000000
   21.47222328   -1.00000000    0.13000000    0.09000000
   21.48805618   -1.00000000    0.13000000    0.09000000
   21.49111176  120.00700378    0.13000000    0.09000000
   21.49444389  107.68900299    0.13000000    0.09000000
   21.49777794  150.99800110    0.13000000    0.09000000
   21.50083351  232.75700378    0.13000000    0.09000000
   21.50416756   -1.00000000    0.13000000    0.09000000
   21.53027725   -1.00000000    0.13000000    0.09000000
   21.53361130   -1.00000000    0.13000000    0.09000000
   21.53666687   -1.00000000    0.13000000    0.09000000
   21.53999901   -1.00000000    0.13000000    0.09000000
   21.54305458   -1.00000000    0.13000000    0.09000000
   21.54638863   -1.00000000    0.13000000    0.09000000
   21.54972076  242.30000305    0.13000000    0.09000000
   21.55277634  123.86499786    0.13000000    0.09000000
   21.55527687  121.40799713    0.13000000    0.09000000
   21.55638885  122.48899841    0.13000000    0.09000000
   21.55972099  139.74200439    0.13000000    0.09000000
   21.56305504  117.01200104    0.13000000    0.09000000
   21.56888962  117.01200104    0.13000000    0.09000000
   21.57305717   -1.00000000    0.13000000    0.09000000
   21.57638931   -1.00000000    0.13000000    0.09000000
   21.57944489   -1.00000000    0.13000000    0.09000000
   21.58277893   -1.00000000    0.13000000    0.09000000
   21.58583450   -1.00000000    0.13000000    0.09000000
   21.58944511   -1.00000000    0.13000000    0.09000000
   21.59277916   -1.00000000    0.13000000    0.09000000
   21.59583473   -1.00000000    0.13000000    0.09000000
   21.59916687   -1.00000000    0.13000000    0.09000000
   21.60250092   -1.00000000    0.13000000    0.09000000
   21.60555649   -1.00000000    0.13000000    0.09000000
   21.61166763   -1.00000000    0.13000000    0.09000000
   21.61583328  145.41200256    0.13000000    0.09000000
   21.61916733  149.16900635    0.13000000    0.09000000
   21.62194443  129.01499939    0.13000000    0.09000000
   21.62249947  146.01199341    0.13000000    0.09000000
   21.62583351  122.47299957    0.13000000    0.09000000
   21.62916756  121.79100037    0.13000000    0.09000000
   21.63222313  122.31400299    0.13000000    0.09000000
   21.63555527  136.75199890    0.13000000    0.09000000
   21.63888931  144.10499573    0.13000000    0.09000000
   21.64194489  129.55799866    0.13000000    0.09000000
   21.64527702  112.22699738    0.13000000    0.09000000
   21.64861107  114.38700104    0.13000000    0.09000000
   21.65472221  114.38700104    0.13000000    0.09000000
   21.65888786  131.55599976    0.13000000    0.09000000
   21.66194344  164.90600586    0.13000000    0.09000000
   21.66527748  164.22700500    0.13000000    0.09000000
   21.66860962   -1.00000000    0.13000000    0.09000000
   21.67166519   -1.00000000    0.13000000    0.09000000
   21.67499924   -1.00000000    0.13000000    0.09000000
