    HOUR (UT)   FLARE FACTOR    SKY TESTER    SUN TESTER
   10.66527748   -1.00000000   -1.00000000   -1.00000000
   11.87805557  200.54100037    4.90999985    1.86000001
   11.88138866  117.37300110    4.90999985    1.88000000
   11.88444424  153.45899963    4.90999985    1.86000001
   11.88777733  359.87200928    4.90999985    1.86000001
   11.89083290  105.66300201    4.90999985    1.86000001
   11.89416695   89.94290161    4.90999985    1.83000004
   11.89833355   89.94290161    4.90999985    1.69000006
   11.90222168   -1.00000000    4.90999985    1.69000006
   11.90555477   -1.00000000    4.90999985    1.60000002
   11.90888882   -1.00000000    4.90999985    1.60000002
   11.91222191   -1.00000000    4.90999985    1.60000002
   11.91555500   -1.00000000    4.90999985    1.66999996
   11.91861153   -1.00000000    4.90999985    1.66999996
   11.92194462   -1.00000000    4.90999985    1.64999998
   11.92500019   -1.00000000    4.90999985    1.63000000
   11.92833328   -1.00000000    4.90999985    1.60000002
   11.93138885   -1.00000000    4.90999985    1.63000000
   11.93472195   -1.00000000    4.90999985    1.71000004
   11.94111156   -1.00000000    4.90999985    1.64999998
   11.94527817  115.20600128    4.90999985    1.71000004
   11.94833374   78.92369843    4.90999985    1.75000000
   11.95166683  106.44400024    4.90999985    1.75000000
   11.95472240   84.21769714    4.90999985    1.73000002
   11.95805550   94.58119965    4.90999985    1.75000000
   11.96138859  147.37399292    4.90999985    1.76999998
   11.96444416   67.44979858    4.90999985    1.73000002
   11.96777725   -1.00000000    4.90999985    1.63000000
   11.97083282  104.11100006    4.90999985    1.63000000
   11.97416592   77.15869904    4.90999985    1.69000006
   11.97722149  364.23999023    4.90999985    1.73000002
   11.97805500  407.44699097    4.90999985    1.80999994
   11.98388958  407.44699097    4.90999985    1.89999998
   11.98805618  235.23500061    4.90999985    2.03999996
   11.99138927  192.38299561    4.90999985    2.05999994
   11.99444485  245.53500366    4.90999985    2.05999994
   11.99777794  246.25700378    4.90999985    1.98000002
   12.00083351  226.40699768    4.90999985    2.01999998
   12.00416660  304.21798706    4.90999985    2.05999994
   12.00722218  253.78799438    4.90999985    1.96000004
   12.01055527  339.90200806    4.90999985    1.94000006
   12.01138878  359.82000732    4.90999985    1.91999996
   12.01416683  229.66200256    4.90999985    1.91999996
   12.01749992  192.83399963    4.90999985    2.01999998
   12.02055550  202.27200317    4.90999985    2.07999992
   12.02694416  202.27200317    4.90999985    2.05999994
   12.03083324  187.00799561    4.90999985    2.07999992
   12.03416729  254.32099915    4.90999985    1.98000002
   12.03750038  215.04499817    4.90999985    2.01999998
   12.04055595  156.50300598    4.90999985    2.09999990
   12.04388905  163.68200684    4.90999985    2.11999989
   12.04472256  167.94599915    4.90999985    2.11999989
   12.04722309  156.33500671    4.90999985    2.17000008
   12.05055618  198.49699402    4.90999985    2.19000006
   12.05361176  171.40699768    4.90999985    2.17000008
   12.05694485  176.13400269    4.90999985    2.19000006
   12.06027794  139.29200745    4.90999985    2.23000002
   12.06333351  148.07299805    4.90999985    2.25000000
   12.06972218  148.07299805    4.90999985    2.32999992
   12.07388878  159.78799438    4.90999985    2.26999998
   12.07694435  154.05599976    4.90999985    2.25000000
   12.07805538  157.18499756    4.90999985    2.23000002
   12.08055592  140.57600403    4.90999985    2.21000004
   12.08388901  143.12300110    4.90999985    2.26999998
   12.08694458  127.04000092    4.90999985    2.30999994
   12.09027767  129.96200562    4.90999985    2.36999989
   12.09361076  131.52900696    4.90999985    2.40000010
   12.09666634  136.05799866    4.90999985    2.42000008
   12.10000038  155.22099304    4.90999985    2.39000010
   12.10305595  151.70100403    4.90999985    2.19000006
   12.10638905  157.61399841    4.90999985    2.13000011
   12.11250019  157.61399841    4.90999985    2.13000011
   12.11666679  181.50199890    4.90999985    2.11999989
   12.11972237  180.05700684    4.90999985    2.11999989
   12.12305546  186.60200500    4.90999985    2.11999989
   12.12638855  214.90600586    4.90999985    2.07999992
   12.12944412  161.53199768    4.90999985    2.05999994
   12.13277817  152.99400330    4.90999985    2.11999989
   12.13583279  168.44099426    4.90999985    2.15000010
   12.13916683  144.66499329    4.90999985    2.13000011
   12.14222240  177.28100586    4.90999985    2.13000011
   12.14472198  149.29899597    4.90999985    2.09999990
   12.14583302  159.54499817    4.90999985    2.09999990
   12.14916611  151.82600403    4.90999985    2.09999990
   12.15527725  151.82600403    4.90999985    2.17000008
   12.15944386  123.76599884    4.90999985    2.28999996
   12.16277695  143.55599976    4.90999985    2.36999989
   12.16583252  155.28199768    4.90999985    2.30999994
   12.16916656  163.54699707    4.90999985    2.25000000
   12.17222214  153.88299561    4.90999985    2.19000006
   12.17555618  128.14199829    4.90999985    2.25000000
   12.17805576  150.01499939    4.90999985    2.32999992
   12.17888927  163.60299683    4.90999985    2.30999994
   12.18222237  148.50199890    4.90999985    2.19000006
   12.18555546  147.46699524    4.90999985    2.17000008
   12.18861103  150.16200256    4.90999985    2.23000002
   12.19194412  133.73399353    4.90999985    2.26999998
   12.19833374  133.73399353    4.90999985    2.34999990
   12.20222187  139.71899414    4.90999985    2.34999990
   12.20555496  139.80000305    4.90999985    2.40000010
   12.20888901  142.89100647    4.90999985    2.42000008
   12.21138859  135.27099609    4.90999985    2.40000010
   12.21222210  138.42799377    4.90999985    2.40000010
   12.21555519  140.65699768    4.90999985    2.39000010
   12.21888828  140.92700195    4.90999985    2.34999990
   12.22194386  136.04899597    4.90999985    2.39000010
   12.22527695  126.67500305    4.90999985    2.36999989
   12.22861099  128.44500732    4.90999985    2.39000010
   12.23166656  126.15599823    4.90999985    2.40000010
   12.23500061  127.31300354    4.90999985    2.42000008
   12.24111176  127.31300354    4.90999985    2.48000002
   12.24527836  127.60399628    4.90999985    2.50000000
   12.24833393  122.71700287    4.90999985    2.48000002
   12.25166702  125.28900146    4.90999985    2.48000002
   12.25472260  124.10700226    4.90999985    2.46000004
   12.25805569  125.77400208    4.90999985    2.48000002
   12.26111126  120.07800293    4.90999985    2.48000002
   12.26444435  125.75000000    4.90999985    2.46000004
   12.26777744  130.42999268    4.90999985    2.46000004
   12.27083302  128.66700745    4.90999985    2.48000002
   12.27416611  121.73400116    4.90999985    2.48000002
   12.27722168  118.10600281    4.90999985    2.50000000
   12.27805519  117.93800354    4.90999985    2.51999998
   12.28388977  117.93800354    4.90999985    2.48000002
   12.28805637  119.92099762    4.90999985    2.48000002
   12.29111195  120.62300110    4.90999985    2.46000004
   12.29444504  117.86599731    4.90999985    2.46000004
   12.29777813  121.74199677    4.90999985    2.46000004
   12.30083370  121.08399963    4.90999985    2.48000002
   12.30416679  119.34799957    4.90999985    2.48000002
   12.30722237  114.69400024    4.90999985    2.50000000
   12.31055546  115.65899658    4.90999985    2.46000004
   12.31138897  126.97200012    4.90999985    2.46000004
   12.31388950  122.40000153    4.90999985    2.48000002
   12.31722260  122.48600006    4.90999985    2.50000000
   12.32055569  117.94999695    4.90999985    2.50000000
   12.32666683  117.94999695    4.90999985    2.51999998
   12.33083344  117.56199646    4.90999985    2.50000000
   12.33416653  122.12400055    4.90999985    2.50000000
   12.33722210  121.20400238    4.90999985    2.50000000
   12.34055519  118.80699921    4.90999985    2.50000000
   12.34361076  118.77799988    4.69999981    2.50000000
   12.34472179  114.42800140    4.61999989    2.50000000
   12.34722233  112.12699890    4.36999989    2.51999998
   12.35055637  117.18499756    4.07999992    2.53999996
   12.35388947  120.28700256    3.68000007    2.55999994
   12.35694504  125.91500092    3.41000009    2.50000000
   12.36027813  120.40599823    3.55999994    2.48000002
   12.36333370  119.53299713    4.13999987    2.50000000
   12.36972237  119.53299713    4.90999985    2.55999994
   12.37361145  118.83899689    4.90999985    2.57999992
   12.37694454  123.08399963    4.90999985    2.57999992
   12.37805557  115.78199768    4.90999985    2.55999994
   12.38055611  124.11499786    4.90999985    2.51999998
   12.38361073  130.44599915    4.90999985    2.48000002
   12.38694477  134.02000427    4.90999985    2.40000010
   12.39000034  132.34100342    4.90999985    2.39000010
   12.39333344  122.25199890    4.90999985    2.40000010
   12.39638901  137.61399841    4.90999985    2.40000010
   12.39972210  135.80299377    4.90999985    2.39000010
   12.40305519  129.42900085    4.90999985    2.30999994
   12.40611076  145.78700256    4.90999985    2.28999996
   12.41249943  145.78700256    4.90999985    2.30999994
   12.41666698  140.55799866    4.90999985    2.28999996
   12.41972256  151.00300598    4.90999985    2.30999994
   12.42305565  140.81100464    4.90999985    2.36999989
   12.42611122  130.04100037    4.90999985    2.30999994
   12.42944431  140.65699768    4.90999985    2.32999992
   12.43249989  132.58599854    4.90999985    2.36999989
   12.43583298  125.29199982    4.90999985    2.32999992
   12.43916702  127.85800171    4.90999985    2.34999990
   12.44222260  127.50599670    4.90999985    2.42000008
   12.44472218  128.78599548    4.90999985    2.40000010
   12.44583321  131.89599609    4.90999985    2.42000008
   12.44888878  131.09800720    4.90999985    2.40000010
   12.45527744  131.09800720    4.90999985    2.44000006
   12.45944405  120.62799835    4.90999985    2.44000006
   12.46249962  117.86199951    4.90999985    2.50000000
   12.46583271  124.21499634    4.90999985    2.50000000
   12.46916580  123.44999695    4.90999985    2.48000002
   12.47222137  128.16900635    4.90999985    2.50000000
   12.47555542  123.09400177    4.90999985    2.51999998
   12.47805500  123.52100372    4.90999985    2.51999998
   12.47888851  122.00900269    4.90999985    2.50000000
   12.48222160  120.08300018    4.90999985    2.51999998
   12.48555565  127.03500366    4.90999985    2.51999998
   12.48861122  127.07099915    4.90999985    2.51999998
   12.49194431  117.60600281    4.90999985    2.53999996
   12.49805546  117.60600281    4.90999985    2.53999996
   12.50222206  117.06199646    4.90999985    2.53999996
   12.50555515  120.30699921    4.90999985    2.53999996
   12.50861073  122.74800110    4.90999985    2.53999996
   12.51138878  125.61699677    4.90999985    2.51999998
   12.51249981  124.22799683    4.90999985    2.51999998
   12.51555538  133.52699280    4.90999985    2.48000002
   12.51888847  128.99499512    4.90999985    2.46000004
   12.52194405  127.97399902    4.90999985    2.48000002
   12.52527714  131.15199280    4.90999985    2.50000000
   12.52833271  126.24299622    4.90999985    2.48000002
   12.53166676  122.97799683    4.90999985    2.48000002
   12.53472233  123.14399719    4.90999985    2.48000002
   12.54111195  123.14399719    4.90999985    2.46000004
   12.54500008  128.60000610    4.90999985    2.46000004
   12.54833412  128.32600403    4.90999985    2.46000004
   12.55166721  123.99700165    4.90999985    2.46000004
   12.55472279  123.96399689    4.90999985    2.50000000
   12.55805588  125.75099945    4.90999985    2.50000000
   12.56111145  119.75599670    4.90999985    2.51999998
   12.56444454  125.76100159    4.90999985    2.53999996
   12.56777763  120.93000031    4.90999985    2.53999996
   12.57083321  121.62500000    4.90999985    2.51999998
   12.57416630  121.00499725    4.90999985    2.50000000
   12.57722187  114.43199921    4.90999985    2.50000000
   12.57805538  119.75700378    4.90999985    2.50000000
   12.58388901  119.75700378    4.90999985    2.51999998
   12.58805561  121.24500275    4.90999985    2.51999998
   12.59111118  118.88500214    4.90999985    2.48000002
   12.59444427  121.80500031    4.90999985    2.51999998
   12.59749985  115.62599945    4.90999985    2.51999998
   12.60083389  118.56199646    4.90999985    2.50000000
   12.60416698  123.69200134    4.90999985    2.51999998
   12.60722256  126.75599670    4.90999985    2.53999996
   12.61055565  128.35000610    4.90999985    2.50000000
   12.61138916  123.54100037    4.90999985    2.48000002
   12.61416721  138.35600281    4.90999985    2.44000006
   12.61722279  133.04200745    4.90999985    2.42000008
   12.62055588  125.77600098    4.90999985    2.40000010
   12.62666702  125.77600098    4.90999985    2.44000006
   12.63083363  121.41500092    4.90999985    2.48000002
   12.63388920  131.00300598    4.90999985    2.53999996
   12.63722229  122.79199982    4.90999985    2.50000000
   12.64055538  125.14600372    4.90999985    2.51999998
   12.64361095  131.58999634    4.90999985    2.51999998
   12.64472198  129.47799683    4.90999985    2.50000000
   12.64722252  119.63600159    4.90999985    2.50000000
   12.65027714  129.94900513    4.90999985    2.51999998
   12.65361118  120.83100128    4.90999985    2.51999998
   12.65666676  121.87699890    4.90999985    2.51999998
   12.65999985  120.65200043    4.90999985    2.50000000
   12.66305542  132.11900330    4.90999985    2.46000004
   12.66944504  132.11900330    4.90999985    2.50000000
   12.67361164  131.30599976    4.90999985    2.50000000
   12.67694473  127.60800171    4.90999985    2.48000002
   12.67805576  128.22799683    4.90999985    2.48000002
   12.68055630  127.46199799    4.90999985    2.46000004
   12.68361092  122.52500153    4.90999985    2.48000002
   12.68694496  119.83999634    4.90999985    2.50000000
   12.69000053  126.10199738    4.90999985    2.50000000
   12.69333363  126.41999817    4.90999985    2.50000000
   12.69638920  128.71400452    4.90999985    2.50000000
   12.69972229  127.90499878    4.90999985    2.48000002
   12.70305538  125.77400208    4.90999985    2.46000004
   12.70611095  128.26600647    4.90999985    2.42000008
   12.71249962  128.26600647    4.90999985    2.44000006
   12.71638870  125.46099854    4.90999985    2.46000004
   12.71972179  130.49800110    4.90999985    2.48000002
   12.72305489  128.63400269    4.90999985    2.48000002
   12.72611046  131.25799561    4.90999985    2.50000000
   12.72944355  124.21399689    4.90999985    2.53999996
   12.73249912  122.59600067    4.90999985    2.53999996
   12.73583317  127.95600128    4.90999985    2.48000002
   12.73888874  119.66600037    4.90999985    2.46000004
   12.74222279  124.03199768    4.90999985    2.46000004
   12.74472237  127.81700134    4.90999985    2.46000004
   12.74583340  121.98000336    4.90999985    2.46000004
   12.74888897  124.37200165    4.90999985    2.46000004
   12.75527763  124.37200165    4.90999985    2.53999996
   12.75944424  127.00900269    4.90999985    2.51999998
   12.76249981  120.88099670    4.90999985    2.48000002
   12.76583290  117.82299805    4.90999985    2.48000002
   12.76888847  125.49700165    4.90999985    2.50000000
   12.77222157  127.42400360    4.90999985    2.53999996
   12.77527714  117.63800049    4.90999985    2.48000002
   12.77805519  121.28099823    4.90999985    2.48000002
   12.77916622  128.11900330    4.90999985    2.46000004
   12.78222179  133.69000244    4.90999985    2.46000004
   12.78555584  141.30000305    4.90999985    2.36999989
   12.78861141  149.62699890    4.90999985    2.32999992
   12.79194450  155.43600464    4.90999985    2.25000000
   12.79805565  155.43600464    4.90999985    2.21000004
   12.80222225  177.22000122    4.90999985    2.30999994
   12.80527782  156.43800354    4.90999985    2.21000004
   12.80861092  135.24699402    4.90999985    2.28999996
   12.81138897  138.90299988    4.90999985    2.36999989
   12.81222248  141.89300537    4.90999985    2.36999989
   12.81527805  177.78999329    4.90999985    2.40000010
   12.81861115  138.77400208    4.90999985    2.26999998
   12.82166672  150.04100037    4.90999985    2.30999994
   12.82499981  157.61000061    4.90999985    2.26999998
   12.82833290  148.22200012    4.90999985    2.32999992
   12.83138847  162.38900757    4.90999985    2.36999989
   12.83472157  142.99000549    4.90999985    2.28999996
   12.84083271  142.99000549    4.90999985    2.28999996
   12.84499931  139.56500244    4.90999985    2.32999992
   12.84833336  124.06099701    4.90999985    2.32999992
   12.85138893  147.15400696    4.90999985    2.34999990
   12.85472298  144.76800537    4.90999985    2.30999994
   12.85777855  145.02600098    4.90999985    2.32999992
   12.86111164  146.92100525    4.90999985    2.36999989
   12.86444473  147.65600586    4.90999985    2.36999989
   12.86750031  138.68099976    4.90999985    2.34999990
   12.87083340  154.14700317    4.90999985    2.42000008
   12.87388897  137.87300110    4.90999985    2.40000010
   12.87722206  138.97999573    4.90999985    2.42000008
   12.87805557  134.28199768    4.90999985    2.42000008
   12.89888859  134.28199768    4.90999985    2.46000004
   12.90305519  153.64500427    4.90999985    2.44000006
   12.90611076  159.11399841    4.90999985    2.39000010
   12.90944386  141.89799500    4.90999985    2.21000004
   12.91138840  148.02699280    4.90999985    2.25000000
   12.91305542  162.31300354    4.90999985    2.23000002
   12.91638851  129.08500671    4.90999985    2.25000000
   12.91944504  134.61500549    4.90999985    2.36999989
   12.92277813  124.18000031    4.90999985    2.40000010
   12.92583370  141.56500244    4.90999985    2.36999989
   12.92916679  149.72999573    4.90999985    2.30999994
   12.93222237  142.12399292    4.90999985    2.26999998
   12.93555546  136.08200073    4.90999985    2.39000010
   12.94166660  136.08200073    4.90999985    2.39000010
   12.94583321  134.83599854    4.90999985    2.34999990
   12.94888878  138.96000671    4.90999985    2.26999998
   12.95222187  145.09899902    4.90999985    2.39000010
   12.95555496  114.96199799    4.90999985    2.34999990
   12.95861053  132.58000183    4.90999985    2.40000010
   12.96194458  160.41799927    4.90999985    2.44000006
   12.96500015  129.80400085    4.90999985    2.34999990
   12.96833324  134.67700195    4.90999985    2.28999996
   12.97138882  122.13800049    4.90999985    2.36999989
   12.97472191  134.83700562    4.90999985    2.50000000
   12.97777748  125.52700043    4.90999985    2.44000006
   12.97833252  112.41100311    4.90999985    2.42000008
   12.98444462  112.41100311    4.90999985    2.40000010
   12.98861122  129.19400024    4.90999985    2.48000002
   12.99194431  126.36000061    4.90999985    2.42000008
   12.99499989  130.96800232    4.90999985    2.39000010
   12.99833393  135.32200623    4.90999985    2.39000010
   13.00138855  135.87699890    4.90999985    2.40000010
   13.00472260  136.93299866    4.90999985    2.44000006
   13.00777817  127.23100281    4.90999985    2.48000002
   13.01111126  135.87699890    4.90999985    2.39000010
   13.01166630  129.29499817    4.90999985    2.39000010
   13.01472187  140.46600342    4.90999985    2.34999990
   13.01777744  125.71399689    4.90999985    2.30999994
   13.02111053  137.04100037    4.90999985    2.44000006
   13.02750015  137.04100037    4.90999985    2.44000006
   13.03138828  122.60900116    4.90999985    2.46000004
   13.03472233  133.68200684    4.90999985    2.51999998
   13.03777790  128.26100159    4.90999985    2.51999998
   13.04111195  117.91999817    4.90999985    2.46000004
   13.04444504  109.91400146    4.90999985    2.46000004
   13.04500008  127.86299896    4.90999985    2.48000002
   13.04805565  118.61699677    4.90999985    2.55999994
   13.05111122  112.40699768    4.90999985    2.55999994
   13.05444431  121.34600067    4.90999985    2.53999996
   13.05777836  117.37000275    4.90999985    2.57999992
   13.06083393  117.59400177    4.90999985    2.55999994
   13.06416702  108.94200134    4.90999985    2.55999994
   13.07027817  108.94200134    4.90999985    2.67000008
   13.07416630  115.69599915    4.90999985    2.55999994
   13.07750034  112.95700073    4.90999985    2.64000010
   13.07833290  119.97799683    4.90999985    2.59999990
   13.08111095  111.29399872    4.90999985    2.64000010
   13.08416653  116.07900238    4.90999985    2.66000009
   13.08749962  122.96600342    4.90999985    2.55999994
   13.09083271  122.26799774    4.90999985    2.44000006
   13.09388828  116.15000153    4.90999985    2.55999994
   13.09722233  111.98699951    4.90999985    2.61999989
   13.10027790  113.09700012    4.90999985    2.64000010
   13.10361195  116.09200287    4.90999985    2.66000009
   13.10666752  114.79399872    4.90999985    2.64000010
   13.11305618  114.79399872    4.90999985    2.67000008
   13.11722279  112.26200104    4.90999985    2.66000009
   13.12027836  118.49700165    4.90999985    2.66000009
   13.12361145  115.89399719    4.90999985    2.59999990
   13.12666702  120.44400024    4.90999985    2.64000010
   13.13000011  112.69200134    4.90999985    2.64000010
   13.13333321  117.31999969    4.90999985    2.64000010
   13.13638878  110.00900269    4.80000019    2.59999990
   13.13972187  109.17600250    3.72000003    2.67000008
   13.14277744  110.59899902    2.71000004    2.66000009
   13.14499950  112.05400085    2.39000010    2.64000010
   13.14638901  107.01799774    2.40000010    2.66000009
   13.14972210  114.36499786    2.82999992    2.67000008
   13.15583324  114.36499786    2.50000000    2.67000008
   13.15999985  113.93599701    2.86999989    2.67000008
   13.16333294  109.52300262    2.21000004    2.66000009
   13.16638851  119.71800232    1.66999996    2.66000009
   13.16972256  113.32599640    1.41999996    2.66000009
   13.17277813  111.88200378    1.39999998    2.64000010
   13.17611122  110.93499756    1.39999998    2.64000010
   13.17833328  111.83799744    1.38000000    2.64000010
   13.17972279  115.93399811    1.36000001    2.64000010
   13.18277836  110.91899872    1.33000004    2.66000009
   13.18611145  112.85199738    1.30999994    2.66000009
   13.18944454  117.27100372    1.30999994    2.66000009
   13.19250011  114.08899689    1.30999994    2.66000009
   13.19861126  114.08899689    1.30999994    2.66000009
   13.20277786  117.77799988    1.28999996    2.66000009
   13.20611095  112.88099670    1.28999996    2.66000009
   13.20916653  112.14800262    1.28999996    2.66000009
   13.21166611  109.73300171    1.26999998    2.66000009
   13.21277714  108.22499847    1.28999996    2.66000009
   13.21611118  113.61000061    1.26999998    2.66000009
   13.21916580  116.42299652    1.26999998    2.66000009
   13.22249985  115.92400360    1.28999996    2.66000009
   13.22555542  116.02999878    1.28999996    2.66000009
   13.22888851  116.28299713    1.25000000    2.67000008
   13.23194408  114.34100342    1.26999998    2.67000008
   13.23527813  121.55999756    1.26999998    2.67000008
   13.24166679  121.55999756    1.23000002    2.67000008
   13.24583340  121.95099640    1.23000002    2.66000009
   13.24888897  112.20500183    1.23000002    2.66000009
   13.25222206  114.12300110    1.21000004    2.66000009
   13.25527763  115.14399719    1.21000004    2.66000009
   13.25861073  110.04699707    1.21000004    2.66000009
   13.26166630  115.77100372    1.23000002    2.66000009
   13.26500034  111.93399811    1.25000000    2.66000009
   13.26833344  112.44200134    1.23000002    2.66000009
   13.27138901  113.18299866    1.23000002    2.67000008
   13.27472210  114.84200287    1.19000006    2.66000009
   13.27777767  112.85099792    1.19000006    2.66000009
   13.27861118  115.22000122    1.19000006    2.66000009
   13.28444481  115.22000122    1.21000004    2.67000008
   13.28861141  113.75499725    1.21000004    2.66000009
   13.29166698  113.63500214    1.33000004    2.67000008
   13.29500008  109.99199677    1.44000006    2.67000008
   13.29805565  109.74299622    1.34000003    2.67000008
   13.30138874  116.53500366    1.26999998    2.67000008
   13.30472279  112.29000092    1.19000006    2.66000009
   13.30777836  112.74299622    1.19000006    2.66000009
   13.31111145  117.83699799    1.16999996    2.66000009
   13.31194496  115.14700317    1.16999996    2.66000009
   13.31444454  113.87400055    1.16999996    2.67000008
   13.31777763  117.17199707    1.16999996    2.67000008
   13.32083321  113.42099762    1.16999996    2.66000009
   13.32722187  113.42099762    1.14999998    2.67000008
   13.33138847  114.66100311    1.14999998    2.67000008
   13.33472157  117.86599731    1.14999998    2.67000008
   13.33777714  117.01699829    1.14999998    2.67000008
   13.34111118  114.43900299    1.16999996    2.67000008
   13.34416676  115.92199707    1.16999996    2.66000009
   13.34527779  111.90000153    1.16999996    2.66000009
   13.34777737  113.99199677    1.16999996    2.67000008
   13.35111141  118.50199890    1.16999996    2.69000006
   13.35416698  122.55400085    1.16999996    2.69000006
   13.35750008  113.68499756    1.19000006    2.66000009
   13.36055565  114.63999939    1.21000004    2.67000008
   13.36388969  106.24800110    1.19000006    2.67000008
   13.36999989  106.24800110    1.16999996    2.67000008
   13.37416649  107.95500183    1.16999996    2.67000008
   13.37750053  110.56199646    1.14999998    2.67000008
   13.37861156  109.89399719    1.14999998    2.67000008
   13.38138866  110.51899719    1.14999998    2.67000008
   13.38444424  113.15399933    1.14999998    2.67000008
   13.38777733  110.25599670    1.14999998    2.67000008
   13.39083290  113.45400238    1.13000000    2.67000008
   13.39416695  116.47599792    1.13000000    2.67000008
   13.39722252  120.63099670    1.13000000    2.69000006
   13.40055561  111.55500031    1.13000000    2.67000008
   13.40388870  111.27600098    1.13000000    2.67000008
   13.40694427  114.59300232    1.14999998    2.69000006
   13.41305542  114.59300232    1.13000000    2.69000006
   13.41694450  108.93800354    1.14999998    2.67000008
   13.42027855  112.28900146    1.14999998    2.67000008
   13.42361164  117.14299774    1.14999998    2.67000008
   13.42666721  116.53700256    1.14999998    2.67000008
   13.43000031  117.62300110    1.19000006    2.67000008
   13.43333340  117.89900208    1.28999996    2.69000006
   13.43638897  114.83399963    1.28999996    2.69000006
   13.43972206  111.70099640    1.39999998    2.67000008
   13.44305515  112.69799805    1.33000004    2.67000008
   13.44527817  115.99900055    1.34000003    2.67000008
   13.44638920  116.32900238    1.34000003    2.67000008
   13.44972229  111.13999939    1.23000002    2.67000008
   13.45583344  111.13999939    1.19000006    2.67000008
   13.46000004  109.31999969    1.23000002    2.69000006
   13.46305561  116.34300232    1.23000002    2.69000006
   13.46638870  116.76999664    1.25000000    2.67000008
   13.46944427  115.08999634    1.28999996    2.69000006
   13.47277737  113.95600128    1.34000003    2.67000008
   13.47611046  112.45700073    1.51999998    2.67000008
   13.47861099  116.82199860    1.88000000    2.67000008
   13.47944355  108.85700226    1.88000000    2.67000008
   13.48277760  113.27500153    1.58000004    2.67000008
   13.48583317  117.40200043    1.48000002    2.67000008
   13.48916721  120.21099854    1.48000002    2.67000008
   13.49250031  118.09600067    1.75000000    2.67000008
   13.49861145  118.09600067    1.73000002    2.64000010
   13.50277805  113.08999634    1.28999996    2.69000006
   13.50611115  116.61100006    1.25000000    2.67000008
   13.50916672  113.46800232    1.25000000    2.67000008
   13.51194477  114.27300262    1.23000002    2.69000006
   13.51277733  117.96499634    1.23000002    2.69000006
   13.51611137  115.50800323    1.19000006    2.69000006
   13.51916599  111.09799957    1.19000006    2.71000004
   13.52250004  113.33200073    1.19000006    2.69000006
   13.52583313  115.09300232    1.19000006    2.69000006
   13.52888870  116.18699646    1.19000006    2.67000008
   13.53222179  118.73500061    1.19000006    2.67000008
   13.53527832  111.94799805    1.19000006    2.69000006
   13.54138947  111.94799805    1.19000006    2.69000006
   13.54555607  107.37400055    1.23000002    2.69000006
   13.54888916  114.43399811    1.25000000    2.69000006
   13.55194473  111.10600281    1.19000006    2.67000008
   13.55527782  105.54299927    1.19000006    2.69000006
   13.55861092  109.74400330    1.16999996    2.69000006
   13.56166649  107.65499878    1.16999996    2.69000006
   13.56500053  117.96499634    1.16999996    2.69000006
   13.56805515  109.95500183    1.16999996    2.69000006
   13.57138920  115.40399933    1.16999996    2.69000006
   13.57444477  114.07700348    1.16999996    2.69000006
   13.57777786  109.32800293    1.16999996    2.69000006
   13.57861137  111.17400360    1.16999996    2.69000006
   13.58444405  111.17400360    1.61000001    2.69000006
   13.58833313  112.56199646    2.30999994    2.69000006
   13.59166622  113.52600098    2.34999990    2.69000006
   13.59499931  117.88899994    2.30999994    2.69000006
   13.59805489  114.59300232    2.32999992    2.69000006
   13.60138893  117.99700165    2.25000000    2.69000006
   13.60444450  115.85600281    1.94000006    2.69000006
   13.60777855  115.62500000    1.96000004    2.67000008
   13.61083412  114.34400177    2.03999996    2.67000008
   13.61194515  117.60800171    2.17000008    2.67000008
   13.61444473  112.53700256    2.36999989    2.69000006
   13.61777782  109.16100311    2.17000008    2.69000006
   13.62083340  117.74600220    2.05999994    2.69000006
   13.62722206  117.74600220    2.39000010    2.67000008
   13.63138866  107.23699951    2.80999994    2.69000006
   13.63444424  121.31800079    2.69000006    2.69000006
   13.63777733  110.63500214    2.67000008    2.67000008
   13.64083290  110.14499664    2.57999992    2.71000004
   13.64416695  110.95800018    2.36999989    2.69000006
   13.64527798  109.68800354    2.36999989    2.67000008
   13.64777756  108.14900208    2.50000000    2.69000006
   13.65111065  110.46499634    2.61999989    2.71000004
   13.65444374  102.64800262    2.28999996    2.69000006
   13.65749931  109.98799896    2.07999992    2.69000006
   13.66083336  107.87100220    1.66999996    2.69000006
   13.66388893  117.55000305    1.44000006    2.69000006
   13.67000008  117.55000305    1.48000002    2.69000006
   13.67416668  106.83399963    1.41999996    2.71000004
   13.67750072  105.06099701    1.39999998    2.69000006
   13.67861176  108.36299896    1.34000003    2.71000004
   13.68083382  111.00800323    1.51999998    2.69000006
   13.68416691  114.61000061    1.60000002    2.69000006
   13.68722248  113.43699646    1.55999994    2.71000004
   13.69055557  111.65499878    1.58000004    2.71000004
   13.69388866  120.96099854    1.44000006    2.69000006
   13.69694424  115.29599762    1.39999998    2.71000004
   13.70027733  116.20700073    1.44000006    2.69000006
   13.70333290  112.85299683    1.46000004    2.71000004
   13.70666695  104.62799835    1.46000004    2.71000004
   13.71305561  104.62799835    1.23000002    2.71000004
   13.71694374  106.68900299    1.19000006    2.71000004
   13.72027779  117.45300293    1.14999998    2.71000004
   13.72361088  108.39700317    1.21000004    2.71000004
   13.72666645  116.37200165    1.21000004    2.71000004
   13.72999954  107.38300323    1.26999998    2.71000004
   13.73305511  106.50700378    1.51999998    2.71000004
   13.73638916  111.03399658    1.44000006    2.69000006
   13.73944473  113.76999664    1.36000001    2.71000004
   13.74277782  115.27500153    1.30999994    2.71000004
   13.74527836  113.38300323    1.30999994    2.71000004
   13.74638939  113.10299683    1.34000003    2.71000004
   13.74972248  110.79399872    1.28999996    2.71000004
   13.75583363  110.79399872    1.30999994    2.71000004
   13.75972176  115.59300232    1.75000000    2.71000004
   13.76305580  110.48500061    1.76999998    2.71000004
   13.76638889  116.18499756    1.73000002    2.69000006
   13.76944447  114.59200287    1.60000002    2.71000004
   13.77277756  113.51699829    1.60000002    2.71000004
   13.77583313  111.73100281    1.51999998    2.71000004
   13.77861118  109.59700012    1.44000006    2.71000004
   13.77944374  110.39499664    1.44000006    2.71000004
   13.78277779  109.69499969    1.21000004    2.69000006
   13.78583336  113.05899811    1.14999998    2.71000004
   13.78916740  110.97299957    1.14999998    2.71000004
   13.79250050  114.16100311    1.21000004    2.71000004
   13.79861164  114.16100311    1.13000000    2.71000004
   13.80277824  113.43699646    1.07000005    2.71000004
   13.80583382  113.62300110    1.07000005    2.71000004
   13.80916691  114.65000153    1.09000003    2.71000004
   13.81194496  115.62000275    1.11000001    2.71000004
   13.81250000  118.15000153    1.11000001    2.71000004
   13.81583309  114.29299927    1.13000000    2.71000004
   13.81916618  119.01599884    1.13000000    2.69000006
   13.82222176  112.28500366    1.14999998    2.73000002
   13.82555580  110.46499634    1.14999998    2.73000002
   13.82861137  113.87300110    1.14999998    2.71000004
   13.83194447  114.50499725    1.14999998    2.71000004
   13.83500004  113.98400116    1.14999998    2.71000004
   13.84166622  113.98400116    1.11000001    2.71000004
   13.84555531  107.04599762    1.13000000    2.71000004
   13.84888840  108.57499695    1.21000004    2.71000004
   13.85222244  109.99400330    1.21000004    2.71000004
   13.85527802  108.06700134    1.25000000    2.73000002
   13.85861111  110.54199982    1.28999996    2.73000002
   13.86166668  112.96600342    1.30999994    2.71000004
   13.86500072  113.14900208    1.23000002    2.71000004
   13.86805534  116.58899689    1.23000002    2.73000002
   13.87138939  115.71299744    1.25000000    2.71000004
   13.87472248  112.90399933    1.25000000    2.71000004
   13.87777805  113.41400146    1.25000000    2.71000004
   13.87861156  112.53600311    1.16999996    2.71000004
   13.88416672  112.53600311    1.16999996    2.71000004
   13.88833332  113.39499664    1.16999996    2.71000004
   13.89166641  106.86699677    1.16999996    2.73000002
   13.89472198  108.46099854    1.13000000    2.71000004
   13.91249943  112.37500000    1.11000001    2.71000004
   13.91472149  111.81900024    1.11000001    2.71000004
   13.91805553  109.27600098    1.09000003    2.71000004
   13.92111111  112.98500061    1.09000003    2.71000004
   13.92722225  112.98500061    1.09000003    2.71000004
   13.93138885  110.25199890    1.23000002    2.71000004
   13.93472195  109.80999756    1.23000002    2.71000004
   13.93777752  110.48999786    1.25000000    2.71000004
   13.94111156  113.89600372    1.36000001    2.73000002
   13.94416714  117.48799896    1.53999996    2.71000004
   13.94583321  113.09500122    1.53999996    2.71000004
   13.94805527  111.56400299    1.58000004    2.73000002
   13.95111084  111.46800232    1.58000004    2.71000004
   13.95444393  114.45099640    1.69000006    2.71000004
   13.95749950  113.00199890    1.51999998    2.73000002
   13.96083355  113.13400269    1.51999998    2.73000002
   13.96416664  110.02200317    1.46000004    2.73000002
   13.96999931  110.02200317    1.63000000    2.71000004
   13.97416592  104.80899811    1.69000006    2.71000004
   13.97722149  110.01200104    1.55999994    2.73000002
   13.97916603  110.88800049    1.73000002    2.71000004
   13.98111057  110.04699707    1.73000002    2.71000004
   13.98416710  113.64099884    1.85000002    2.71000004
   13.98750019  108.46099854    1.89999998    2.73000002
   13.99055576  117.21800232    1.80999994    2.71000004
   13.99388885  113.73400116    1.89999998    2.71000004
   13.99722290  121.52600098    1.89999998    2.71000004
   14.00027752  115.95800018    2.13000011    2.71000004
   14.00361156  116.12000275    2.80999994    2.71000004
   14.00666714  115.99700165    2.73000002    2.71000004
   14.01333332  115.99700165    2.39000010    2.71000004
   14.01749992  114.48000336    2.86999989    2.71000004
   14.02055550  119.07099915    2.57999992    2.71000004
   14.02388859  108.66100311    2.67000008    2.71000004
   14.02722168  112.04799652    2.07999992    2.71000004
   14.03027725  107.51899719    1.73000002    2.71000004
   14.03361130  113.99700165    1.53999996    2.71000004
   14.03694534  110.35700226    1.50000000    2.71000004
   14.04000092  112.25700378    1.16999996    2.73000002
   14.04333401  111.49500275    1.11000001    2.73000002
   14.04583359  114.35900116    1.03999996    2.73000002
   14.04694462  110.43800354    1.01999998    2.73000002
   14.05000019  104.95200348    1.01999998    2.73000002
   14.05611134  104.95200348    1.01999998    2.73000002
   14.06027794  113.44799805    1.05999994    2.73000002
   14.06361103  113.55200195    1.30999994    2.73000002
   14.06666660  104.62000275    1.44000006    2.73000002
   14.06999969  107.51000214    1.14999998    2.71000004
   14.07333374  113.03700256    1.14999998    2.71000004
   14.07638836  116.05500031    1.01999998    2.73000002
   14.07916641  117.78399658    0.94000000    2.73000002
   14.08027744  112.95300293    0.94000000    2.73000002
   14.08361053  115.36399841    0.92000002    2.73000002
   14.08666611  112.45500183    0.89999998    2.73000002
   14.09000015  112.66000366    0.89999998    2.75000000
   14.09361076  116.68299866    0.88000000    2.71000004
   14.09888840  116.68299866    0.88000000    2.73000002
   14.10305595  114.30400085    0.88000000    2.75000000
   14.10638905  112.98100281    0.89999998    2.73000002
   14.10944462  111.48999786    0.89999998    2.73000002
   14.11250019  113.84100342    0.92000002    2.73000002
   14.11333370  116.47000122    0.92000002    2.73000002
   14.11638927  108.79000092    0.94000000    2.73000002
   14.11972237  108.36399841    0.95999998    2.73000002
   14.12305546  106.04499817    0.95999998    2.73000002
   14.12638855  113.41200256    1.00000000    2.73000002
   14.12944412  115.35099792    0.98000002    2.73000002
   14.13277817  112.20700073    0.98000002    2.73000002
   14.13583279  113.72100067    0.98000002    2.73000002
   14.14194393  113.72100067    1.13000000    2.73000002
   14.14583302  113.12000275    1.09000003    2.71000004
   14.14916611  112.51599884    1.85000002    2.73000002
   14.15249920  117.65000153    3.01999998    2.73000002
   14.15555477  109.16699982    2.36999989    2.71000004
   14.15888882  110.09700012    1.16999996    2.73000002
   14.16194439  118.92199707    1.00000000    2.73000002
   14.16527748  113.24900055    0.95999998    2.71000004
   14.16861153  118.47200012    0.98000002    2.73000002
   14.17166710  117.80400085    1.00000000    2.75000000
   14.17500019  116.19300079    0.98000002    2.75000000
   14.17805576  108.61299896    0.98000002    2.73000002
   14.17916679  110.62599945    0.98000002    2.73000002
   14.18472195  110.62599945    0.98000002    2.73000002
   14.18888855  117.65599823    0.98000002    2.75000000
   14.19194412  115.46900177    0.98000002    2.73000002
   14.19527817  109.58399963    0.98000002    2.71000004
   14.19861126  113.80000305    0.98000002    2.75000000
   14.20166683  116.47399902    0.98000002    2.73000002
   14.20499992  108.54100037    0.98000002    2.73000002
   14.20805550  114.04199982    0.98000002    2.73000002
   14.21138859  112.75599670    0.98000002    2.73000002
   14.21249962  112.96199799    0.98000002    2.73000002
   14.21500015  115.62999725    0.98000002    2.73000002
   14.21805477  115.06500244    0.94000000    2.73000002
   14.22138882  117.27700043    0.92000002    2.75000000
   14.22749996  117.27700043    0.89999998    2.73000002
   14.23166656  112.51100159    0.86000001    2.73000002
   14.23500061  114.71399689    0.86000001    2.73000002
   14.23805618  110.01699829    0.86000001    2.73000002
   14.24138927  112.23600006    0.86000001    2.75000000
   14.24444485  120.34799957    0.81999999    2.73000002
   14.24583340  110.22399902    0.81999999    2.73000002
   14.24805546  115.71700287    0.86000001    2.73000002
   14.25111103  109.55899811    0.86000001    2.75000000
   14.25444412  106.95400238    0.86000001    2.73000002
   14.25777817  109.94400024    0.86000001    2.73000002
   14.26083374  110.67600250    0.88000000    2.75000000
   14.26416683  109.41999817    0.88000000    2.73000002
   14.27027798  109.41999817    0.88000000    2.75000000
   14.27444458  114.06199646    0.88000000    2.75000000
   14.27777767  107.61900330    0.88000000    2.75000000
   14.27916622  112.47200012    0.86000001    2.75000000
   14.28138828  109.78199768    0.86000001    2.75000000
   14.28444481  107.15599823    0.86000001    2.73000002
   14.28777790  117.97000122    0.83999997    2.75000000
   14.29111195  115.31700134    0.81999999    2.73000002
   14.29416752  119.86299896    0.83999997    2.75000000
   14.29750061  117.42800140    0.81999999    2.75000000
   14.30055618  116.61699677    0.81999999    2.73000002
   14.30388927  114.28700256    0.81999999    2.73000002
   14.30722237  111.14600372    0.80000001    2.73000002
   14.31333351  111.14600372    0.79000002    2.75000000
   14.31750011  115.59799957    0.79000002    2.75000000
   14.32055569  113.94499969    0.79000002    2.75000000
   14.32388878  115.21499634    0.79000002    2.75000000
   14.32694435  115.08699799    0.79000002    2.75000000
   14.33027744  107.78500366    0.79000002    2.73000002
   14.33361053  114.93599701    0.80000001    2.75000000
   14.33666611  116.09999847    0.80000001    2.75000000
   14.34000015  110.64199829    0.80000001    2.75000000
   14.34333324  106.52400208    0.80000001    2.73000002
   14.34583282  117.76599884    0.80000001    2.73000002
   14.34694386  112.77700043    0.80000001    2.73000002
   14.35027790  116.75800323    0.79000002    2.75000000
   14.35611153  116.75800323    3.25000000    2.71000004
   14.36027813  108.06199646    2.71000004    2.73000002
   14.36333370  113.74900055    1.23000002    2.75000000
   14.36666679  112.30699921    0.92000002    2.75000000
   14.36999989  110.84200287    0.79000002    2.75000000
   14.37305546  116.37599945    0.80000001    2.76999998
   14.37638855  113.43800354    0.79000002    2.73000002
   14.37916660  114.41100311    0.80000001    2.75000000
   14.38000011  115.87400055    0.80000001    2.75000000
   14.38333321  117.66500092    0.79000002    2.75000000
   14.38638878  115.04100037    0.76999998    2.75000000
   14.38972187  116.00900269    0.79000002    2.75000000
   14.39305496  110.01399994    0.79000002    2.75000000
   14.39888859  110.01399994    0.79000002    2.75000000
   14.40305519  112.46299744    0.79000002    2.73000002
   14.40638828  114.04699707    0.80000001    2.75000000
   14.40944386  112.33699799    0.80000001    2.75000000
   14.41249943  113.34700012    0.80000001    2.75000000
   14.41305542  112.51899719    0.80000001    2.75000000
   14.41638851  110.33200073    0.80000001    2.73000002
   14.41944504  114.48500061    0.79000002    2.73000002
   14.42277813  112.85900116    0.80000001    2.75000000
   14.42583370  116.23999786    0.79000002    2.75000000
   14.42916679  107.51499939    0.79000002    2.75000000
   14.43249989  107.50599670    0.79000002    2.75000000
   14.43555546  112.49800110    0.79000002    2.75000000
   14.44166660  112.49800110    0.79000002    2.73000002
   14.44583321  118.07800293    0.79000002    2.75000000
   14.44638920  124.39800262    0.79000002    2.75000000
   14.44944477  117.14299774    0.79000002    2.73000002
   14.45277786  120.42700195    0.79000002    2.75000000
   14.45611095  112.19599915    0.79000002    2.75000000
   14.45916653  117.13500214    0.79000002    2.75000000
   14.46249962  116.51100159    0.76999998    2.75000000
   14.46555519  112.38800049    0.76999998    2.75000000
   14.46888828  112.07700348    0.79000002    2.75000000
   14.47222137  117.34300232    0.79000002    2.76999998
   14.47527695  110.82700348    0.79000002    2.76999998
   14.47861099  111.57700348    0.79000002    2.75000000
   14.47916603  113.95700073    0.79000002    2.75000000
   14.48472214  113.95700073    0.88000000    2.75000000
   14.48861122  118.02500153    1.00000000    2.73000002
   14.49194431  112.24900055    0.92000002    2.75000000
   14.49527836  114.58100128    0.86000001    2.75000000
   14.49833393  107.90499878    0.75000000    2.75000000
   14.50166702  105.92099762    0.75000000    2.75000000
   14.50500011  105.49099731    0.75000000    2.75000000
   14.50805569  114.80799866    0.73000002    2.75000000
   14.51138878  112.94499969    0.75000000    2.75000000
   14.51249981  108.44699860    0.75000000    2.75000000
   14.51500034  103.84500122    0.75000000    2.75000000
   14.51833344  111.13800049    0.75000000    2.75000000
   14.52138901  114.30599976    0.75000000    2.75000000
   14.52750015  114.30599976    0.73000002    2.76999998
   14.53166676  118.09700012    0.75000000    2.75000000
   14.53472233  109.67900085    1.51999998    2.73000002
   14.53805637  117.93399811    2.00000000    2.75000000
   14.54111195  114.72000122    1.21000004    2.75000000
   14.54444504  107.33499908    1.11000001    2.75000000
   14.54583359  106.00299835    1.11000001    2.75000000
   14.54805565  118.63300323    3.91000009    2.75000000
   14.55138874  106.66100311    4.63999987    2.71000004
   14.55444431  109.94699860    4.90999985    2.71000004
   14.55777836  112.14700317    4.90999985    2.69000006
   14.56083393  119.47100067    4.90999985    2.66000009
   14.56416702  115.06999969    4.90999985    2.69000006
   14.57027817  115.06999969    4.90999985    2.71000004
   14.57444477  116.97799683    4.90999985    2.66000009
   14.57777786  117.79399872    4.90999985    2.55999994
   14.57916641  115.12100220    4.90999985    2.61999989
   14.58138847  117.98999786    4.90999985    2.66000009
   14.58472157  119.37999725    4.90999985    2.61999989
   14.58777714  123.71600342    4.90999985    2.55999994
   14.59111118  134.42799377    4.90999985    2.50000000
   14.59416676  123.95099640    4.90999985    2.53999996
   14.59749985  119.98000336    4.90999985    2.57999992
   14.60083389  138.83000183    4.90999985    2.42000008
   14.60388947  130.26199341    4.90999985    2.64000010
   14.60722256  104.77400208    4.90999985    2.59999990
   14.61305618  104.77400208    4.90999985    2.64000010
   14.61722279  109.90699768    4.90999985    2.67000008
   14.62055588  113.06500244    4.90999985    2.75000000
   14.62361145  125.53399658    4.90999985    2.67000008
   14.62694454  126.38999939    4.90999985    2.61999989
   14.63027763  133.13499451    4.90999985    2.59999990
   14.63333321  111.30100250    4.90999985    2.71000004
   14.63666630  116.59799957    4.51000023    2.71000004
   14.63972187  113.02400208    4.53000021    2.75000000
   14.64305496  106.90799713    4.51000023    2.75000000
   14.64583302  104.34400177    3.68000007    2.71000004
   14.64666653  106.65000153    3.68000007    2.71000004
   14.64999962  107.48699951    1.41999996    2.76999998
   14.65611076  107.48699951    0.75000000    2.75000000
   14.66027737  111.84899902    0.79000002    2.75000000
   14.66333294  112.71900177    0.81999999    2.75000000
   14.66666698  115.82599640    0.83999997    2.75000000
   14.66972256  118.86199951    0.98000002    2.75000000
   14.67305565  117.87799835    0.95999998    2.76999998
   14.77111053   -1.00000000   -1.00000000   -1.00000000
   15.24277782   -1.00000000   -1.00000000   -1.00000000
   15.49722290   -1.00000000   -1.00000000   -1.00000000
   15.59388828   72.64179993    2.55999994    2.76999998
   15.59722233  113.82900238    2.48000002    2.76999998
   15.60027790  128.79200745    3.64000010    2.76999998
   15.60361195  123.91899872    4.90999985    2.78999996
   15.60694504  126.68299866    4.90999985    2.80999994
   15.61000061  145.85400391    4.90999985    2.73000002
   15.61416721  145.85400391    4.90999985    2.36999989
   15.61833382  113.02100372    4.90999985    2.75000000
   15.62166691  117.72499847    3.97000003    2.78999996
   15.62472248  111.91300201    3.11999989    2.78999996
   15.62722206  122.22799683    4.90999985    2.78999996
   15.62833309  121.05100250    4.90999985    2.75000000
   15.63138866  236.33799744    4.90999985    2.80999994
   15.63472176  279.15301514    4.90999985    2.01999998
   15.63805580  127.93199921    4.90999985    2.13000011
   15.64111137  113.25700378    4.90999985    2.50000000
   15.64444447  119.83699799    4.90999985    2.78999996
   15.64750004  251.88000488    4.90999985    1.94000006
   15.65083313  109.86699677    4.90999985    2.19000006
   15.65694427  109.86699677    4.90999985    2.00000000
   15.66111088  123.93699646    4.90999985    2.73000002
   15.66444397   65.76149750    4.90999985    2.57999992
   15.66750050   -1.00000000    4.90999985    1.36000001
   15.67083359   -1.00000000    4.90999985    1.89999998
   15.67416668  208.71299744    4.90999985    1.69000006
   15.67722225  114.44100189    4.90999985    2.64000010
   15.68055630  114.75599670    4.90999985    2.76999998
   15.68361092  108.65299988    4.90999985    2.78999996
   15.68694496  110.95099640    4.90999985    2.76999998
   15.69000053  123.87799835    4.90999985    2.78999996
   15.69333363  155.69900513    4.90999985    2.55999994
   15.69388866  141.02799988    4.90999985    2.73000002
   15.69999981  141.02799988    4.90999985    2.76999998
   15.70416641  114.14399719    4.90999985    2.61999989
   15.70722198   83.68450165    4.90999985    1.63000000
   15.71055508  148.21699524    4.90999985    2.17000008
   15.71361065  162.29899597    4.90999985    2.34999990
   15.71694374  224.90299988    4.90999985    2.44000006
   15.71999931  117.63400269    4.90999985    2.19000006
   15.72333336  110.49900055    4.90999985    2.75000000
   15.72638798  227.59399414    4.90999985    2.82999992
   15.72722149  126.14900208    4.90999985    2.40000010
   15.72999954  105.33999634    4.90999985    2.28999996
   15.73305511  135.54100037    4.90999985    2.82999992
   15.73638916   70.43499756    4.90999985    2.82999992
   15.74277782   70.43499756    4.90999985    1.53999996
   15.74694443  186.89599609    4.90999985    2.42000008
   15.75000000   -1.00000000    4.90999985    0.88000000
   15.75333309   -1.00000000    4.90999985    0.63000000
   15.75638866  139.70199585    4.90999985    0.69000000
   15.75972176  110.49400330    4.90999985    2.28999996
   15.76055527   91.77149963    4.90999985    1.64999998
   15.76333332  188.21600342    4.90999985    2.94000006
   15.76638889   -1.00000000    4.90999985    2.00000000
   15.76972198  183.74600220    4.90999985    1.60000002
   15.77305508   -1.00000000    4.90999985    1.48000002
   15.77611065  254.53999329    4.90999985    1.36000001
   15.77944374  258.24899292    4.90999985    2.34999990
   15.78555584  258.24899292    4.90999985    2.32999992
   15.78972244  156.32499695    4.90999985    2.61999989
   15.79305553   -1.00000000    4.90999985    1.91999996
   15.79388905   -1.00000000   -1.00000000   -1.00000000
   15.79666710   -1.00000000    4.90999985    1.73000002
   15.80000019  211.40100098    4.90999985    1.41999996
   15.80305576   -1.00000000   -1.00000000   -1.00000000
   15.80638885   -1.00000000    4.90999985    1.96000004
   15.80944443   -1.00000000    4.90999985    0.95999998
   15.81277752  135.64799500    4.90999985    1.38000000
   15.81583309  118.84799957    4.90999985    2.59999990
   15.81916618  137.89799500    4.90999985    2.71000004
   15.82222176  123.72299957    4.90999985    2.71000004
   15.82833290  123.72299957    4.90999985    2.75000000
   15.83249950  142.64799500    4.90999985    2.34999990
   15.83583260  161.96000671    4.90999985    2.71000004
   15.83888817  112.41899872    4.90999985    2.40000010
   15.84222221  123.98400116    4.90999985    2.69000006
   15.84555531  125.59100342    4.90999985    2.61999989
   15.84861088  125.81999969    4.90999985    2.71000004
   15.85194492  122.76300049    4.90999985    2.73000002
   15.85500050  124.70400238    4.90999985    2.66000009
   15.85833359  120.52100372    4.90999985    2.69000006
   15.86055565  122.17400360    4.90999985    2.75000000
   15.86194515  120.41899872    4.90999985    2.75000000
   15.86527824  128.62600708    4.90999985    2.30999994
   15.87138939  128.62600708    4.90999985    2.30999994
   15.87555599  120.62699890    4.90999985    2.76999998
   15.87861156  184.26499939    4.90999985    1.76999998
   15.88194466  125.11599731    4.90999985    2.36999989
   15.88500023  114.01399994    4.90999985    2.78999996
   15.88833332  157.42300415    4.90999985    2.71000004
   15.89138889   -1.00000000    4.90999985    1.34000003
   15.89388847  196.40400696    4.90999985    1.46000004
   15.89499950   -1.00000000    4.90999985    1.46000004
   15.89833355   -1.00000000    4.90999985    0.25999999
   15.90138817   -1.00000000    4.90999985    0.67000002
   15.90472221  198.47300720    4.90999985    1.71000004
   15.90777779  120.80799866    4.90999985    0.88000000
   15.91416645  120.80799866    4.90999985    2.64000010
   15.91833401  125.46800232    4.90999985    2.61999989
   15.92138958  132.22099304    4.90999985    2.42000008
   15.92472267  298.49099731    4.90999985    2.55999994
   15.92722225  158.34800720    4.90999985    1.73000002
   15.92833328  127.46900177    4.90999985    1.73000002
   15.93166733  155.77200317    4.90999985    2.42000008
   15.93472195  152.82200623    4.90999985    1.98000002
   15.93805599  216.63699341    4.90999985    2.50000000
   15.94111156  322.65100098    4.90999985    2.23000002
   15.94444466  137.56900024    4.90999985    2.36999989
   15.94750023   64.64330292    4.90999985    2.44000006
   15.95083332   -1.00000000    4.90999985    1.44000006
   15.96111107   -1.00000000    4.90999985    0.20999999
   15.96416664   -1.00000000    4.90999985    0.20999999
   15.96749973   -1.00000000    4.90999985    0.23000000
   15.97055531   -1.00000000    4.90999985    0.25999999
   15.97388840   -1.00000000    4.90999985    0.23000000
   15.97722149   -1.00000000    4.90999985    0.19000000
   15.98027706   -1.00000000    4.90999985    0.19000000
   15.98361111   -1.00000000    4.90999985    0.13000000
   15.98666668   -1.00000000    4.90999985    0.11000000
   15.99000072   -1.00000000    4.90999985    0.09000000
   15.99305534   -1.00000000    4.90999985    0.11000000
   16.00388908   -1.00000000    4.90999985    0.50000000
   16.00722313   -1.00000000    4.90999985    0.25000000
   16.01027870   -1.00000000    4.90999985    0.23000000
   16.01361084   -1.00000000    4.90999985    0.28000000
   16.01666641   -1.00000000    4.90999985    0.31999999
   16.02000046   -1.00000000    4.90999985    0.25000000
   16.02305603   -1.00000000    4.90999985    0.20999999
   16.02638817   -1.00000000    4.90999985    0.38000000
   16.03000069   -1.00000000    4.90999985    0.41999999
   16.03305435   -1.00000000    4.90999985    0.17000000
   16.03638840   -1.00000000    4.90999985    0.19000000
   16.04666710   -1.00000000    4.69999981    0.01000000
   16.04999924   -1.00000000    4.26000023    0.01000000
   16.05305481   -1.00000000    3.72000003    0.01000000
   16.05638885   -1.00000000    3.72000003    0.01000000
   16.05972099   -1.00000000    3.72000003    0.01000000
   16.06305504   -1.00000000    3.72000003    0.01000000
   16.06611061   -1.00000000    3.72000003    0.01000000
   16.06944466   -1.00000000    3.72000003    0.01000000
   16.07277870   -1.00000000    3.72000003    0.01000000
   16.07583427   -1.00000000    3.72000003    0.01000000
   16.07916832   -1.00000000    3.72000003    0.01000000
   16.08972359   -1.00000000    1.51999998    0.01000000
   16.09277916   -1.00000000    1.51999998    0.01000000
   16.09638977   -1.00000000    1.51999998    0.01000000
   16.09944534   -1.00000000    1.51999998    0.01000000
   16.10277748   -1.00000000    1.51999998    0.01000000
   16.10611153   -1.00000000    1.51999998    0.01000000
   16.10916710   -1.00000000    1.51999998    0.01000000
   16.11250114   -1.00000000    1.51999998    0.01000000
   16.11555672   -1.00000000    1.51999998    0.01000000
   16.11888885   -1.00000000    1.51999998    0.01000000
   16.12194443   -1.00000000    1.51999998    0.01000000
   16.13249969   -1.00000000    1.51999998    0.01000000
   16.13555527   -1.00000000    1.51999998    0.01000000
   16.13888931   -1.00000000    1.51999998    0.01000000
   16.14194489   -1.00000000    1.51999998    0.01000000
   16.14527702   -1.00000000    1.51999998    0.01000000
   16.14861107   -1.00000000    1.51999998    0.01000000
   16.15166664   -1.00000000    1.51999998    0.01000000
   16.15499878   -1.00000000    1.51999998    0.01000000
   16.15805435   -1.00000000    1.51999998    0.01000000
   16.16166687   -1.00000000    1.51999998    0.01000000
   16.16472244   -1.00000000    1.51999998    0.01000000
   16.17527771   -1.00000000    1.51999998    0.01000000
   16.17860985   -1.00000000    1.51999998    0.01000000
   16.18166542   -1.00000000    1.51999998    0.01000000
   16.18499947   -1.00000000    1.51999998    0.01000000
   16.18805504   -1.00000000    1.51999998    0.01000000
   16.19138718   -1.00000000    1.51999998    0.01000000
   16.19499969   -1.00000000    1.51999998    0.01000000
   16.19805527   -1.00000000    1.51999998    0.01000000
   16.20138931   -1.00000000    1.51999998    0.01000000
   16.20472336   -1.00000000    1.51999998    0.01000000
   16.20777893   -1.00000000    1.51999998    0.01000000
   16.21805573   -1.00000000    1.51999998    0.01000000
   16.22138977   -1.00000000    1.51999998    0.01000000
   16.22444534   -1.00000000    1.51999998    0.01000000
   16.22805595   -1.00000000    1.51999998    0.01000000
   16.23139000   -1.00000000    1.51999998    0.01000000
   16.23444557   -1.00000000    1.51999998    0.01000000
   16.23777771   -1.00000000    1.51999998    0.01000000
   16.24083328   -1.00000000    1.80999994    0.01000000
   16.24416733   -1.00000000    1.80999994    0.01000000
   16.24722290   -1.00000000    1.80999994    0.01000000
   16.25055504   -1.00000000    1.80999994    0.01000000
   16.26111031   -1.00000000    1.80999994    0.01000000
   16.26416588   -1.00000000    1.80999994    0.01000000
   16.26749992   -1.00000000    1.80999994    0.01000000
   16.27055550   -1.00000000    1.80999994    0.01000000
   16.27388954   -1.00000000    1.80999994    0.01000000
   16.27694511   -1.00000000    1.80999994    0.01000000
   16.28027725   -1.00000000    1.80999994    0.01000000
   16.28333282   -1.00000000    1.80999994    0.01000000
   16.28666687   -1.00000000    1.80999994    0.01000000
   16.28999901   -1.00000000    1.80999994    0.01000000
   16.29305458   -1.00000000    1.80999994    0.01000000
   16.30388832   -1.00000000    1.80999994    0.01000000
   16.30694389   -1.00000000    1.80999994    0.01000000
   16.31027794   -1.00000000    1.80999994    0.01000000
   16.31333351   -1.00000000    1.80999994    0.01000000
   16.31666756   -1.00000000    1.80999994    0.01000000
   16.32000160   -1.00000000    1.80999994    0.01000000
   16.32305717   -1.00000000    1.80999994    0.01000000
   16.32638931   -1.00000000    1.80999994    0.01000000
   16.32972336   -1.00000000    1.58000004    0.01000000
   16.33305550   -1.00000000    1.58000004    0.01000000
   16.33611107   -1.00000000    1.58000004    0.01000000
   16.34666824   -1.00000000    1.58000004    0.01000000
   16.35000038   -1.00000000    1.58000004    0.01000000
   16.35305595   -1.00000000    1.58000004    0.01000000
   16.35639000   -1.00000000    1.58000004    0.01000000
   16.35944557   -1.00000000    1.58000004    0.01000000
   16.36305618   -1.00000000    1.58000004    0.01000000
   16.36638832   -1.00000000    1.58000004    0.01000000
   16.36944389   -1.00000000    1.58000004    0.01000000
   16.37277794   -1.00000000    1.58000004    0.01000000
   16.37583351   -1.00000000    1.58000004    0.01000000
   16.37916756   -1.00000000    1.91999996    0.01000000
   16.38944435   -1.00000000    1.94000006    0.01000000
   16.39277840   -1.00000000    2.44000006    0.01000000
   16.39611053   -1.00000000    4.88999987    0.01000000
   16.39944458   -1.00000000    3.28999996    0.01000000
   16.40250015   -1.00000000    4.55999994    0.03000000
   16.40583229   -1.00000000    4.90999985    0.03000000
   16.40888786   -1.00000000    4.76000023    0.01000000
   16.41222191   -1.00000000    3.72000003    0.01000000
   16.41527748   -1.00000000    2.89000010    0.01000000
   16.41860962   -1.00000000    3.28999996    0.01000000
   16.42222214   -1.00000000    4.42999983    0.01000000
   16.43249893   -1.00000000    4.90999985    0.03000000
   16.43555450   -1.00000000    2.05999994    0.01000000
   16.43888855   -1.00000000    2.57999992    0.01000000
   16.44194412   -1.00000000    4.90999985    0.03000000
   16.44527626   -1.00000000    4.90999985    0.07000000
   16.44833183   -1.00000000    4.90999985    0.11000000
   16.45166779   -1.00000000    4.90999985    0.31999999
   16.45472336   -1.00000000    4.90999985    0.28000000
   16.45805550   -1.00000000    4.90999985    0.23000000
   16.46166801   -1.00000000    4.90999985    0.31999999
   16.46500015   -1.00000000    4.90999985    0.46000001
   16.47527885   -1.00000000    4.90999985    0.07000000
   16.47833443   -1.00000000    4.90999985    0.11000000
   16.48166656   -1.00000000    4.90999985    0.17000000
   16.48472214   -1.00000000    4.90999985    0.89999998
   16.48805618   -1.00000000    4.90999985    0.64999998
   16.49138832  156.43299866    4.90999985    1.33000004
   16.49472237  348.32299805    4.90999985    2.13000011
   16.49805641  143.22099304    4.90999985    1.85000002
   16.50111198  281.26699829    4.90999985    2.53999996
   16.50444412  183.21000671    4.90999985    1.83000004
   16.50749969  131.21600342    4.90999985    2.15000010
   16.51388931  131.21600342    4.90999985    1.73000002
   16.51805496  239.28199768    4.90999985    2.07999992
   16.52138901   -1.00000000    4.90999985    2.39000010
   16.52444458   -1.00000000    4.90999985    1.38000000
   16.52805519   -1.00000000    4.90999985    1.07000005
   16.53138924   -1.00000000    4.90999985    1.13000000
   16.53444481   -1.00000000    4.90999985    1.28999996
   16.53777695   -1.00000000    4.90999985    1.34000003
   16.54083252   -1.00000000    4.90999985    1.48000002
   16.54416656   -1.00000000    4.90999985    1.69000006
   16.54722214   -1.00000000    4.90999985    0.25000000
   16.55055428   -1.00000000    4.90999985    0.07000000
   16.56083298   -1.00000000    2.23000002    0.01000000
   16.56416512   -1.00000000    2.46000004    0.03000000
   16.56722260   -1.00000000    4.67999983    0.05000000
   16.57055664   -1.00000000    4.90999985    0.09000000
   16.57361221   -1.00000000    4.90999985    0.15000001
   16.57694626   -1.00000000    4.90999985    0.17000000
   16.58027840   -1.00000000    4.90999985    0.13000000
   16.58333397   -1.00000000    4.90999985    0.19000000
   16.58666801   -1.00000000    4.90999985    0.31999999
   16.58972359   -1.00000000    4.90999985    0.15000001
   16.59305573   -1.00000000    4.90999985    0.15000001
   16.61888885   -1.00000000    4.90999985    0.56999999
   16.62194443   -1.00000000    4.90999985    1.26999998
   16.62527847   -1.00000000    4.90999985    0.80000001
   16.62861061   -1.00000000    4.90999985    0.67000002
   16.63194466   -1.00000000    4.90999985    1.83000004
   16.63500023   -1.00000000    4.90999985    1.28999996
   16.63833237   -1.00000000    4.90999985    1.44000006
   16.64138794   78.08200073    4.90999985    1.44000006
   16.64472198   -1.00000000    4.90999985    2.01999998
   16.64777756   -1.00000000    4.90999985    1.14999998
   16.65111160   -1.00000000    4.90999985    1.07000005
   16.65749931   -1.00000000    4.90999985    2.34999990
   16.66166687  237.94799805    4.90999985    2.17000008
   16.66472244   94.13690186    4.90999985    2.23000002
   16.66805458  108.53299713    4.90999985    2.13000011
   16.67138863  122.54799652    4.90999985    1.83000004
   16.67444420   -1.00000000    4.90999985    1.96000004
   16.67777634   -1.00000000    4.90999985    1.78999996
   16.68083191   -1.00000000    4.90999985    1.38000000
   16.68416595   -1.00000000    4.90999985    1.16999996
   16.68722153   -1.00000000    4.90999985    0.98000002
   16.69055557   -1.00000000    4.90999985    1.11000001
   16.69361115   77.72609711    4.90999985    1.21000004
   16.69416618  123.95600128    4.90999985    1.21000004
   16.70055580  123.95600128    4.90999985    1.66999996
   16.70472336  133.19700623    4.90999985    1.86000001
   16.70777893   -1.00000000    4.90999985    2.03999996
   16.71111107   -1.00000000    4.90999985    0.98000002
   16.71416664   -1.00000000    4.90999985    1.86000001
   16.71750069   -1.00000000    4.90999985    1.61000001
   16.72055626   -1.00000000    4.90999985    1.11000001
   16.72389030   -1.00000000    4.90999985    1.71000004
   16.72694588   -1.00000000    4.90999985    1.28999996
   16.73055649   -1.00000000    4.90999985    1.09000003
   16.73361206   -1.00000000    4.90999985    1.30999994
   16.73694420   -1.00000000    4.90999985    1.25000000
   16.74333382   -1.00000000    4.90999985    1.39999998
   16.74722290   -1.00000000    4.90999985    1.80999994
   16.75055504   -1.00000000    4.90999985    1.69000006
   16.75388908   48.02399826    4.90999985    1.41999996
   16.75694466   -1.00000000    4.90999985    1.80999994
   16.76027870   -1.00000000    4.90999985    1.76999998
   16.76083374   90.75689697    4.90999985    1.69000006
   16.76388931   93.82199860    4.90999985    2.07999992
   16.76694489  250.04899597    4.90999985    1.83000004
   16.77027702   -1.00000000    4.90999985    1.96000004
   16.77361107   -1.00000000    4.90999985    1.16999996
   16.77666664   -1.00000000    4.90999985    1.23000002
   16.78000069  269.01199341    4.90999985    1.39999998
   16.78610992  269.01199341    4.90999985    2.17000008
   16.79027748   -1.00000000    4.90999985    1.69000006
   16.79333305   -1.00000000    4.90999985    1.07000005
   16.79694366   -1.00000000    4.90999985    1.71000004
   16.79999924  224.42900085    4.90999985    1.41999996
   16.80333328  165.07600403    4.90999985    1.86000001
   16.80638885   58.56269836    4.90999985    2.36999989
   16.80972099   92.85350037    4.90999985    1.55999994
   16.81305504   -1.00000000    4.90999985    1.89999998
   16.81611061   63.71879959    4.90999985    1.38000000
   16.81944466   -1.00000000    4.90999985    1.69000006
   16.82250023  107.83499908    4.90999985    2.11999989
   16.83305550   -1.00000000    4.90999985    1.44000006
   16.83611107   -1.00000000    4.90999985    1.28999996
   16.83944511   -1.00000000    4.90999985    1.36000001
   16.84250069   -1.00000000    4.90999985    1.53999996
   16.84583473   -1.00000000    4.90999985    0.80000001
   16.84889030   -1.00000000    4.90999985    0.86000001
   16.85222244   -1.00000000    4.90999985    0.50000000
   16.85555649   -1.00000000    4.90999985    1.07000005
   16.85861206   -1.00000000    4.90999985    0.70999998
   16.86222267   -1.00000000    4.90999985    0.88000000
