    HOUR (UT)   FLARE FACTOR    SKY TESTER    SUN TESTER
   12.09249973   -1.00000000   -1.00000000   -1.00000000
   12.12916660  113.82599640    0.00000000    0.00000000
   12.13249969  112.40599823    0.00000000    0.00000000
   12.13555527  112.36000061    0.00000000    0.00000000
   12.13888836  114.42199707    0.00000000    0.00000000
   12.14194393  108.44899750    0.00000000    0.00000000
   12.14527798  104.84400177    0.00000000    0.00000000
   12.14944458  104.84400177    0.00000000    0.00000000
   12.15361118  110.32099915    0.00000000    0.00000000
   12.15694427  108.58100128    0.00000000    0.00000000
   12.15999985  114.61100006    0.00000000    0.00000000
   12.16222191  112.83799744    0.00000000    0.00000000
   12.16361046  109.41600037    0.00000000    0.00000000
   12.16694450  108.85199738    0.00000000    0.00000000
   12.17000008  110.36000061    0.00000000    0.00000000
   12.17333412  114.47200012    0.00000000    0.00000000
   12.17666721  110.64399719    0.00000000    0.00000000
   12.17972279  114.41000366    0.00000000    0.00000000
   12.18333340  109.82299805    0.00000000    0.00000000
   12.18666649  120.81900024    4.90999985    2.46000004
   12.19222260  120.81900024    4.90999985    2.46000004
   12.19638920  110.31400299    4.90999985    2.46000004
   12.19972229  112.26000214    4.90999985    2.46000004
   12.20277786  117.80599976    4.90999985    2.46000004
   12.20611095  104.72200012    4.90999985    2.46000004
   12.20916653  116.42199707    4.90999985    2.46000004
   12.21249962   -1.00000000    4.90999985    2.46000004
   12.21583271   -1.00000000    4.90999985    2.46000004
   12.21888828   -1.00000000    4.90999985    2.46000004
   12.22222137  104.62400055    4.90999985    2.46000004
   12.22555542  110.53700256    4.90999985    2.46000004
   12.22861099  120.45500183    4.90999985    2.46000004
   12.22916603  109.42199707    4.90999985    2.46000004
   12.23500061  109.42199707    4.90999985    2.46000004
   12.23916721  109.33899689    4.90999985    2.46000004
   12.24250031  109.70099640    4.90999985    2.46000004
   12.24555588  108.85500336    4.90999985    2.46000004
   12.24888897  108.63600159    4.90999985    2.46000004
   12.25222206   97.75710297    4.90999985    2.46000004
   12.25527763  108.99500275    4.90999985    2.46000004
   12.25861073  105.58399963    4.90999985    2.46000004
   12.26194477  102.60099792    4.90999985    2.46000004
   12.26249981  102.98000336    4.90999985    2.46000004
   12.26555538  104.43199921    4.90999985    2.46000004
   12.26861095  106.14600372    4.90999985    2.46000004
   12.27194405  121.23100281    4.90999985    2.46000004
   12.27805519  121.23100281    4.90999985    2.46000004
   12.28194427  105.24700165    4.90999985    2.46000004
   12.28527832  107.52899933    4.90999985    2.46000004
   12.28861141  101.23899841    4.90999985    2.46000004
   12.29166698  155.20199585    4.90999985    2.46000004
   12.29500008  206.57600403    4.90999985    2.46000004
   12.29583359  109.00599670    4.90999985    2.46000004
   12.29888916  107.07299805    4.90999985    2.46000004
   12.30194473  104.41300201    4.90999985    2.46000004
   12.30527782  102.32299805    4.90999985    2.46000004
   12.30861092   97.74810028    4.90999985    2.46000004
   12.31166649  102.52500153    4.90999985    2.46000004
   12.31500053  110.06300354    4.90999985    2.46000004
   12.32083321  110.06300354    4.90999985    2.46000004
   12.32499981  107.85900116    4.90999985    2.46000004
   12.32805538  108.20099640    4.90999985    2.46000004
   12.32916641  111.21299744    4.90999985    2.46000004
   12.33194447  100.55599976    4.90999985    2.46000004
   12.33500004  103.98100281    4.90999985    2.46000004
   12.33833313  101.43199921    4.90999985    2.46000004
   12.34166622   97.96070099    4.90999985    2.46000004
   12.34472179   96.64830017    4.90999985    2.46000004
   12.34805489   98.46730042    4.90999985    2.46000004
   12.35111141   97.76869965    4.90999985    2.46000004
   12.35444450  101.48600006    4.90999985    2.46000004
   12.35777855   97.12390137    4.90999985    2.46000004
   12.36361122   97.12390137    4.90999985    2.46000004
   12.36777782   90.04409790    4.90999985    2.46000004
   12.37111092   97.11650085    4.90999985    2.46000004
   12.37416649   96.94100189    4.90999985    2.46000004
   12.37750053  104.85299683    4.90999985    2.46000004
   12.38083363  103.13800049    4.90999985    2.46000004
   12.38388920   96.20850372    4.90999985    2.46000004
   12.38722229  108.87300110    4.90999985    2.46000004
   12.39055538  101.47799683    4.90999985    2.46000004
   12.39361095  103.66600037    4.90999985    2.46000004
   12.39583302  100.87599945    4.90999985    2.46000004
   12.39722252  100.06500244    4.90999985    2.46000004
   12.40027714  106.57900238    4.90999985    2.46000004
   12.40638828  106.57900238    4.90999985    2.46000004
   12.41055489   95.70359802    4.90999985    2.46000004
   12.41388893   90.29530334    4.90999985    2.46000004
   12.41722298   93.91639709    4.90999985    2.46000004
   12.42027855  109.43000031    4.90999985    2.46000004
   12.42361164  101.68800354    4.90999985    2.46000004
   12.42666721   99.81700134    4.90999985    2.46000004
   12.42916679  109.47200012    4.90999985    2.46000004
   12.43055630  106.96800232    4.90999985    2.46000004
   12.43361092  100.43499756    4.90999985    2.46000004
   12.43694496  101.97899628    4.90999985    2.46000004
   12.44027805  131.30099487    4.90999985    2.46000004
   12.44333363  101.50399780    4.90999985    2.46000004
   12.44944477  101.50399780    4.90999985    2.46000004
   12.45333290   94.35119629    4.90999985    2.46000004
   12.45666695   97.16590118    4.90999985    2.46000004
   12.46000004   99.55159760    4.90999985    2.46000004
   12.46249962   99.49939728    4.90999985    2.46000004
   12.46361065  100.94999695    4.90999985    2.46000004
   12.46666622  105.57599640    4.90999985    2.46000004
   12.46999931  105.42800140    4.90999985    2.46000004
   12.47333336   99.31790161    4.90999985    2.46000004
   12.47638798   98.30829620    4.90999985    2.46000004
   12.47972202  102.71399689    4.90999985    2.46000004
   12.48277760  104.46900177    4.90999985    2.46000004
   12.48611164   92.43939972    4.90999985    2.46000004
   12.49222279   92.43939972    4.90999985    2.46000004
   12.49638939  102.68499756    4.90999985    2.46000004
   12.49944496   99.85610199    4.90999985    2.46000004
   12.50277805   95.40260315    4.90999985    2.46000004
   12.50611115   98.52529907    4.90999985    2.46000004
   12.50916672  103.88600159    4.90999985    2.46000004
   12.51249981   97.64900208    4.90999985    2.46000004
   12.51583290   97.36090088    4.90999985    2.46000004
   12.51888847  100.98699951    4.90999985    2.46000004
   12.52222157  100.45899963    4.90999985    2.46000004
   12.52527714   97.90110016    4.90999985    2.46000004
   12.52861118   95.27469635    4.90999985    2.46000004
   12.52916622   98.28980255    4.90999985    2.46000004
   12.53500080   98.28980255    4.90999985    2.46000004
   12.53916740   92.24810028    4.90999985    2.46000004
   12.54250050   90.31449890    4.90999985    2.46000004
   12.54555607   95.62570190    4.90999985    2.46000004
   12.54888916   98.52890015    4.90999985    2.46000004
   12.55222225  100.41899872    4.90999985    2.46000004
   12.55527782   96.68599701    4.90999985    2.46000004
   12.55861092  160.31599426    4.90999985    2.46000004
   12.56194496  102.89900208    4.90999985    2.46000004
   12.56250000  100.45400238    4.90999985    2.46000004
   12.56555557  100.42099762    4.90999985    2.46000004
   12.56861115   94.17800140    4.90999985    2.46000004
   12.57194424   99.93160248    4.90999985    2.46000004
   12.57777786   99.93160248    4.90999985    2.46000004
   12.58194447   99.02130127    4.90999985    2.46000004
   12.58527756   98.39080048    4.90999985    2.46000004
   12.58833313   96.78289795    4.90999985    2.46000004
   12.59166622  100.83799744    4.90999985    2.46000004
   12.59499931   93.95010376    4.90999985    2.46000004
   12.59583282  106.83499908    4.90999985    2.46000004
   12.59861088   93.51860046    4.90999985    2.46000004
   12.60166740  152.59500122    4.90999985    2.46000004
   12.60500050   -1.00000000    4.90999985    2.46000004
   12.60833359   -1.00000000    4.90999985    2.46000004
   12.61138916  124.35900116    4.90999985    2.46000004
   12.61472225   95.15640259    4.90999985    2.46000004
   12.62083340   95.15640259    4.90999985    2.46000004
   12.62472248  123.90200043    4.90999985    2.46000004
   12.62805557   -1.00000000    4.90999985    2.46000004
   12.63166714   -1.00000000    4.90999985    2.46000004
   12.63472176  153.39100647    4.90999985    2.46000004
   12.63805580   -1.00000000    4.90999985    2.46000004
   12.64138889   -1.00000000    4.90999985    2.46000004
   12.64444447   -1.00000000    4.90999985    2.46000004
   12.64777756   -1.00000000    4.90999985    2.46000004
   12.65083313   -1.00000000    4.90999985    2.46000004
   12.65416622   -1.00000000    4.90999985    2.46000004
   12.65749931  185.02200317    4.90999985    2.46000004
   12.66361046  185.02200317    4.90999985    2.46000004
   12.66777802   -1.00000000    4.90999985    2.46000004
   12.67083359   -1.00000000    4.90999985    2.46000004
   12.67416668   -1.00000000    4.90999985    2.46000004
   12.67750072   -1.00000000    4.90999985    2.46000004
   12.68055630   -1.00000000    4.90999985    2.46000004
   12.68388939   -1.00000000    4.90999985    2.46000004
   12.68694496   -1.00000000    4.90999985    2.46000004
   12.69027805  154.32800293    4.90999985    2.46000004
   12.69361115   -1.00000000    4.90999985    2.46000004
   12.69722271   -1.00000000    4.90999985    2.46000004
   12.70027733   -1.00000000    4.90999985    2.46000004
   12.71055508   -1.00000000    4.90999985    2.46000004
   12.71361065   -1.00000000    4.90999985    2.46000004
   12.71694374   -1.00000000    4.90999985    2.46000004
   12.72027779   -1.00000000    4.90999985    2.46000004
   12.72333336   -1.00000000    4.90999985    2.46000004
   12.72666645   -1.00000000    4.90999985    2.46000004
   12.73027706   -1.00000000    4.90999985    2.46000004
   12.73333359   -1.00000000    4.90999985    2.46000004
   12.73666668   -1.00000000    4.90999985    2.46000004
   12.74000072   -1.00000000    4.90999985    2.46000004
   12.74305534   -1.00000000    4.90999985    2.46000004
   12.75333309   -1.00000000    4.90999985    2.46000004
   12.75666714   -1.00000000    4.90999985    2.46000004
   12.75972176   -1.00000000    4.90999985    2.46000004
   12.76333332   -1.00000000    4.90999985    2.46000004
   12.76638889   -1.00000000    4.90999985    2.46000004
   12.76972198   -1.00000000    4.90999985    2.46000004
   12.77305508   -1.00000000    4.90999985    2.46000004
   12.77611065   -1.00000000    4.90999985    2.46000004
   12.77944374   -1.00000000    4.90999985    2.46000004
   12.78249931   -1.00000000    4.90999985    2.46000004
   12.78583336   -1.00000000    4.90999985    2.46000004
   12.79611111  101.53600311    4.90999985    2.46000004
   12.79944515   99.37850189    4.90999985    2.46000004
   12.80277824   97.28340149    4.90999985    2.46000004
   12.80583382   95.13059998    4.90999985    2.46000004
   12.80916691   95.63200378    4.90999985    2.46000004
   12.81222248   90.66729736    4.90999985    2.46000004
   12.81555557   93.18699646    4.90999985    2.46000004
   12.81888866  103.84899902    4.90999985    2.46000004
   12.82194424  105.86799622    4.90999985    2.46000004
   12.82527733   98.82630157    4.90999985    2.46000004
   12.82861137   91.94039917    4.90999985    2.46000004
   12.82916641   96.72799683    4.90999985    2.46000004
   12.83500004   96.72799683    4.90999985    2.46000004
   12.83916664  100.02799988    4.90999985    2.46000004
   12.84222221   94.80030060    4.90999985    2.46000004
   12.84555531  101.43699646    4.90999985    2.46000004
   12.84888840   92.91580200    4.90999985    2.46000004
   12.85194492   93.01280212    4.90999985    2.46000004
   12.85527802  103.59799957    4.90999985    2.46000004
   12.85861111   96.39520264    4.90999985    2.46000004
   12.86166668   93.56490326    4.90999985    2.46000004
   12.86250019   98.76869965    4.90999985    2.46000004
   12.86527824   99.70570374    4.90999985    2.46000004
   12.86861134  101.91200256    4.90999985    2.46000004
   12.87166691  104.98000336    4.90999985    2.46000004
   12.87777805  104.98000336    4.90999985    2.46000004
   12.88194466  109.22899628    4.90999985    2.46000004
   12.88527775   97.43009949    4.90999985    2.46000004
   12.88833332   99.84049988    4.90999985    2.46000004
   12.89166641   94.09860229    4.90999985    2.46000004
   12.89472198   96.80729675    4.90999985    2.46000004
   12.89583302   95.54820251    4.90999985    2.46000004
   12.89833355   93.92910004    4.90999985    2.46000004
   12.90166664   94.98410034    4.90999985    2.46000004
   12.90472221   95.57879639    4.90999985    2.46000004
   12.90805531   92.00559998    4.90999985    2.46000004
   12.91111088   89.77490234    4.90999985    2.46000004
   12.91444397   92.83730316    4.90999985    2.46000004
   12.92055607   92.83730316    4.90999985    2.46000004
   12.92472267   89.10540009    4.90999985    2.46000004
   12.92805576   92.73760223    4.90999985    2.46000004
   12.92916679   94.87339783    4.90999985    2.46000004
   12.93166733   94.02480316    4.90999985    2.46000004
   12.93500042   94.12750244    4.90999985    2.46000004
   12.93805599   91.73269653    4.90999985    2.46000004
   12.94138908   94.64540100    4.90999985    2.46000004
   12.94444466   91.03520203    4.90999985    2.46000004
   12.94777775   92.60430145    4.90999985    2.46000004
   12.95111084   88.02799988    4.90999985    2.46000004
   12.95416641   91.96700287    4.90999985    2.46000004
   12.95749950   92.19550323    4.90999985    2.46000004
   12.96333313   92.19550323    4.90999985    2.46000004
   12.96749973   93.26239777    4.90999985    2.46000004
   12.97083282   99.21230316    4.90999985    2.46000004
   12.97416592   92.73130035    4.90999985    2.46000004
   12.97722149  108.30000305    4.90999985    2.46000004
   12.98055553   93.68329620    4.90999985    2.46000004
   12.98388958   92.47299957    4.90999985    2.46000004
   12.98694515   95.74919891    4.90999985    2.46000004
   12.99027824   92.37740326    4.90999985    2.46000004
   12.99333382   90.81849670    4.90999985    2.46000004
   12.99583340   92.05699921    4.90999985    2.46000004
   12.99694443   91.13649750    4.90999985    2.46000004
   13.00027752   90.91750336    4.90999985    2.46000004
   13.00638866   90.91750336    4.90999985    2.46000004
   13.01055527   90.21240234    4.90999985    2.46000004
   13.01361084   95.44029999    4.90999985    2.46000004
   13.01694393   92.99690247    4.90999985    2.46000004
   13.02027798   92.63549805    4.90999985    2.46000004
   13.02333355   96.08760071    4.90999985    2.46000004
   13.02666664   94.49130249    4.90999985    2.46000004
   13.02916622   91.96499634    4.90999985    2.46000004
   13.03027725   93.37819672    4.90999985    2.46000004
   13.03361130  111.81600189    4.90999985    2.46000004
   13.03666687  120.97200012    4.90999985    2.46000004
   13.04000092  105.41300201    4.90999985    2.46000004
   13.04305553   89.81199646    4.90999985    2.46000004
   13.04916668   89.81199646    4.90999985    2.46000004
   13.05333328   91.93569946    4.90999985    2.46000004
   13.05666733   95.11799622    4.90999985    2.46000004
   13.05972195   92.29630280    4.90999985    2.46000004
   13.06250000   97.27700043    4.90999985    2.46000004
   13.06333351   93.07029724    4.90999985    2.46000004
   13.06666660   93.51689911    4.90999985    2.46000004
   13.06972218   88.36660004    4.90999985    2.46000004
   13.07305527   85.03900146    4.90999985    2.46000004
   13.07611084   88.71730042    4.90999985    2.46000004
   13.07944393   90.47499847    4.90999985    2.46000004
   13.08277798   88.78320313    4.90999985    2.46000004
   13.08583260   90.85299683    4.90999985    2.46000004
   13.09194374   90.85299683    4.90999985    2.46000004
   13.09611034   84.11350250    4.90999985    2.46000004
   13.09944439   89.22560120    4.90999985    2.46000004
   13.10277843   86.38590240    4.90999985    2.46000004
   13.10583401   87.38939667    4.90999985    2.46000004
   13.10916710   90.22920227    4.90999985    2.46000004
   13.11250019   85.21669769    4.90999985    2.46000004
   13.11555576   84.75930023    4.90999985    2.46000004
   13.11888885   85.36589813    4.90999985    2.46000004
   13.12194443   86.16560364    4.90999985    2.46000004
   13.12527752   88.89060211    4.90999985    2.46000004
   13.12861156   89.96559906    4.90999985    2.46000004
   13.12916660   85.66970062    4.90999985    2.46000004
   13.14999962   85.66970062    4.90999985    2.46000004
   13.15416622   91.31600189    4.90999985    2.46000004
   13.15722179   88.78530121    4.90999985    2.46000004
   13.16055489   95.44599915    4.90999985    2.46000004
   13.16249943   89.60520172    4.90999985    2.46000004
   13.16416645   87.17259979    4.90999985    2.46000004
   13.16750050   87.94439697    4.90999985    2.46000004
   13.17055607   89.77069855    4.90999985    2.46000004
   13.17388916   90.69599915    4.90999985    2.46000004
   13.17722225   90.46080017    4.90999985    2.46000004
   13.18027782   86.74839783    4.90999985    2.46000004
   13.18361092   87.72460175    4.90999985    2.46000004
   13.18666649   90.36299896    4.90999985    2.46000004
   13.19277763   90.36299896    4.90999985    2.46000004
   13.19694424   87.41960144    4.90999985    2.46000004
   13.19999981   89.87319946    4.90999985    2.46000004
   13.20333290   92.17279816    4.90999985    2.46000004
   13.20638847   87.35269928    4.90999985    2.46000004
   13.20972157   89.65270233    4.90999985    2.46000004
   13.21305561   90.41079712    4.90999985    2.46000004
   13.21611118   82.86519623    4.90999985    2.46000004
   13.21944427   93.70089722    4.90999985    2.46000004
   13.22277737   91.43460083    4.90999985    2.46000004
   13.22583294   92.14029694    4.90999985    2.46000004
   13.22916603   94.66889954    4.90999985    2.46000004
   13.22972202   94.54869843    4.90999985    2.46000004
   13.23555565   94.54869843    4.90999985    2.46000004
   13.23972225   96.11900330    4.90999985    2.46000004
   13.24277782  100.41000366    4.90999985    2.46000004
   13.24611092  102.42800140    4.90999985    2.46000004
   13.24944496  110.02899933    4.90999985    2.46000004
   13.25249958  102.56800079    4.90999985    2.46000004
   13.25583363  103.69100189    4.90999985    2.46000004
   13.25916672  104.76799774    4.90999985    2.46000004
   13.26222229  104.69899750    4.90999985    2.46000004
   13.26305580   98.50340271    4.90999985    2.46000004
   13.26583290  106.44400024    4.90999985    2.46000004
   13.26916599  101.16100311    4.90999985    2.46000004
   13.27250004   97.89849854    4.90999985    2.46000004
   13.27833271   97.89849854    4.90999985    2.46000004
   13.28249931   92.43060303    4.90999985    2.46000004
   13.28583336  103.34999847    4.90999985    2.46000004
   13.28888893   96.65489960    4.90999985    2.46000004
   13.29222298   93.82839966    4.90999985    2.46000004
   13.29555607   99.92910004    4.90999985    2.46000004
   13.29638958  102.59799957    4.90999985    2.46000004
   13.29888916   95.24259949    4.90999985    2.46000004
   13.30222225  101.13500214    4.90999985    2.46000004
   13.30555534   89.32240295    4.90999985    2.46000004
   13.30861092   95.47650146    4.90999985    2.46000004
   13.31194496   97.48439789    4.90999985    2.46000004
   13.31500053   96.30229950    4.90999985    2.46000004
   13.32111073   96.30229950    4.90999985    2.46000004
   13.32527733   93.04620361    4.90999985    2.46000004
   13.32861137   98.79019928    4.90999985    2.46000004
   13.32972240   95.16470337    4.90999985    2.46000004
   13.33222198   93.30419922    4.90999985    2.46000004
   13.33555508   93.85359955    4.90999985    2.46000004
   13.33888817   94.69950104    4.90999985    2.46000004
   13.34194374   91.32379913    4.90999985    2.46000004
   13.34527779   94.61039734    4.90999985    2.46000004
   13.34833336   96.84899902    4.90999985    2.46000004
   13.35166740   94.88559723    4.90999985    2.46000004
   13.35500050   96.77700043    4.90999985    2.46000004
   13.35805607   90.45659637    4.90999985    2.46000004
   13.36416721   90.45659637    4.90999985    2.46000004
   13.36833382   88.84459686    4.90999985    2.46000004
   13.37138939   97.00669861    4.90999985    2.46000004
   13.37472248   89.97090149    4.90999985    2.46000004
   13.37777805   96.44170380    4.90999985    2.46000004
   13.38111115   89.52469635    4.90999985    2.46000004
   13.38444424   92.57219696    4.90999985    2.46000004
   13.38749981   90.00869751    4.90999985    2.46000004
   13.39083290   89.75779724    4.90999985    2.46000004
   13.39416695   86.87270355    4.90999985    2.46000004
   13.39638901   91.34819794    4.90999985    2.46000004
   13.39750004   88.64579773    4.90999985    2.46000004
   13.40083313   90.55149841    4.90999985    2.46000004
   13.40694427   90.55149841    4.90999985    2.46000004
   13.41111088   99.81040192    4.90999985    2.46000004
   13.41444397   89.50279999    4.90999985    2.46000004
   13.41750050   94.66979980    4.90999985    2.46000004
   13.42083359   93.27700043    4.90999985    2.46000004
   13.42388916   90.01640320    4.90999985    2.46000004
   13.42722225   91.42310333    4.90999985    2.46000004
   13.42972279   89.69730377    4.90999985    2.46000004
   13.43083382   95.87840271    4.90999985    2.46000004
   13.43416691   88.95210266    4.90999985    2.46000004
   13.43750000   94.45500183    4.90999985    2.46000004
   13.44055557   89.11080170    4.90999985    2.46000004
   13.44388866   89.38639832    4.90999985    2.46000004
   13.44972229   89.38639832    4.90999985    2.46000004
   13.45388889   92.58039856    4.90999985    2.46000004
   13.45722198   86.44770050    4.90999985    2.46000004
   13.46027756   91.58879852    4.90999985    2.46000004
   13.46305561   94.31960297    4.90999985    2.46000004
   13.46388912   89.48139954    4.90999985    2.46000004
   13.46722221   94.01619720    4.90999985    2.46000004
   13.47055531   96.59100342    4.90999985    2.46000004
   13.47361088   90.35600281    4.90999985    2.46000004
   13.47694397   93.95120239    4.90999985    2.46000004
   13.48027706   87.56169891    4.90999985    2.46000004
   13.48333359   91.43170166    4.90999985    2.46000004
   13.48666668   89.29589844    4.90999985    2.46000004
   13.49250031   89.29589844    4.90999985    2.46000004
   13.49666691   92.59329987    4.90999985    2.46000004
   13.50000000   91.87020111    4.90999985    2.46000004
   13.50305557   93.99890137    4.90999985    2.46000004
   13.50638866   91.34200287    4.90999985    2.46000004
   13.50972176   93.45310211    4.90999985    2.46000004
   13.51277733   96.80680084    4.90999985    2.46000004
   13.51611137   91.96189880    4.90999985    2.46000004
   13.51944447   99.50109863    4.90999985    2.46000004
   13.52250004   93.97650146    4.90999985    2.46000004
   13.52583313   91.55750275    4.90999985    2.46000004
   13.52888870   93.59230042    4.90999985    2.46000004
   13.52972221   91.52259827    4.90999985    2.46000004
   13.53555584   91.52259827    4.90999985    2.46000004
   13.53972244   94.53679657    4.90999985    2.46000004
   13.54277802   92.19029999    4.90999985    2.46000004
   13.54611111   95.54979706    4.90999985    2.46000004
   13.54916668   92.57250214    4.90999985    2.46000004
   13.55249977   93.46910095    4.90999985    2.46000004
   13.55583382   92.69080353    4.90999985    2.46000004
   13.55888939   89.09609985    4.90999985    2.46000004
   13.56222248   91.14360046    4.90999985    2.46000004
   13.56305599   97.26979828    4.90999985    2.46000004
   13.56583309   94.27459717    4.90999985    2.46000004
   13.56916618   93.37039948    4.90999985    2.46000004
   13.57250023   90.23380280    4.90999985    2.46000004
   13.57833290   90.23380280    4.90999985    2.46000004
   13.58249950   91.96710205    4.90999985    2.46000004
   13.58555508   85.67759705    4.90999985    2.46000004
   13.58888817   88.15699768    4.90999985    2.46000004
   13.59222221   94.31430054    4.90999985    2.46000004
   13.59527779   89.28340149    4.90999985    2.46000004
   13.59638882   94.04049683    4.90999985    2.46000004
   13.59888840   91.74749756    4.90999985    2.46000004
   13.60222244   94.54139709    4.90999985    2.46000004
   13.60555553   90.32759857    4.90999985    2.46000004
   13.60861111   98.24279785    4.90999985    2.46000004
   13.61194515   89.61340332    4.90999985    2.46000004
   13.61500072   92.69940186    4.90999985    2.46000004
   13.62111092   92.69940186    4.90999985    2.46000004
   13.62527752   91.52799988    4.90999985    2.46000004
   13.62861156   87.92819977    4.90999985    2.46000004
   13.62972260   87.29329681    4.90999985    2.46000004
   13.63194466   90.09809875    4.90999985    2.46000004
   13.63527775   91.66909790    4.90999985    2.46000004
   13.63861084   89.42160034    4.90999985    2.46000004
   13.64166641   92.14060211    4.90999985    2.46000004
   13.64499950   91.33740234    4.90999985    2.46000004
   13.64805508   91.66860199    4.90999985    2.46000004
   13.65138817   96.21980286    4.90999985    2.46000004
   13.65472221   88.99659729    4.90999985    2.46000004
   13.65777779   87.87519836    4.90999985    2.46000004
   13.66388893   87.87519836    4.90999985    2.46000004
   13.66805553   88.99359894    4.90999985    2.46000004
   13.67138958   92.97470093    4.90999985    2.46000004
   13.67472267   91.84010315    4.90999985    2.46000004
   13.67777824   88.20939636    4.90999985    2.46000004
   13.68111134   94.41320038    4.90999985    2.46000004
   13.68416691   88.82830048    4.90999985    2.46000004
   13.68750000   90.94100189    4.90999985    2.46000004
   13.69083309   94.16380310    4.90999985    2.46000004
   13.69388866   94.05670166    4.90999985    2.46000004
   13.69638920   92.17420197    4.90999985    2.46000004
   13.69750023   94.36070251    4.90999985    2.46000004
   13.70083332  100.39299774    4.90999985    2.46000004
   13.84416676   -1.00000000   -1.00000000   -1.00000000
   13.88138866   94.22260284    4.73999977    2.67000008
   13.88444424   97.16809845    4.73999977    2.67000008
   13.88777733   96.23500061    4.71999979    2.67000008
   13.89111137   97.82980347    4.73999977    2.67000008
   13.89416695   93.21810150    4.73999977    2.67000008
   13.89750004   99.36260223    4.71999979    2.67000008
   13.90166664   99.36260223    4.71999979    2.67000008
   13.90555477   93.74829865    4.73999977    2.67000008
   13.90888882   90.96050262    4.71999979    2.67000008
   13.91222191   96.23000336    4.71999979    2.67000008
   13.91416645   93.16750336    4.69999981    2.67000008
   13.91583252   94.34200287    4.67999983    2.69000006
   13.91916656   95.95220184    4.65999985    2.67000008
   13.92222214   97.31230164    4.65999985    2.67000008
   13.92555618   93.45159912    4.63999987    2.69000006
   13.92888927   94.85900116    4.61999989    2.67000008
   13.93194485   90.74019623    4.59999990    2.67000008
   13.93527794   93.71759796    4.57999992    2.67000008
   13.93861103   99.13189697    4.57999992    2.69000006
   13.94444466   99.13189697    4.57999992    2.67000008
   13.94861126   93.17150116    4.53999996    2.69000006
   13.95166683   95.84169769    4.53999996    2.69000006
   13.95499992   96.59169769    4.57999992    2.67000008
   13.95833302   95.27660370    4.59999990    2.67000008
   13.96138859   95.81860352    4.59999990    2.67000008
   13.96472168   99.11820221    4.57999992    2.67000008
   13.96805477   97.58860016    4.59999990    2.67000008
   13.97111034   99.76499939    4.59999990    2.69000006
   13.97444439   96.65820313    4.61999989    2.69000006
   13.97777748   89.37709808    4.59999990    2.69000006
   13.98083305   97.10430145    4.57999992    2.69000006
   13.98138809   95.05380249    4.57999992    2.69000006
   13.98722267   95.05380249    4.57999992    2.69000006
   13.99138927   95.50299835    4.53999996    2.69000006
   13.99472237   91.77960205    4.53000021    2.69000006
   13.99777794   93.62619781    4.53999996    2.67000008
   14.00111103   99.88410187    4.57999992    2.71000004
   14.00416660   93.94129944    4.59999990    2.69000006
   14.00749969   90.67970276    4.57999992    2.69000006
   14.01083374   99.27100372    4.57999992    2.67000008
   14.01388931   91.66880035    4.59999990    2.67000008
   14.01472187  100.37999725    4.59999990    2.69000006
   14.01749992   95.65750122    4.61999989    2.67000008
   14.02055550   95.55570221    4.65999985    2.67000008
   14.02388859   90.81780243    4.63999987    2.69000006
   14.02999973   90.81780243    4.55999994    2.69000006
   14.03416729   94.09470367    4.48999977    2.71000004
   14.03750038   97.34349823    4.48999977    2.71000004
   14.04055595   95.58139801    4.51000023    2.69000006
   14.04388905   93.37200165    4.53000021    2.69000006
   14.04722309  100.88600159    4.53000021    2.69000006
   14.04805565   95.10160065    4.53999996    2.71000004
   14.05083370  100.00099945    4.48999977    2.71000004
   14.05388927  103.11499786    4.48999977    2.71000004
   14.05722237  101.98000336    4.48999977    2.71000004
   14.06055546  101.17600250    4.51000023    2.69000006
   14.06361103   92.66510010    4.51000023    2.69000006
   14.06694412   98.28079987    4.48999977    2.69000006
   14.07305527   98.28079987    4.46999979    2.69000006
   14.07694435  108.21199799    4.46999979    2.71000004
   14.08027744  101.33799744    4.46999979    2.69000006
   14.08138847   99.17749786    4.44999981    2.69000006
   14.08388901   97.98880005    4.44999981    2.69000006
   14.08694458   93.58480072    4.48999977    2.69000006
   14.09027767   96.38569641    4.53000021    2.69000006
   14.09361076  100.41600037    4.53999996    2.71000004
   14.09666634   97.19069672    4.61999989    2.69000006
   14.10000038  100.36699677    4.71999979    2.71000004
   14.10333347   98.38700104    4.67999983    2.69000006
   14.10638905  100.52999878    4.67999983    2.71000004
   14.10972214   96.26719666    4.67999983    2.71000004
   14.11583328   96.26719666    4.63999987    2.67000008
   14.11999989   98.37619781    4.57999992    2.69000006
   14.12305546   92.72859955    4.55999994    2.71000004
   14.12638855   93.99500275    4.55999994    2.69000006
   14.12972260   99.07099915    4.53999996    2.69000006
   14.13305569   94.83889771    4.51000023    2.71000004
   14.13611126   97.04940033    4.53999996    2.69000006
   14.13944435   95.01450348    4.53999996    2.71000004
   14.14249992   95.73529816    4.55999994    2.69000006
   14.14583302   98.14849854    4.57999992    2.69000006
   14.14805508   96.44789886    4.59999990    2.69000006
   14.14944458   95.82700348    4.59999990    2.69000006
   14.15249920   95.06569672    4.59999990    2.71000004
   14.15861034   95.06569672    4.59999990    2.69000006
   14.16277695   92.09480286    4.59999990    2.69000006
   14.16611099   94.00969696    4.61999989    2.71000004
   14.16916656   96.09470367    4.63999987    2.69000006
   14.17250061   96.53610229    4.65999985    2.71000004
   14.17555618   99.64600372    4.67999983    2.69000006
   14.17888927   97.61910248    4.67999983    2.69000006
   14.18138885   96.72000122    4.67999983    2.71000004
   14.18249989   92.01660156    4.65999985    2.71000004
   14.18555546   97.72630310    4.65999985    2.71000004
   14.18888855   96.52030182    4.67999983    2.69000006
   14.19222260   99.12409973    4.67999983    2.69000006
   14.19527817   94.69640350    4.69999981    2.69000006
   14.20138836   94.69640350    4.71999979    2.69000006
   14.20555496   91.57140350    4.71999979    2.71000004
   14.20888901   99.15689850    4.73999977    2.71000004
   14.21194458   95.29209900    4.71999979    2.71000004
   14.21472168   99.36720276    4.71999979    2.71000004
   14.21583271  102.08100128    4.71999979    2.71000004
   14.21888828  101.52100372    4.67999983    2.69000006
   14.22222137   95.05870056    4.65999985    2.69000006
   14.22555542   99.46549988    4.65999985    2.69000006
   14.22861099   95.75769806    4.65999985    2.69000006
   14.23194408   98.15889740    4.63999987    2.71000004
   14.23527813   94.95909882    4.63999987    2.69000006
   14.23833370  100.54499817    4.63999987    2.71000004
   14.24444485  100.54499817    4.61999989    2.71000004
   14.24861145   99.23880005    4.59999990    2.69000006
   14.25166702   98.88169861    4.55999994    2.71000004
   14.25500011   94.67690277    4.51000023    2.71000004
   14.25805569  102.84899902    4.48999977    2.71000004
   14.26138878   94.91809845    4.48999977    2.71000004
   14.26472187   94.09120178    4.44999981    2.71000004
   14.26777744   96.68240356    4.46999979    2.71000004
   14.27111053   99.99140167    4.46999979    2.71000004
   14.27444458   95.17019653    4.46999979    2.71000004
   14.27750015   92.21649933    4.44999981    2.71000004
   14.28083324   95.16089630    4.42999983    2.71000004
   14.28138828   94.52079773    4.42999983    2.71000004
   14.28722286   94.52079773    4.44999981    2.71000004
   14.29138947   98.33249664    4.46999979    2.71000004
   14.29444504   97.34780121    4.48999977    2.71000004
   14.29777813   94.39949799    4.48999977    2.71000004
   14.30111122   98.86150360    4.46999979    2.73000002
   14.30444431   93.19550323    4.46999979    2.71000004
   14.30749989   95.19789886    4.46999979    2.71000004
   14.31083393   94.68129730    4.51000023    2.69000006
   14.31388950   94.79090118    4.53000021    2.71000004
   14.31472206   92.98190308    4.53000021    2.71000004
   14.31750011   97.41649628    4.53000021    2.71000004
   14.32083321  100.93199921    4.53000021    2.73000002
   14.32388878   96.50740051    4.53999996    2.71000004
   14.32999992   96.50740051    4.53999996    2.71000004
   14.33416653   97.33350372    4.53999996    2.71000004
   14.33749962   99.21450043    4.53999996    2.69000006
   14.34055519   97.36550140    4.53000021    2.71000004
   14.34388828   97.78710175    4.53999996    2.71000004
   14.34694386   96.10389709    4.53000021    2.71000004
   14.34805489   96.72149658    4.53000021    2.71000004
   14.35055637   90.25980377    4.51000023    2.71000004
   14.35388947   96.86489868    4.51000023    2.71000004
   14.35694504   97.84609985    4.51000023    2.73000002
   14.36027813   93.41000366    4.48999977    2.73000002
   14.36333370   90.78919983    4.46999979    2.73000002
   14.36666679   92.87729645    4.44999981    2.71000004
   14.37277794   92.87729645    4.36999989    2.71000004
   14.37694454   97.39969635    4.32999992    2.73000002
   14.38027763   92.24549866    4.28999996    2.73000002
   14.38138866   94.88619995    4.28999996    2.73000002
   14.38388920   97.81490326    4.26999998    2.73000002
   14.38722229   94.29769897    4.26000023    2.73000002
   14.39027786   96.60179901    4.23999977    2.73000002
   14.39361095   98.27120209    4.26000023    2.73000002
   14.39666653   95.92539978    4.21999979    2.73000002
   14.39999962   94.79149628    4.21999979    2.73000002
   14.40333271   94.68979645    4.21999979    2.73000002
   14.40638828   97.99410248    4.21999979    2.73000002
   14.40972137   92.00150299    4.23999977    2.75000000
   14.41583252   92.00150299    4.26000023    2.75000000
   14.41972256   94.40579987    4.26000023    2.71000004
   14.42305565   92.53119659    4.26000023    2.73000002
   14.42638874  100.53399658    4.28999996    2.73000002
   14.42944431   96.97619629    4.30999994    2.73000002
   14.43277836   97.69709778    4.30999994    2.73000002
   14.43611145   96.79589844    4.30999994    2.71000004
   14.43916702   97.33509827    4.32999992    2.71000004
   14.44250011   97.99919891    4.34999990    2.73000002
   14.44555569   97.44229889    4.34999990    2.73000002
   14.44805527   98.63320160    4.32999992    2.75000000
   14.44916630   98.30629730    4.34999990    2.73000002
   14.45249939   96.38549805    4.38999987    2.73000002
   14.45861053   96.38549805    4.44999981    2.73000002
   14.46277714   98.13379669    4.44999981    2.73000002
   14.46583271   96.81700134    4.42999983    2.73000002
   14.46916580   92.11920166    4.40999985    2.73000002
   14.47249985   93.69930267    4.34999990    2.73000002
   14.47555542   96.09760284    4.30999994    2.73000002
   14.47888851   93.96739960    4.26000023    2.73000002
   14.48138809   93.34780121    4.23999977    2.73000002
   14.48249912   93.67089844    4.23999977    2.73000002
   14.48583317   96.96749878    4.26000023    2.73000002
   14.48888874   95.79519653    4.26999998    2.73000002
   14.49222279   98.43009949    4.28999996    2.73000002
   14.49527836   98.25879669    4.28999996    2.71000004
   14.50138855   98.25879669    4.32999992    2.73000002
   14.50555515   93.79129791    4.28999996    2.73000002
   14.50888920   95.09239960    4.28999996    2.73000002
   14.51194477   90.33910370    4.30999994    2.73000002
   14.51472187   99.46269989    4.34999990    2.73000002
   14.51555538   93.76170349    4.34999990    2.73000002
   14.51888847   93.76930237    4.34999990    2.73000002
   14.52194405   95.38829803    4.36999989    2.73000002
   14.52527714  102.00000000    4.36999989    2.73000002
   14.52833271   95.01139832    4.36999989    2.73000002
   14.53166676   93.67659760    4.40999985    2.73000002
   14.53500080   98.20520020    4.44999981    2.73000002
   14.53805637  100.58799744    4.48999977    2.73000002
   14.54416752  100.58799744    4.53000021    2.73000002
   14.54833412   94.71600342    4.55999994    2.71000004
   14.55166721   97.21510315    4.53999996    2.71000004
   14.55500031   96.56089783    4.53000021    2.73000002
   14.55805588   95.38330078    4.53000021    2.71000004
   14.56138897   93.43779755    4.51000023    2.71000004
   14.56444454   99.26460266    4.51000023    2.73000002
   14.56777763   94.87390137    4.51000023    2.73000002
   14.57111073   94.85179901    4.53000021    2.73000002
   14.57416630  103.39099884    4.53999996    2.73000002
   14.57750034   98.05989838    4.53000021    2.71000004
   14.58083344   94.47409821    4.53000021    2.71000004
   14.58138847   93.57669830    4.51000023    2.71000004
   14.58722210   93.57669830    4.46999979    2.75000000
   14.59111118  101.06099701    4.44999981    2.73000002
   14.59444427   94.98729706    4.42999983    2.71000004
   14.59777737  100.63500214    4.40999985    2.73000002
   14.60083389  102.44000244    4.36999989    2.73000002
   14.60416698  104.55999756    4.38999987    2.73000002
   14.60750008  100.51200104    4.40999985    2.73000002
   14.61055565   94.31390381    4.40999985    2.73000002
   14.61388969   96.72190094    4.40999985    2.73000002
   14.61472225   95.41369629    4.38999987    2.73000002
   14.61750031   99.41230011    4.40999985    2.73000002
   14.62083340  102.37500000    4.42999983    2.71000004
   14.62388897  101.26699829    4.44999981    2.73000002
   14.63000011  101.26699829    4.44999981    2.75000000
   14.63416672   98.30960083    4.44999981    2.73000002
   14.63722229  100.37500000    4.42999983    2.71000004
   14.64055538   99.98979950    4.40999985    2.71000004
   14.64388847  103.51300049    4.38999987    2.73000002
   14.64694405  101.94899750    4.36999989    2.73000002
   14.64805508  106.60700226    4.34999990    2.73000002
   14.65055561   94.76049805    4.32999992    2.71000004
   14.65388870  100.91799927    4.32999992    2.75000000
   14.65694427   97.31950378    4.32999992    2.73000002
   14.66027737   95.62400055    4.30999994    2.73000002
   14.66361046  100.72200012    4.30999994    2.73000002
   14.66666698   95.02780151    4.26999998    2.73000002
   14.67277813   95.02780151    4.28999996    2.73000002
   14.67694473   98.86589813    4.30999994    2.73000002
   14.68027782  100.34100342    4.34999990    2.73000002
   14.68138885  102.80000305    4.34999990    2.71000004
   14.68361092   99.14129639    4.34999990    2.73000002
   14.68694496   96.55750275    4.34999990    2.73000002
   14.69000053  104.37100220    4.34999990    2.73000002
   14.69333363  109.50700378    4.36999989    2.73000002
   14.69666672   98.03019714    4.38999987    2.73000002
   14.69972229   98.49690247    4.42999983    2.73000002
   14.70305538  101.35800171    4.46999979    2.73000002
   14.70611095   95.99099731    4.46999979    2.73000002
   14.70944405  102.91999817    4.48999977    2.73000002
   14.71555519  102.91999817    4.51000023    2.71000004
   14.71972179  100.19699860    4.46999979    2.71000004
   14.72305489   92.82039642    4.46999979    2.71000004
   14.72611046   95.76560211    4.44999981    2.71000004
   14.72944355   98.78240204    4.42999983    2.75000000
   14.73277760  102.88700104    4.40999985    2.73000002
   14.73583317  100.71199799    4.40999985    2.73000002
   14.73916721   93.37329865    4.42999983    2.71000004
   14.74222279   98.52500153    4.42999983    2.71000004
   14.74555588   96.39630127    4.44999981    2.73000002
   14.74805546   96.46530151    4.44999981    2.73000002
   14.74916649   96.40209961    4.42999983    2.73000002
   14.75249958   93.49320221    4.40999985    2.73000002
   14.75861073   93.49320221    4.40999985    2.73000002
   14.76249981   98.02200317    4.38999987    2.73000002
   14.76583290  100.18900299    4.40999985    2.73000002
   14.76916599   94.69309998    4.42999983    2.73000002
   14.77222157   99.98110199    4.44999981    2.73000002
   14.77555561  100.18399811    4.46999979    2.73000002
   14.77888870  100.15699768    4.48999977    2.73000002
   14.78138828  104.68599701    4.51000023    2.73000002
   14.78222179  105.68099976    4.51000023    2.73000002
   14.78555584  110.51300049    4.48999977    2.73000002
   14.78861141  108.25299835    4.48999977    2.73000002
   14.79194450   98.96399689    4.46999979    2.71000004
   14.79500008   94.95069885    4.44999981    2.71000004
   14.80138874   94.95069885    4.46999979    2.73000002
   14.80555534  103.82099915    4.46999979    2.75000000
   14.80861092   96.71520233    4.44999981    2.73000002
   14.81194496   99.81300354    4.42999983    2.73000002
   14.81472206   98.47850037    4.40999985    2.73000002
   14.81555557   97.02069855    4.40999985    2.73000002
   14.91916656   -1.00000000   -1.00000000   -1.00000000
   15.02694416   -1.00000000   -1.00000000   -1.00000000
   15.17666721   -1.00000000   -1.00000000   -1.00000000
   15.23416710  109.92299652    3.32999992    2.75000000
   15.23722267  105.35299683    3.36999989    2.75000000
   15.24055576   99.49649811    3.36999989    2.75000000
   15.24361134  103.71499634    3.36999989    2.75000000
   15.24694443  101.58000183    3.36999989    2.75000000
   15.25027752   96.94819641    3.34999990    2.75000000
   15.25444412   96.94819641    3.32999992    2.75000000
   15.25833321  104.56999969    3.32999992    2.75000000
   15.26166630  100.39700317    3.30999994    2.75000000
   15.26500034  101.76300049    3.30999994    2.75000000
   15.26722240   99.40270233    3.30999994    2.75000000
   15.26861095  101.18699646    3.30999994    2.75000000
   15.27166653  102.00099945    3.23000002    2.75000000
   15.27499962  105.28600311    3.18000007    2.76999998
   15.27833271  103.26000214    3.14000010    2.75000000
   15.28138828  106.21499634    3.18000007    2.76999998
   15.28472233  101.56199646    3.18000007    2.75000000
   15.28805637  106.59600067    3.25000000    2.75000000
   15.29111195   95.92279816    3.23000002    2.76999998
   15.29722309   95.92279816    3.30999994    2.75000000
   15.30138874  104.02600098    3.32999992    2.76999998
   15.30444431   96.99629974    3.34999990    2.75000000
   15.30777836   99.67929840    3.34999990    2.75000000
   15.31083393  100.13800049    3.39000010    2.76999998
   15.31416702  102.00199890    3.36999989    2.75000000
   15.31750011   99.93779755    3.32999992    2.75000000
   15.32083321   96.25659943    3.32999992    2.75000000
   15.32388878   99.60980225    3.30999994    2.76999998
   15.32722187   97.39379883    3.28999996    2.75000000
   15.33027744  103.50299835    3.30999994    2.75000000
   15.33361053   97.85130310    3.28999996    2.76999998
   15.33416653   97.43689728    3.28999996    2.75000000
   15.34000015   97.43689728    3.39000010    2.75000000
   15.34416676  100.35700226    3.41000009    2.75000000
   15.34722233   97.91020203    3.46000004    2.75000000
   15.35055637   95.40679932    3.46000004    2.75000000
   15.35388947   99.65170288    3.36999989    2.75000000
   15.35694504  103.76599884    3.28999996    2.75000000
   15.36027813   97.97920227    3.25000000    2.75000000
   15.36361122  102.06800079    3.25000000    2.75000000
   15.36666679  105.32399750    3.30999994    2.73000002
   15.36750031   98.00090027    3.32999992    2.73000002
   15.37055588  104.28199768    3.34999990    2.75000000
   15.37361145   97.80300140    3.32999992    2.73000002
   15.37694454  101.86199951    3.32999992    2.73000002
   15.38277817  101.86199951    3.30999994    2.75000000
   15.38694477   98.77839661    3.34999990    2.75000000
   15.39027786  100.86100006    3.30999994    2.75000000
   15.39333344  101.46600342    3.30999994    2.75000000
   15.39666653  104.29599762    3.36999989    2.75000000
   15.39999962  103.80300140    3.41000009    2.75000000
   15.40083313  101.80699921    3.39000010    2.73000002
   15.40361118   98.16439819    3.41000009    2.75000000
   15.40666676  103.82199860    3.41000009    2.73000002
   15.40999985  100.77500153    3.41000009    2.73000002
   15.41305542   97.62059784    3.45000005    2.75000000
   15.41638851  102.18800354    3.46000004    2.75000000
   15.41972256  102.76399994    3.39000010    2.75000000
   15.42555618  102.76399994    3.36999989    2.75000000
   15.42972279   96.41390228    3.41000009    2.75000000
   15.43305588  101.32599640    3.39000010    2.75000000
   15.43416691  100.40299988    3.39000010    2.75000000
   15.43666649   95.11830139    3.43000007    2.73000002
   15.43972206  100.02799988    3.45000005    2.75000000
   15.44305515   99.25289917    3.45000005    2.75000000
   15.44611073   99.52100372    3.41000009    2.73000002
   15.44944477  101.53700256    3.36999989    2.75000000
   15.45277786   99.39700317    3.32999992    2.75000000
   15.45583344  102.81600189    3.28999996    2.75000000
   15.45916653  100.39299774    3.26999998    2.75000000
   15.46249962   99.32289886    3.28999996    2.75000000
   15.46861076   99.32289886    3.36999989    2.75000000
   15.47277737   98.38369751    3.39000010    2.76999998
   15.47583294   97.08350372    3.39000010    2.75000000
   15.47916603   94.88999939    3.46000004    2.75000000
   15.48222160   98.31680298    3.51999998    2.75000000
   15.48555565   95.62419891    3.57999992    2.75000000
   15.48888874   98.60199738    3.55999994    2.75000000
   15.49222279  101.94999695    3.57999992    2.75000000
   15.49527836  100.77500153    3.61999989    2.75000000
   15.49861145   96.35469818    3.59999990    2.73000002
   15.50083351   96.98850250    3.59999990    2.75000000
   15.50222206   96.21360016    3.57999992    2.73000002
   15.50527763   98.06479645    3.55999994    2.73000002
   15.51138878   98.06479645    3.53999996    2.73000002
   15.51555538   99.79429626    3.51999998    2.73000002
   15.51861095  104.76499939    3.53999996    2.73000002
   15.52194405   96.90450287    3.57999992    2.73000002
   15.52527714   97.14109802    3.64000010    2.75000000
   15.52833271  101.02899933    3.59999990    2.75000000
   15.53166676   95.56120300    3.53999996    2.75000000
   15.53416729  100.86499786    3.48000002    2.75000000
   15.53527832   97.73220062    3.46000004    2.75000000
   15.53833389   98.15370178    3.36999989    2.75000000
   15.54166698   95.74330139    3.30999994    2.75000000
   15.54472256   96.47219849    3.25000000    2.75000000
   15.54805565   99.82689667    3.23000002    2.75000000
   15.55416679   99.82689667    3.07999992    2.75000000
   15.55833340   97.76940155    3.03999996    2.75000000
   15.56166649   97.46839905    2.98000002    2.75000000
   15.56472206   96.34130096    2.84999990    2.76999998
   15.56750011   96.87259674    2.76999998    2.76999998
   15.56861115   94.10060120    2.75000000    2.76999998
   15.57166672   95.85510254    2.76999998    2.76999998
   15.57499981   98.88960266    2.75000000    2.75000000
   15.57833290   97.31400299    2.66000009    2.76999998
   15.58138847   99.92089844    2.71000004    2.76999998
   15.58472157   96.92810059    2.73000002    2.76999998
   15.58777714   99.16639709    2.76999998    2.75000000
   15.59111118   98.34799957    2.78999996    2.76999998
   15.59694386   98.34799957    2.80999994    2.76999998
   15.60111141  103.07499695    2.89000010    2.76999998
   15.60444450  100.55200195    2.86999989    2.76999998
   15.60777855  103.55799866    2.86999989    2.75000000
   15.61083412   96.01270294    2.78999996    2.75000000
   15.61416721   98.47429657    2.80999994    2.76999998
   15.61750031   97.83039856    2.82999992    2.76999998
   15.62055588   95.42019653    2.86999989    2.75000000
   15.62388897   98.60800171    2.94000006    2.75000000
   15.62694454   95.82830048    2.94000006    2.76999998
   15.63027763   98.42880249    2.96000004    2.75000000
   15.63361073   98.49340057    2.96000004    2.76999998
   15.63416672   96.91570282    2.96000004    2.75000000
   15.64000034   96.91570282    2.93000007    2.75000000
   15.64416695   93.21420288    2.91000009    2.75000000
   15.64722252   90.77490234    2.91000009    2.76999998
   15.65055561   95.54280090    2.91000009    2.76999998
   15.65361118   97.68350220    2.89000010    2.75000000
   15.65694427   93.00779724    2.91000009    2.75000000
   15.66027737   97.74880219    2.93000007    2.76999998
   15.66333294   97.49479675    2.93000007    2.76999998
   15.66666698   99.11280060    2.96000004    2.75000000
   15.66750050   96.74849701    2.96000004    2.76999998
   15.67027855   99.63749695    3.00000000    2.75000000
   15.67333412   93.37590027    3.21000004    2.76999998
   15.67666721   97.65280151    3.30999994    2.75000000
   15.68277836   97.65280151    3.30999994    2.75000000
   15.68694496   96.18129730    3.25000000    2.75000000
   15.69000053   96.00229645    3.28999996    2.75000000
   15.69333363   97.22830200    3.26999998    2.75000000
   15.69666672  100.95500183    3.23000002    2.75000000
   15.69972229   93.35320282    3.23000002    2.75000000
   15.70083332  106.12400055    3.25000000    2.76999998
   15.70361137   95.14679718    3.23000002    2.75000000
   15.70666695   95.12999725    3.18000007    2.76999998
   15.71000004   97.17929840    3.16000009    2.76999998
   15.71333313   95.56919861    3.14000010    2.76999998
   15.71638870   95.20880127    3.11999989    2.76999998
   15.71972179   97.73480225    3.14000010    2.76999998
   15.72555542   97.73480225    3.26999998    2.75000000
   15.72972202   97.12590027    3.34999990    2.75000000
   15.73305511   92.05280304    3.34999990    2.75000000
   15.73416710   95.78489685    3.32999992    2.75000000
   15.73666668   94.84909821    3.32999992    2.75000000
   15.73972225   94.35050201    3.26999998    2.75000000
   15.74305534   93.04109955    3.25000000    2.76999998
   15.74638939   94.71389771    3.32999992    2.76999998
   15.74944496   94.89910126    3.46000004    2.75000000
   15.75277805   96.07319641    3.55999994    2.75000000
   15.75583363   94.98709869    3.61999989    2.75000000
   15.75916672  103.70500183    3.68000007    2.75000000
   15.76249981   93.91159821    3.70000005    2.75000000
   15.76833344   93.91159821    3.53999996    2.75000000
   15.77250004   97.50270081    3.57999992    2.75000000
   15.77583313   96.97129822    3.59999990    2.75000000
   15.77916622   96.90820313    3.53999996    2.75000000
   15.78222179   96.35720062    3.50000000    2.73000002
   15.78555584   97.93689728    3.45000005    2.75000000
   15.78861141  104.93800354    3.36999989    2.75000000
   15.79194450  103.68399811    3.28999996    2.76999998
   15.79527855  107.81800079    3.23000002    2.75000000
   15.79833412  105.68599701    3.16000009    2.75000000
   15.80083370  109.12100220    3.11999989    2.76999998
   15.80222225  110.80000305    3.05999994    2.76999998
   15.80527782  109.71800232    3.00000000    2.76999998
   15.81138897  109.71800232    3.03999996    2.76999998
   15.81555557  109.45300293    3.03999996    2.78999996
   15.81861115  110.92400360    2.93000007    2.76999998
   15.82194424  118.43599701    2.94000006    2.76999998
   15.82499981  113.15399933    2.93000007    2.76999998
   15.82833290  123.94000244    2.96000004    2.76999998
   15.83166695  109.95500183    2.96000004    2.76999998
   15.83416653  111.82800293    2.93000007    2.76999998
   15.83527756  109.30799866    2.93000007    2.76999998
   15.83833313  105.52799988    2.78999996    2.76999998
   15.84166622  103.30699921    2.67000008    2.78999996
   15.84499931  107.02999878    2.61999989    2.78999996
   15.84805489   99.76889801    2.76999998    2.76999998
   15.85416698   99.76889801    2.94000006    2.76999998
   15.85833359  106.15599823    2.89000010    2.76999998
   15.86138916  104.24199677    2.86999989    2.76999998
   15.86472225  100.68099976    2.84999990    2.76999998
   15.86750031   99.07330322    2.84999990    2.76999998
   15.86833382  106.57499695    2.84999990    2.76999998
   15.87138939   98.72720337    2.89000010    2.76999998
   15.87472248   96.29029846    2.89000010    2.76999998
   15.87805557   95.55349731    3.01999998    2.76999998
   15.88111115   97.41719818    3.07999992    2.76999998
   15.88444424   98.44889832    3.09999990    2.76999998
   15.88749981   95.80840302    3.07999992    2.76999998
   15.89083290   96.97250366    3.07999992    2.76999998
   15.89694405   96.97250366    3.05999994    2.76999998
   15.90111065   95.74189758    3.01999998    2.76999998
   15.90444374   98.39499664    3.05999994    2.76999998
   15.90777779   97.63970184    3.11999989    2.76999998
   15.91083336   98.23519897    3.07999992    2.76999998
   15.91416645   93.68060303    3.03999996    2.75000000
   15.91750050   98.66320038    3.09999990    2.76999998
   15.92055607   94.83029938    3.07999992    2.76999998
   15.92388916   97.27310181    3.07999992    2.76999998
   15.92694473  100.01799774    3.20000005    2.75000000
   15.93027782   94.64920044    3.20000005    2.76999998
   15.93361092   97.35340118    3.14000010    2.76999998
   15.93416691   92.15599823    3.14000010    2.75000000
   15.94000053   92.15599823    3.26999998    2.75000000
   15.94388866   92.18930054    3.28999996    2.76999998
   15.94722271   98.04949951    3.26999998    2.76999998
   15.95055580   95.21880341    3.23000002    2.76999998
   15.95361137  108.90399933    3.21000004    2.76999998
   15.95694447   96.90460205    3.21000004    2.75000000
   15.96000004   96.98870087    3.20000005    2.76999998
   15.96333313   96.79869843    3.16000009    2.76999998
   15.96666622  102.84700012    3.18000007    2.76999998
   15.96749973   96.46420288    3.16000009    2.76999998
   15.97027779   98.36740112    3.11999989    2.76999998
   15.97333336   95.23750305    3.07999992    2.76999998
   15.97666645   96.14530182    3.07999992    2.76999998
   15.98277760   96.14530182    3.20000005    2.76999998
   15.98694515   98.57389832    3.09999990    2.76999998
   15.99000072   98.78440094    3.09999990    2.76999998
   15.99333382   98.49340057    3.18000007    2.76999998
   15.99638939   95.13529968    3.26999998    2.76999998
   15.99972248   95.46260071    3.39000010    2.75000000
   16.00083351   98.56349945    3.45000005    2.75000000
   16.00333405   99.58509827    3.59999990    2.75000000
   16.00666618  100.50000000    3.64000010    2.75000000
   16.00972176  100.05999756    3.64000010    2.73000002
   16.01305580   95.03410339    3.72000003    2.75000000
   16.01611137  100.62300110    3.80999994    2.73000002
   16.01944351  102.14199829    3.89000010    2.75000000
   16.02555466  102.14199829    4.00000000    2.75000000
   16.02972221   99.53230286    3.99000001    2.75000000
   16.03277779  104.24400330    3.93000007    2.75000000
   16.03416634   96.25260162    3.89000010    2.75000000
   16.03666687  101.05200195    3.86999989    2.75000000
   16.03972244  100.80999756    3.78999996    2.75000000
   16.04305458   98.83190155    3.78999996    2.75000000
   16.04638863  100.48600006    3.82999992    2.73000002
   16.04944420   98.33589935    3.78999996    2.75000000
   16.05277634   95.94960022    3.68000007    2.75000000
   16.05611038   97.09400177    3.61999989    2.75000000
   16.05916595  101.03199768    3.66000009    2.75000000
   16.06250000   97.82540131    3.73000002    2.75000000
   16.06833458   97.82540131    3.86999989    2.75000000
   16.07250023   95.32019806    3.89000010    2.75000000
   16.07583427  101.82199860    3.86999989    2.75000000
   16.07888985  100.07199860    3.95000005    2.73000002
   16.08222389   96.14959717    4.00000000    2.73000002
   16.08555603   98.90229797    4.05999994    2.75000000
   16.08861160   99.53710175    4.05999994    2.75000000
   16.09194565   96.42199707    4.01999998    2.73000002
   16.09500122   97.87680054    3.95000005    2.73000002
   16.09833336   97.75370026    3.89000010    2.75000000
   16.10083389   91.99330139    3.84999990    2.75000000
   16.10194397   96.66149902    3.82999992    2.75000000
   16.10499954   93.84259796    3.84999990    2.75000000
   16.11138916   93.84259796    3.84999990    2.75000000
   16.11527824   94.50009918    3.80999994    2.75000000
   16.11861038  101.38200378    3.80999994    2.75000000
   16.12194443  100.50199890    3.75000000    2.75000000
   16.12500000   96.91680145    3.70000005    2.75000000
   16.12833405  100.17099762    3.59999990    2.75000000
   16.13166618   98.08029938    3.51999998    2.75000000
   16.13416672   96.48470306    3.50000000    2.76999998
   16.13527679   97.15699768    3.48000002    2.75000000
   16.13861084   99.42440033    3.55999994    2.76999998
   16.14166641  100.75399780    3.64000010    2.75000000
   16.14500046   99.41670227    3.68000007    2.75000000
   16.14805603   96.52660370    3.73000002    2.75000000
   16.15416718   96.52660370    3.80999994    2.76999998
   16.15833282   97.79100037    3.82999992    2.75000000
   16.16138840  101.33399963    3.80999994    2.75000000
   16.16472244  100.45999908    3.80999994    2.75000000
   16.16749954   97.77510071    3.78999996    2.76999998
   16.16833305   97.35310364    3.75000000    2.76999998
   16.17166519   99.82869720    3.78999996    2.75000000
   16.17472076   94.89469910    3.78999996    2.73000002
   16.17805481   98.59259796    3.73000002    2.75000000
   16.18111038   98.23030090    3.75000000    2.75000000
   16.18444443   93.41290283    3.80999994    2.75000000
   16.18777657   96.88279724    3.86999989    2.75000000
   16.19083214   93.82440186    3.91000009    2.75000000
   16.19694328   93.82440186    3.86999989    2.73000002
   16.20111275   99.80480194    3.84999990    2.75000000
   16.20444489   94.65769958    3.84999990    2.75000000
   16.20750046  102.87500000    3.80999994    2.75000000
   16.21083450   95.34590149    3.73000002    2.73000002
   16.21389008   96.54160309    3.66000009    2.75000000
   16.21722221   97.23750305    3.59999990    2.75000000
   16.22055626   97.69999695    3.53999996    2.75000000
   16.22361183   97.89129639    3.50000000    2.75000000
   16.22694588   94.97630310    3.45000005    2.75000000
   16.23027802   97.65429688    3.41000009    2.75000000
   16.23333359   98.23690033    3.32999992    2.75000000
   16.23416710   96.43009949    3.32999992    2.76999998
   16.25499916   96.43009949    3.09999990    2.76999998
   16.25916672   95.79049683    3.07999992    2.76999998
   16.26222229   91.01380157    3.03999996    2.76999998
   16.26555634   98.08879852    3.00000000    2.76999998
   16.26749992   95.73310089    3.00000000    2.78999996
   16.26916695   96.20010376    3.00000000    2.76999998
   16.27249908   98.39099884    3.00000000    2.76999998
   16.27555466  102.87300110    2.98000002    2.76999998
   16.27888870   98.43579865    2.91000009    2.76999998
   16.28194427  104.11100006    2.91000009    2.78999996
   16.28527641   92.35489655    2.96000004    2.76999998
   16.28861046   95.92729950    3.00000000    2.76999998
   16.29166603   99.32920074    2.98000002    2.78999996
   16.29777718   99.32920074    3.11999989    2.76999998
   16.30194283   98.72599792    3.11999989    2.76999998
   16.30499840   97.60900116    3.05999994    2.76999998
   16.30833244   97.91780090    3.07999992    2.76999998
   16.31138802   92.42610168    3.05999994    2.76999998
   16.31472206   95.02429962    3.05999994    2.76999998
   16.31805611   92.98429871    3.03999996    2.75000000
   16.32111168   96.76059723    2.96000004    2.78999996
   16.32444572   98.91059875    2.93000007    2.76999998
   16.32777786   97.85759735    2.96000004    2.78999996
   16.33083344   97.08399963    3.05999994    2.76999998
   16.33416748  103.04799652    3.16000009    2.76999998
   16.33472252   94.28790283    3.16000009    2.76999998
   16.34055710   94.28790283    3.20000005    2.76999998
   16.34472275   99.68569946    3.36999989    2.75000000
   16.34777832   98.24569702    3.41000009    2.75000000
   16.35111237  100.79100037    3.43000007    2.75000000
   16.35444450   97.10639954    3.53999996    2.75000000
   16.35750008   98.92960358    3.53999996    2.75000000
   16.36083412   94.26490021    3.57999992    2.75000000
   16.36416626   98.27619934    3.64000010    2.75000000
   16.36722183   99.63880157    3.64000010    2.75000000
   16.36805534   98.12220001    3.64000010    2.75000000
   16.37083435   94.04540253    3.61999989    2.75000000
   16.37416649   97.78299713    3.61999989    2.75000000
   16.37750053  101.76200104    3.57999992    2.75000000
   16.38333321  101.76200104    3.46000004    2.75000000
   16.38750076   97.72299957    3.36999989    2.76999998
   16.39083290   99.06199646    3.32999992    2.75000000
   16.39388847  100.05899811    3.26999998    2.76999998
   16.39722252   95.76770020    3.25000000    2.76999998
   16.40055466   95.84230042    3.25000000    2.76999998
   16.40138817   99.16429901    3.25000000    2.76999998
   16.40388870  100.22899628    3.26999998    2.76999998
   16.40722275   94.85230255    3.25000000    2.76999998
   16.41055489   94.60959625    3.20000005    2.76999998
   16.41361046   95.79579926    3.16000009    2.76999998
   16.41694450   95.93329620    3.18000007    2.76999998
   16.42000008   97.42990112    3.23000002    2.76999998
   16.42638779   97.42990112    3.32999992    2.76999998
   16.43027687   95.99890137    3.32999992    2.76999998
   16.43361092   99.30059814    3.36999989    2.75000000
   16.43472099   97.55490112    3.36999989    2.76999998
   16.43722153   99.62149811    3.41000009    2.76999998
   16.44055557   96.27549744    3.43000007    2.75000000
   16.44388771   98.54689789    3.43000007    2.75000000
   16.44694328  104.18299866    3.36999989    2.76999998
   16.45027924   98.25420380    3.28999996    2.75000000
   16.45333481   96.60310364    3.21000004    2.76999998
   16.45666695   99.06400299    3.16000009    2.76999998
   16.46000099   99.57589722    3.07999992    2.76999998
   16.46305656   99.58219910    3.00000000    2.76999998
   16.46916771   99.58219910    2.96000004    2.78999996
   16.47333336   97.65899658    2.89000010    2.76999998
   16.47638893  100.12799835    2.80999994    2.76999998
   16.47972298   94.90609741    2.78999996    2.78999996
   16.48277855   95.72730255    2.84999990    2.78999996
   16.48611069   98.79149628    2.86999989    2.76999998
   16.48944473   94.11070251    2.80999994    2.76999998
   16.49250031   95.95269775    2.75000000    2.78999996
   16.49583435   96.40360260    2.75000000    2.78999996
   16.49916649   94.23220062    2.73000002    2.76999998
   16.50138855   97.15390015    2.71000004    2.76999998
   16.50250053   98.69619751    2.69000006    2.78999996
   16.50583267   93.98179626    2.67000008    2.76999998
   16.51194382   93.98179626    2.59999990    2.78999996
   16.51611137   98.03929901    2.59999990    2.78999996
   16.51944351   95.63529968    2.61999989    2.78999996
   16.52249908   92.80840302    2.76999998    2.78999996
   16.52583313   92.00910187    2.86999989    2.76999998
   16.52888870   94.80960083    3.00000000    2.76999998
   16.53222275   93.39260101    3.07999992    2.76999998
   16.53472137   95.49600220    3.11999989    2.76999998
   16.53583336   91.06379700    3.14000010    2.76999998
   16.53916550   96.26439667    3.16000009    2.78999996
   16.54249954   98.56580353    3.11999989    2.75000000
   16.54555511   96.66970062    3.03999996    2.76999998
   16.54888916   96.63420105    2.98000002    2.76999998
   16.55472183   96.63420105    2.89000010    2.76999998
   16.55888748  100.87699890    2.91000009    2.76999998
   16.56222153   95.42299652    2.94000006    2.76999998
   16.56527710   98.03780365    2.93000007    2.76999998
   16.56805611   98.87310028    2.96000004    2.76999998
   16.56888962  100.03399658    2.96000004    2.76999998
   16.57222366   96.01540375    2.93000007    2.78999996
   16.57555580   98.27780151    2.98000002    2.78999996
   16.57861137   95.99520111    3.07999992    2.76999998
   16.58194542  101.40599823    3.03999996    2.76999998
   16.58500099   95.97689819    2.91000009    2.76999998
   16.58944511   94.36119843    2.84999990    2.78999996
   16.59250069  100.23699951    2.82999992    2.76999998
   16.59777832  100.23699951    2.86999989    2.76999998
   16.60166740   93.16960144    2.80999994    2.78999996
   16.60222244   94.09729767    2.80999994    2.78999996
   16.60555649   94.59919739    2.73000002    2.78999996
   16.60861206   96.72840118    2.78999996    2.78999996
   16.61194420   96.62899780    2.71000004    2.78999996
   16.61527824   97.83090210    2.69000006    2.78999996
   16.61833382   94.19699860    2.67000008    2.76999998
   16.62166595   93.54689789    2.73000002    2.78999996
   16.62500000   96.16190338    2.73000002    2.78999996
   16.62805557   96.75959778    2.73000002    2.76999998
   16.63138962   96.68740082    2.73000002    2.78999996
   16.63444519   99.48829651    2.61999989    2.78999996
   16.63555527  102.03500366    2.64000010    2.78999996
   16.64055634  102.03500366    2.66000009    2.78999996
   16.64472198   99.86830139    2.66000009    2.78999996
   16.64777756  101.70300293    2.55999994    2.78999996
   16.65111160   99.24880219    2.48000002    2.78999996
   16.65444374   98.53359985    2.46000004    2.78999996
   16.65749931   97.69819641    2.46000004    2.78999996
   16.66083336   95.82890320    2.42000008    2.78999996
   16.66388893   96.63110352    2.40000010    2.78999996
   16.66722107   96.15619659    2.39000010    2.78999996
   16.66888809   94.80619812    2.34999990    2.78999996
   16.67083359  101.09500122    2.32999992    2.78999996
   16.67416573  102.48799896    2.32999992    2.78999996
   16.67722130   96.05529785    2.26999998    2.78999996
   16.68333244   96.05529785    2.28999996    2.80999994
   16.68750000   93.97540283    2.28999996    2.80999994
   16.69055557   90.93959808    2.34999990    2.78999996
   16.69388771   96.33820343    2.30999994    2.78999996
   16.69722176   93.39730072    2.57999992    2.78999996
   16.70027924   96.31210327    2.76999998    2.78999996
   16.70222282   96.63639832    2.78999996    2.78999996
   16.70416832   96.87719727    2.82999992    2.78999996
   16.70722389   98.85019684    2.93000007    2.76999998
   16.71055603   96.28240204    2.93000007    2.78999996
   16.71389008   96.28309631    2.91000009    2.78999996
   16.71694565   95.24919891    2.91000009    2.76999998
   16.72027779   98.68879700    2.89000010    2.76999998
   16.72611237   98.68879700    2.80999994    2.78999996
   16.73027802   95.47609711    2.71000004    2.78999996
   16.73361206   93.15290070    2.69000006    2.78999996
   16.73555565   95.23190308    2.61999989    2.78999996
   16.73722267   94.96279907    2.55999994    2.78999996
   16.74027824   93.93329620    2.51999998    2.78999996
   16.74361229   91.92520142    2.46000004    2.78999996
   16.74694443   92.66539764    2.46000004    2.78999996
   16.75000000   95.54609680    2.46000004    2.78999996
   16.75333405   93.28549957    2.46000004    2.78999996
   16.75666618   97.86250305    2.44000006    2.80999994
   16.76000023   94.42259979    2.42000008    2.78999996
   16.76305580   95.99530029    2.40000010    2.78999996
   16.76888847   95.99530029    2.50000000    2.78999996
   16.77305603   96.11789703    2.55999994    2.78999996
   16.77638817   93.62220001    2.51999998    2.78999996
   16.77972221   93.79740143    2.51999998    2.80999994
   16.78277779   94.45860291    2.51999998    2.78999996
   16.78610992   94.42199707    2.50000000    2.78999996
   16.78916550  101.68000031    2.46000004    2.78999996
   16.79249954   96.23660278    2.44000006    2.78999996
   16.79583359   95.48750305    2.44000006    2.78999996
   16.79888916   95.35440063    2.51999998    2.78999996
   16.80222130   95.04499817    2.55999994    2.78999996
   16.80277634   94.01969910    2.57999992    2.78999996
   16.80583191   97.02490234    2.66000009    2.76999998
   16.81194305   97.02490234    2.67000008    2.76999998
   16.81611061   94.79039764    2.71000004    2.78999996
   16.81916809   95.97389984    2.84999990    2.76999998
   16.82250023   96.74379730    2.91000009    2.78999996
   16.82555580   96.39700317    2.86999989    2.78999996
   16.82888985   95.88459778    2.80999994    2.78999996
   16.83222389   95.60189819    2.80999994    2.78999996
   16.83527756   98.21040344    2.82999992    2.76999998
   16.83611107   96.21679688    2.84999990    2.78999996
   16.83916664   94.36509705    2.98000002    2.78999996
   16.84222221   94.66419983    3.14000010    2.76999998
   16.84555626   97.91120148    3.16000009    2.76999998
   16.84889030  100.88999939    3.16000009    2.76999998
   16.85472298  100.88999939    3.20000005    2.78999996
   16.85888863   97.28469849    3.26999998    2.76999998
   16.86194420   97.12779999    3.34999990    2.76999998
   16.86527824   96.68139648    3.36999989    2.76999998
   16.86861038   95.75209808    3.41000009    2.76999998
   16.86944389   97.79979706    3.39000010    2.76999998
   16.87194443   95.04250336    3.41000009    2.75000000
   16.87527847   96.42099762    3.51999998    2.76999998
   16.87861061   98.90059662    3.59999990    2.76999998
   16.88166618   94.35119629    3.57999992    2.75000000
   16.88500023   95.89839935    3.51999998    2.76999998
   16.88833237   98.79149628    3.45000005    2.76999998
   16.89138794  100.99500275    3.45000005    2.76999998
   16.89749908  100.99500275    3.36999989    2.76999998
   16.90166664   95.60379791    3.36999989    2.76999998
   16.90277672   96.99420166    3.36999989    2.76999998
   16.90527725   99.96070099    3.30999994    2.76999998
   16.90861130   95.47059631    4.90999985    2.89000010
   16.91194344   94.69979858    0.47999999    0.75000000
   16.91499901   96.81710052    0.20999999    0.40000001
   16.91833305   95.87460327    0.11000000    0.11000000
   16.92166519   98.85839844    0.11000000    0.11000000
   16.92472076   97.60649872    0.11000000    0.11000000
   16.92805481   95.45580292    0.11000000    0.11000000
   16.93111038   95.62950134    0.11000000    0.11000000
   16.93444443   95.28589630    0.11000000    0.11000000
   16.93610954   95.84960175    0.11000000    0.11000000
   16.94027710   95.84960175    0.11000000    0.11000000
   16.94444275   98.49199677    0.11000000    0.11000000
   16.94777679   99.44120026    0.11000000    0.11000000
   16.95111275   98.95020294    0.11000000    0.11000000
   16.95416832   95.08889771    0.11000000    0.11000000
   16.95750046   96.76920319    0.11000000    0.11000000
   16.96055603   94.99669647    0.11000000    0.11000000
   16.96389008   96.31680298    0.11000000    0.11000000
   16.96722221   98.02639771    0.11000000    0.11000000
   16.96944427   98.35119629    0.11000000    0.11000000
   16.97055626  100.80200195    0.11000000    0.11000000
   16.97389030   97.36360168    0.11000000    0.11000000
   16.97722244  101.88999939    0.11000000    0.11000000
   16.98333359  101.88999939    0.11000000    0.11000000
   16.98750114   91.43240356    0.11000000    0.11000000
   16.99055672   89.97799683    0.11000000    0.11000000
   16.99388885   91.90979767    0.11000000    0.11000000
   16.99722290   93.40190125    0.11000000    0.11000000
   17.00027847   92.97160339    0.11000000    0.11000000
   17.00277710   92.94770050    0.11000000    0.11000000
   17.00416756   93.14540100    0.11000000    0.11000000
   17.00722313   96.26719666    0.11000000    0.11000000
   17.01055527   92.33979797    0.11000000    0.11000000
   17.01361084   95.86329651    0.11000000    0.11000000
   17.01694489   94.88610077    0.11000000    0.11000000
   17.02027702   97.67530060    0.11000000    0.11000000
   17.02611160   97.67530060    0.11000000    0.11000000
   17.03027725   98.07779694    0.11000000    0.11000000
   17.03333282   99.74230194    0.11000000    0.11000000
   17.03610992   97.00240326    0.11000000    0.11000000
   17.03694344   94.80930328    0.11000000    0.11000000
   17.04027748  102.08200073    0.11000000    0.11000000
   17.04361153   98.09159851    0.11000000    0.11000000
   17.04666710   97.12519836    0.11000000    0.11000000
   17.04999924  102.56300354    0.11000000    0.11000000
   17.05333328   97.14119720    0.11000000    0.11000000
   17.05638885   93.76129913    0.11000000    0.11000000
   17.05972099   96.99150085    0.11000000    0.11000000
   17.06277657   94.87899780    0.11000000    0.11000000
   17.06888962   94.87899780    0.11000000    0.11000000
   17.07305717   96.31240082    0.11000000    0.11000000
   17.07638931   96.54000092    0.11000000    0.11000000
   17.07944489   94.54450226    0.11000000    0.11000000
   17.08277893   95.17459869    0.11000000    0.11000000
   17.08611107   98.60119629    0.11000000    0.11000000
   17.08916664   94.92810059    0.11000000    0.11000000
   17.09250069   96.94830322    0.11000000    0.11000000
   17.09583473   95.79669952    0.11000000    0.11000000
   17.09889030   95.00640106    0.11000000    0.11000000
   17.10222244   96.39839935    0.11000000    0.11000000
   17.10388947   97.82420349    0.11000000    0.11000000
   17.10583305   93.41570282    0.11000000    0.11000000
   17.11166763   93.41570282    0.11000000    0.11000000
   17.11583328   94.22709656    0.11000000    0.11000000
   17.11916733   96.46040344    0.11000000    0.11000000
   17.12249947   97.44219971    0.11000000    0.11000000
   17.12555504   96.02149963    0.11000000    0.11000000
   17.12888908   96.98549652    0.11000000    0.11000000
   17.13194466   95.70159912    0.11000000    0.11000000
   17.13527679  101.44200134    0.11000000    0.11000000
   17.13722229  101.75299835    0.11000000    0.11000000
   17.13888931   95.02480316    0.11000000    0.11000000
   17.14222145   97.02220154    0.11000000    0.11000000
   17.14527702   99.12049866    0.11000000    0.11000000
   17.14861107   98.01689911    0.11000000    0.11000000
   17.15472221   98.01689911    0.11000000    0.11000000
   17.15888786   97.22779846    0.11000000    0.11000000
   17.16194344   96.78379822    0.11000000    0.11000000
   17.16527748   92.33049774    0.11000000    0.11000000
   17.16860962   94.74469757    0.11000000    0.11000000
   17.17083359   95.12419891    0.11000000    0.11000000
   17.17222214   95.86139679    0.11000000    0.11000000
   17.17527771   96.88559723    0.11000000    0.11000000
   17.17860985   97.07209778    0.11000000    0.11000000
   17.18194389   96.80480194    0.11000000    0.11000000
   17.18499947   95.23629761    0.11000000    0.11000000
   17.18833160   95.13970184    0.11000000    0.11000000
   17.19138718  100.13800049    0.11000000    0.11000000
   17.19749832  100.13800049    0.11000000    0.11000000
   17.20166779  110.24600220    0.11000000    0.11000000
   17.20416832  100.01699829    0.11000000    0.11000000
   17.20527840  100.15000153    0.11000000    0.11000000
   17.20833397  101.99199677    0.11000000    0.11000000
   17.21166801  103.71499634    0.11000000    0.11000000
   17.21500015   97.74870300    0.11000000    0.11000000
   17.21805573  102.64700317    0.11000000    0.11000000
   17.22138977  104.17900085    0.11000000    0.11000000
   17.22444534  104.90799713    0.11000000    0.11000000
   17.22777748  101.00199890    0.11000000    0.11000000
   17.23111153  102.69899750    0.11000000    0.11000000
   17.23416710  105.94899750    0.11000000    0.11000000
   17.24027824  105.94899750    0.11000000    0.11000000
   17.24444389   97.32499695    0.11000000    0.11000000
   17.24777794  101.32399750    0.11000000    0.11000000
   17.25083351   96.50659943    0.11000000    0.11000000
   17.27055550   97.09390259    0.11000000    0.11000000
   17.27138901   96.40110016    0.11000000    0.11000000
   17.27444458   95.17109680    0.11000000    0.11000000
   17.27750015   98.22889709    0.11000000    0.11000000
   17.28333282   98.22889709    0.11000000    0.11000000
   17.28750038   96.11849976    0.11000000    0.11000000
   17.29055595   99.90239716    0.11000000    0.11000000
   17.29388809  100.56700134    0.11000000    0.11000000
   17.29722214   97.93579865    0.11000000    0.11000000
   17.30027771  102.12500000    0.11000000    0.11000000
   17.30360985  100.19799805    0.11000000    0.11000000
   17.30472183   98.03829956    0.11000000    0.11000000
   17.30722237   98.13659668    0.11000000    0.11000000
   17.31027794   96.31770325    0.11000000    0.11000000
   17.31361008   97.33329773    0.11000000    0.11000000
   17.31666756   97.30059814    0.11000000    0.11000000
   17.32000160   93.47820282    0.11000000    0.11000000
   17.32611275   93.47820282    0.11000000    0.11000000
   17.33027840   99.57820129    0.11000000    0.11000000
   17.33361244   97.67769623    0.11000000    0.11000000
   17.33666801   94.80159760    0.11000000    0.11000000
   17.33833313   94.84470367    0.11000000    0.11000000
   17.34027863   98.41139984    0.11000000    0.11000000
   17.34361267   98.72149658    0.11000000    0.11000000
   17.34694481   98.13929749    0.11000000    0.11000000
   17.35000038  101.46800232    0.11000000    0.11000000
   17.35333443   98.01840210    0.11000000    0.11000000
   17.35639000  100.34899902    0.11000000    0.11000000
   17.35972214  100.57599640    0.11000000    0.11000000
   17.36305618   97.13289642    0.11000000    0.11000000
   17.36888885   97.13289642    0.11000000    0.11000000
   17.37305641   99.57309723    0.11000000    0.11000000
   17.37638855   99.81099701    0.11000000    0.11000000
   17.37972260   95.62270355    0.11000000    0.11000000
   17.38277817   95.12609863    0.11000000    0.11000000
   17.38611031   95.22679901    0.11000000    0.11000000
   17.38916588   97.58409882    0.11000000    0.11000000
   17.39249992   95.11370087    0.11000000    0.11000000
   17.39583397   95.98930359    0.11000000    0.11000000
   17.39888954   96.17700195    0.11000000    0.11000000
   17.40222168   94.18569946    0.11000000    0.11000000
   17.40499878   94.37390137    0.11000000    0.11000000
   17.40583229   97.10649872    0.11000000    0.11000000
   17.41194344   97.10649872    0.11000000    0.11000000
   17.41611099   93.04049683    0.11000000    0.11000000
   17.41916656   97.93479919    0.11000000    0.11000000
   17.42249870   98.49340057    0.11000000    0.11000000
   17.42555428   99.46320343    0.11000000    0.11000000
   17.42888832   95.48210144    0.11000000    0.11000000
   17.43222237   94.08180237    0.11000000    0.11000000
   17.43527603   93.98729706    0.11000000    0.11000000
   17.43833160   98.69920349    0.11000000    0.11000000
   17.43888855   94.33750153    0.11000000    0.11000000
   17.44222069   96.80139923    0.11000000    0.11000000
   17.44555473   98.84110260    0.11000000    0.11000000
   17.44861031   96.94339752    0.11000000    0.11000000
   17.45472336   96.94339752    0.11000000    0.11000000
   17.45888901   94.22689819    0.11000000    0.11000000
   17.46194458   97.24179840    0.11000000    0.11000000
   17.46527863   95.39900208    0.11000000    0.11000000
   17.46861076   96.61650085    0.11000000    0.11000000
   17.47166634   97.88500214    0.11000000    0.11000000
   17.47194481   98.32849884    0.11000000    0.11000000
   17.47527885   97.06400299    0.11000000    0.11000000
   17.47861099   97.55269623    0.11000000    0.11000000
   17.48166656  100.71399689    0.11000000    0.11000000
   17.48500061   98.63089752    0.11000000    0.11000000
   17.48805618  101.40399933    0.11000000    0.11000000
   17.49138832   95.48220062    0.11000000    0.11000000
   17.49749947   95.48220062    0.11000000    0.11000000
   17.50166702   98.56690216    0.11000000    0.11000000
   17.50499916   95.41439819    0.11000000    0.11000000
   17.50527763   96.35729980    0.11000000    0.11000000
   17.50861168   96.60169983    0.11000000    0.11000000
   17.51194382  102.86699677    0.11000000    0.11000000
   17.51499939   96.82700348    0.11000000    0.11000000
   17.51833344   96.14499664    0.11000000    0.11000000
   17.52166557  100.85199738    0.11000000    0.11000000
   17.52472115  101.21499634    0.11000000    0.11000000
   17.52805519   98.46179962    0.11000000    0.11000000
   17.53138924   96.12729645    0.11000000    0.11000000
   17.53444481   94.45899963    0.11000000    0.11000000
   17.54027748   94.45899963    0.11000000    0.11000000
   17.54444313   97.75530243    0.11000000    0.11000000
   17.54777718   97.05979919    0.11000000    0.11000000
   17.55083275   97.41919708    0.11000000    0.11000000
   17.55416679   95.71209717    0.11000000    0.11000000
   17.55749893   96.43419647    0.11000000    0.11000000
   17.56055450   96.04309845    0.11000000    0.11000000
   17.56388855   99.73919678    0.11000000    0.11000000
   17.56722260  104.02200317    0.11000000    0.11000000
   17.57027817   98.63809967    0.11000000    0.11000000
   17.57166672   97.04399872    0.11000000    0.11000000
   17.57389069  100.60500336    0.11000000    0.11000000
   17.57722282   97.93000031    0.11000000    0.11000000
   17.58333397   97.93000031    0.11000000    0.11000000
   17.58722305   96.97969818    0.11000000    0.11000000
   17.59055710  103.57199860    0.11000000    0.11000000
   17.59388924   98.08219910    0.11000000    0.11000000
   17.59694481   99.53890228    0.11000000    0.11000000
   17.60027885   95.13189697    0.11000000    0.11000000
   17.60361099   97.25520325    0.11000000    0.11000000
   17.60499954   94.69059753    0.11000000    0.11000000
   17.60694504   95.79280090    0.11000000    0.11000000
   17.61027908   96.74120331    0.11000000    0.11000000
   17.61361122   97.71440125    0.11000000    0.11000000
   17.61666679   95.57530212    0.11000000    0.11000000
   17.62000084   99.26550293    0.11000000    0.11000000
   17.62611198   99.26550293    0.11000000    0.11000000
   17.63027763   95.96579742    0.11000000    0.11000000
   17.63333321   97.57070160    0.11000000    0.11000000
   17.63666725  100.57399750    0.11000000    0.11000000
   17.63861084   97.49189758    0.11000000    0.11000000
   17.64027786   95.92859650    0.11000000    0.11000000
   17.64361191  102.22000122    0.11000000    0.11000000
   17.64694405   95.01029968    0.11000000    0.11000000
   17.64999962   94.04699707    0.11000000    0.11000000
   17.65333366   95.56759644    0.11000000    0.11000000
   17.65638924   96.41320038    0.11000000    0.11000000
   17.65972137   95.65470123    0.11000000    0.11000000
   17.66305542   95.79820251    0.11000000    0.11000000
   17.66888809   95.79820251    0.11000000    0.11000000
   17.67305565  100.54699707    0.11000000    0.11000000
   17.67638779   94.84149933    0.11000000    0.11000000
   17.67944336   94.65979767    0.11000000    0.11000000
   17.68277740   93.28919983    0.11000000    0.11000000
   17.68610954  101.97499847    0.11000000    0.11000000
   17.68916512   94.93620300    0.11000000    0.11000000
   17.69249916  101.37100220    0.11000000    0.11000000
   17.69583321   99.54000092    0.11000000    0.11000000
   17.69888878  101.64199829    0.11000000    0.11000000
   17.70222282   99.37860107    0.11000000    0.11000000
   17.70527840   96.38619995    0.11000000    0.11000000
   17.70583344   96.78440094    0.11000000    0.11000000
   17.71166801   96.78440094    0.11000000    0.11000000
   17.71583366   97.87310028    0.11000000    0.11000000
   17.71916771   95.11119843    0.11000000    0.11000000
   17.72249985   98.77469635    0.11000000    0.11000000
   17.72555542   97.29499817    0.11000000    0.11000000
   17.72888947  100.85199738    0.11000000    0.11000000
   17.73194504  102.86100006    0.11000000    0.11000000
   17.73527718   98.21669769    0.11000000    0.11000000
   17.73861122   98.65760040    0.11000000    0.11000000
   17.73888969   95.71060181    0.11000000    0.11000000
   17.74222183  100.06700134    0.11000000    0.11000000
   17.74555588   98.87400055    0.11000000    0.11000000
   17.74861145   97.68650055    0.11000000    0.11000000
   17.75472260   97.68650055    0.11000000    0.11000000
   17.75888824   98.45870209    0.11000000    0.11000000
   17.76194382   99.74590302    0.11000000    0.11000000
   17.76527786   97.20500183    0.11000000    0.11000000
   17.76833344   92.34750366    0.11000000    0.11000000
   17.77166557   97.23190308    0.11000000    0.11000000
   17.77222252   95.74549866    0.11000000    0.11000000
   17.77527809   96.79660034    0.11000000    0.11000000
   17.77861023   93.69210052    0.11000000    0.11000000
   17.78194427   95.49459839    0.11000000    0.11000000
   17.78499985   99.55899811    0.11000000    0.11000000
   17.78833199   99.30139923    0.11000000    0.11000000
   17.79166603  100.89299774    0.11000000    0.11000000
   17.79749870  100.89299774    0.11000000    0.11000000
   17.80166626   95.83959961    0.11000000    0.11000000
   17.80472183   97.89939880    0.11000000    0.11000000
   17.80555534   95.29979706    0.11000000    0.11000000
   17.80861092   96.02559662    0.11000000    0.11000000
   17.81166649   96.02159882    0.11000000    0.11000000
   17.81499863   94.70300293    0.11000000    0.11000000
   17.81833458   94.34470367    0.11000000    0.11000000
   17.82166672   95.68000031    0.11000000    0.11000000
   17.82472229   95.55719757    0.11000000    0.11000000
   17.82805634   98.12550354    0.11000000    0.11000000
   17.83139038   91.67900085    0.11000000    0.11000000
   17.83444595   93.70469666    0.11000000    0.11000000
   17.84027863   93.70469666    0.11000000    0.11000000
   17.84444427   94.12539673    0.11000000    0.11000000
   17.84777832   99.49250031    0.11000000    0.11000000
   17.85083389  100.73600006    0.11000000    0.11000000
   17.85416794  103.16300201    0.11000000    0.11000000
   17.85750008  103.58499908    0.11000000    0.11000000
   17.86055565   99.27960205    0.11000000    0.11000000
   17.86388969  102.38800049    0.11000000    0.11000000
   17.86722183  101.10399628    0.11000000    0.11000000
   17.87027740   97.63610077    0.11000000    0.11000000
   17.87222290   98.52989960    0.11000000    0.11000000
   17.87416649   99.32530212    0.11000000    0.11000000
   17.87722206   99.90219879    0.11000000    0.11000000
   17.88305473   99.90219879    0.11000000    0.11000000
   17.88722229   97.47940063    0.11000000    0.11000000
   17.89055634   98.45960236    0.11000000    0.11000000
   17.89388847   98.18180084    0.11000000    0.11000000
   17.89694405  100.11399841    0.11000000    0.11000000
   17.90027809  100.73400116    0.11000000    0.11000000
   17.90333366   96.74600220    0.11000000    0.11000000
   17.90555573   98.15260315    0.11000000    0.11000000
   17.90722275   98.63159943    0.11000000    0.11000000
   17.91027832   96.20420074    0.11000000    0.11000000
   17.91361046  101.97200012    0.11000000    0.11000000
   17.91666603   97.66850281    0.11000000    0.11000000
   17.92000008   97.26390076    0.11000000    0.11000000
   17.92611122   97.26390076    0.11000000    0.11000000
   17.93027687  100.70700073    0.11000000    0.11000000
   17.93333244  102.36499786    0.11000000    0.11000000
   17.93666649   97.39720154    0.11000000    0.11000000
   17.93888855   97.11350250    0.11000000    0.11000000
   17.94027710   94.85590363    0.11000000    0.11000000
   17.94333267   97.58180237    0.11000000    0.11000000
   17.94666672   98.54979706    0.11000000    0.11000000
   17.95222282  102.67299652    0.11000000    0.11000000
   17.95527840   97.38030243    0.11000000    0.11000000
   17.95861244  100.27799988    0.11000000    0.11000000
   17.96194458  101.41999817    0.11000000    0.11000000
   17.96500015   99.51470184    0.11000000    0.11000000
   17.96916771   99.51470184    0.11000000    0.11000000
   17.97333336  101.93499756    0.11000000    0.11000000
   17.97638893   95.06420135    0.11000000    0.11000000
   17.97972298   98.27259827    0.11000000    0.11000000
   17.98305511   99.66629791    0.11000000    0.11000000
   17.98611069   98.29090118    0.11000000    0.11000000
   17.98944473   97.12570190    0.11000000    0.11000000
   17.99277878   99.02369690    0.11000000    0.11000000
   17.99583435  101.01000214    0.11000000    0.11000000
   17.99916649   98.38230133    0.11000000    0.11000000
   18.00250053   95.66510010    0.11000000    0.11000000
   18.00555611  100.14800262    0.11000000    0.11000000
   18.00583267   96.69370270    0.11000000    0.11000000
   18.01194382   96.69370270    0.11000000    0.11000000
   18.01611137  100.20500183    0.11000000    0.11000000
   18.01944351   97.51490021    0.11000000    0.11000000
   18.02249908   95.31680298    0.11000000    0.11000000
   18.02583313   93.30149841    0.11000000    0.11000000
   18.02916718   95.18250275    0.11000000    0.11000000
   18.03222275  100.20099640    0.11000000    0.11000000
   18.03555489   98.18000031    0.11000000    0.11000000
   18.03888893   95.46640015    0.11000000    0.11000000
   18.03916550   97.44969940    0.11000000    0.11000000
   18.04249954   94.19429779    0.11000000    0.11000000
   18.04583359   96.69429779    0.11000000    0.11000000
   18.04888916   98.22350311    0.11000000    0.11000000
   18.05472183   98.22350311    0.11000000    0.11000000
   18.05888748   97.22280121    0.11000000    0.11000000
   18.06222153   91.61419678    0.11000000    0.11000000
   18.06555557   98.05570221    0.11000000    0.11000000
   18.06861115   93.98349762    0.11000000    0.11000000
   18.07194519   96.37999725    0.11000000    0.11000000
   18.07250023   95.33969879    0.11000000    0.11000000
   18.07555580   94.25279999    0.11000000    0.11000000
   18.07888985   92.90409851    0.11000000    0.11000000
   18.08194542   98.79759979    0.11000000    0.11000000
   18.08527756   92.06710052    0.11000000    0.11000000
   18.08861160   92.57779694    0.11000000    0.11000000
   18.09166718   92.31359863    0.11000000    0.11000000
   18.09777832   92.31359863    0.11000000    0.11000000
   18.10194397   95.35810089    0.11000000    0.11000000
   18.10499954   98.63369751    0.11000000    0.11000000
   18.10583305   94.99289703    0.11000000    0.11000000
   18.10861206   92.67179871    0.11000000    0.11000000
   18.11194420   94.75900269    0.11000000    0.11000000
   18.11499977   94.61889648    0.11000000    0.11000000
   18.11833382   93.59510040    0.11000000    0.11000000
   18.12166595   93.10500336    0.11000000    0.11000000
   18.12472153   94.16069794    0.11000000    0.11000000
   18.12805557   96.25080109    0.11000000    0.11000000
   18.13111115   95.09999847    0.11000000    0.11000000
   18.13444519   96.11859894    0.11000000    0.11000000
   18.14055634   96.11859894    0.11000000    0.11000000
   18.14472198   94.65010071    0.11000000    0.11000000
   18.14805603   95.02400208    0.11000000    0.11000000
   18.15111160   93.39739990    0.11000000    0.11000000
   18.15444374   96.98259735    0.11000000    0.11000000
   18.15749931   93.99669647    0.11000000    0.11000000
   18.16083336   95.26940155    0.11000000    0.11000000
   18.16416550   93.35099792    0.11000000    0.11000000
   18.16722107   94.78679657    0.11000000    0.11000000
   18.17055511   93.68090057    0.11000000    0.11000000
   18.17249870   96.41919708    0.11000000    0.11000000
   18.17416573   89.84239960    0.11000000    0.11000000
   18.17749977   93.86499786    0.11000000    0.11000000
   18.18333244   93.86499786    0.11000000    0.11000000
   18.18750000   96.59110260    0.11000000    0.11000000
   18.19083214   95.85800171    0.11000000    0.11000000
   18.19416618   96.53070068    0.11000000    0.11000000
   18.19722176   94.56729889    0.11000000    0.11000000
   18.20055580   96.13690186    0.11000000    0.11000000
   18.20361137   94.63349915    0.11000000    0.11000000
   18.20583344   96.30400085    0.11000000    0.11000000
   18.20722389   99.16860199    0.11000000    0.11000000
   18.21055603   98.05770111    0.11000000    0.11000000
   18.21361160  101.43000031    0.11000000    0.11000000
   18.21694565   98.79609680    0.11000000    0.11000000
   18.22027779   98.18789673    0.11000000    0.11000000
   18.22638893   98.18789673    0.11000000    0.11000000
   18.23055649   95.82700348    0.11000000    0.11000000
   18.23361206   96.68139648    0.11000000    0.11000000
   18.23694420   95.23329926    0.11000000    0.11000000
   18.23916626   92.50420380    0.11000000    0.11000000
   18.24055672  100.47299957    0.11000000    0.11000000
   18.24388885   95.97810364    0.11000000    0.11000000
   18.24694443   94.41500092    0.11000000    0.11000000
   18.25027847  100.71900177    0.11000000    0.11000000
   18.25361061   98.95719910    0.11000000    0.11000000
   18.25666618   96.85060120    0.11000000    0.11000000
   18.26000023   99.75360107    0.11000000    0.11000000
   18.26305580   98.77480316    0.11000000    0.11000000
   18.28555489   95.31690216    0.11000000    0.11000000
   18.28610992   96.10679626    0.11000000    0.11000000
   18.28666687   93.09120178    0.11000000    0.11000000
   18.28972244   96.20809937    0.11000000    0.11000000
   18.29305458   96.38520050    0.11000000    0.11000000
   18.29638863   97.82679749    0.11000000    0.11000000
   18.29944420   95.17199707    0.11000000    0.11000000
   18.30277634   96.78359985    0.11000000    0.11000000
   18.30583191   96.23660278    0.11000000    0.11000000
   18.31194305   96.23660278    0.11000000    0.11000000
   18.31611061   93.68370056    0.11000000    0.11000000
   18.31944466   97.38870239    0.11000000    0.11000000
   18.32000160   99.02749634    0.11000000    0.11000000
   18.32277870   90.86979675    0.11000000    0.11000000
   18.32611275   94.11740112    0.11000000    0.11000000
   18.32944489   96.26429749    0.11000000    0.11000000
   18.33250046   93.55760193    0.11000000    0.11000000
   18.33583450   96.95739746    0.11000000    0.11000000
   18.33916664   97.13870239    0.11000000    0.11000000
   18.34222221  100.66500092    0.11000000    0.11000000
   18.34555626   96.08460236    0.11000000    0.11000000
   18.34861183   96.44190216    0.11000000    0.11000000
   18.35472298   96.44190216    0.11000000    0.11000000
   18.35888863   94.68109894    0.11000000    0.11000000
   18.36222267   96.75440216    0.11000000    0.11000000
   18.36555672   94.23200226    0.11000000    0.11000000
   18.36861038   98.43530273    0.11000000    0.11000000
   18.37194443   90.47579956    0.11000000    0.11000000
   18.37527847  104.00000000    0.11000000    0.11000000
   18.37833405   95.66059875    0.11000000    0.11000000
   18.38166618   94.14109802    0.11000000    0.11000000
   18.38500023   93.92489624    0.11000000    0.11000000
   18.38666725  102.66999817    0.11000000    0.11000000
   18.38833237   97.98439789    0.11000000    0.11000000
   18.39166641   96.64399719    0.11000000    0.11000000
   18.39777756   96.64399719    0.11000000    0.11000000
   18.40194321   96.37270355    0.11000000    0.11000000
   18.40499878  100.02799988    0.11000000    0.11000000
   18.40833282  103.70200348    0.11000000    0.11000000
   18.41138840   97.53780365    0.11000000    0.11000000
   18.41472244   96.61920166    0.11000000    0.11000000
   18.41805458   95.43019867    0.11000000    0.11000000
   18.42000008  100.70600128    0.11000000    0.11000000
   18.42138863  112.86000061    0.11000000    0.11000000
   18.42472076   87.98580170    0.11000000    0.11000000
   18.42805481   94.21160126    0.11000000    0.11000000
   18.43111038   99.41880035    0.11000000    0.11000000
   18.43444443   98.72319794    0.11000000    0.11000000
   18.44055557   98.72319794    0.11000000    0.11000000
   18.44472122   95.61129761    0.11000000    0.11000000
   18.44777679   94.32340240    0.11000000    0.11000000
   18.45111275   95.29769897    0.11000000    0.11000000
   18.45333481   98.78260040    0.11000000    0.11000000
   18.45472336   95.94519806    0.11000000    0.11000000
   18.45805550   94.62930298    0.11000000    0.11000000
   18.46138954   93.86609650    0.11000000    0.11000000
   18.46444511   99.30909729    0.11000000    0.11000000
   18.46777916   98.48739624    0.11000000    0.11000000
   18.47111130   97.11889648    0.11000000    0.11000000
   18.47416687   95.33519745    0.11000000    0.11000000
   18.47750092   92.60620117    0.11000000    0.11000000
   18.48333359   92.60620117    0.11000000    0.11000000
   18.48750114   93.46910095    0.11000000    0.11000000
   18.49083328   95.29750061    0.11000000    0.11000000
   18.49388885   99.93009949    0.11000000    0.11000000
   18.49722290  100.56500244    0.11000000    0.11000000
   18.50027847  100.45300293    0.11000000    0.11000000
   18.50361061   94.80419922    0.11000000    0.11000000
   18.50694466   97.45269775    0.11000000    0.11000000
   18.51000023   95.67120361    0.11000000    0.11000000
   18.51333427  111.07299805    0.11000000    0.11000000
   18.51666641  278.67800903    0.11000000    0.11000000
