    HOUR (UT)   FLARE FACTOR    SKY TESTER    SUN TESTER
   12.34249973   -1.00000000   -1.00000000   -1.00000000
   12.36611176   54.34149933    0.00000000    0.00000000
   12.36944485   -1.00000000    0.00000000    0.00000000
   12.37250042  243.02400208    0.00000000    0.00000000
   12.37583351  161.01699829    0.00000000    0.00000000
   12.37916660  159.38099670    0.00000000    0.00000000
   12.38222218   90.96130371    0.00000000    0.00000000
   12.38638878   90.96130371    0.00000000    0.00000000
   12.39055538   50.13320160    0.00000000    0.00000000
   12.39388847   36.51779938    0.00000000    0.00000000
   12.39694405   46.77769852    0.00000000    0.00000000
   12.40055561   70.87329865    0.00000000    0.00000000
   12.40388870   52.89939880    0.00000000    0.00000000
   12.40722179   65.79740143    0.00000000    0.00000000
   12.41027737   58.95479965    0.00000000    0.00000000
   12.41361046   59.87120056    0.00000000    0.00000000
   12.41694450   -1.00000000   -1.00000000   -1.00000000
   12.42000008   55.09799957    4.90999985    1.48000002
   12.42333412   59.06850052    4.90999985    1.48000002
   12.42972279   59.06850052    4.90999985    1.48000002
   12.43361092  151.27900696    4.90999985    1.48000002
   12.43694496  162.41999817    4.90999985    1.48000002
   12.44027805  208.90600586    4.90999985    1.48000002
   12.44333363  120.47299957    4.90999985    1.48000002
   12.44694424  192.39500427    4.90999985    1.48000002
   12.45027733  176.39300537    4.90999985    1.48000002
   12.45333290  110.08999634    4.90999985    1.48000002
   12.45666695  184.03799438    4.90999985    1.48000002
   12.46000004  151.77299500    4.90999985    1.48000002
   12.46305561  150.52600098    4.90999985    1.48000002
   12.46583271  126.05200195    4.90999985    1.48000002
   12.46694374   79.42140198    4.90999985    1.48000002
   12.47249985   79.42140198    4.90999985    1.48000002
   12.47666645  176.65100098    4.90999985    1.48000002
   12.47972202  135.78700256    4.90999985    1.48000002
   12.48305511   75.07309723    4.90999985    1.48000002
   12.48638916   -1.00000000    4.90999985    1.48000002
   12.48944473   91.44200134    4.90999985    1.48000002
   12.49277782   -1.00000000    4.90999985    1.48000002
   12.49583340   79.42700195    4.90999985    1.48000002
   12.49916649  140.78599548    4.90999985    1.48000002
   12.49972248  164.90400696    4.90999985    1.48000002
   12.50277805  139.39300537    4.90999985    1.48000002
   12.50611115   -1.00000000    4.90999985    1.48000002
   12.50944424   -1.00000000    4.90999985    1.48000002
   12.51527786   -1.00000000    4.90999985    1.48000002
   12.51944447  110.26999664    4.90999985    1.48000002
   12.52277756   99.77130127    4.90999985    1.48000002
   12.52583313  130.79400635    4.90999985    1.48000002
   12.52916622  130.44900513    4.90999985    1.48000002
   12.53222179   49.22560120    4.90999985    1.48000002
   12.53277779   69.53119659    4.90999985    1.48000002
   12.53611183   87.71189880    4.90999985    1.48000002
   12.53944492   -1.00000000    4.90999985    1.48000002
   12.54250050   -1.00000000    4.90999985    1.48000002
   12.54583359   81.14279938    4.90999985    1.48000002
   12.54888916  156.58399963    4.90999985    1.48000002
   12.55222225   54.77330017    4.90999985    1.48000002
   12.55805588   54.77330017    4.90999985    1.48000002
   12.56222248  339.69601440    4.90999985    1.48000002
   12.56555557  371.30700684    4.90999985    1.48000002
   12.56611156  291.77398682    4.90999985    1.48000002
   12.56916618  222.12899780    4.90999985    1.48000002
   12.57250023  259.39999390    4.90999985    1.48000002
   12.57555580  387.50000000    4.90999985    1.48000002
   12.57888889  347.16198730    4.90999985    1.48000002
   12.58194447  264.25601196    4.90999985    1.48000002
   12.58527756  145.29100037    4.90999985    1.48000002
   12.58861065  179.06100464    4.90999985    1.48000002
   12.59166622  202.90100098    4.90999985    1.48000002
   12.59499931  161.95500183    4.90999985    1.48000002
   12.60111141  161.95500183    4.90999985    1.48000002
   12.60500050  198.80599976    4.90999985    1.48000002
   12.60833359  127.58000183    4.90999985    1.48000002
   12.61166668  117.51999664    4.90999985    1.48000002
   12.61472225  163.44700623    4.90999985    1.48000002
   12.61805534  225.64199829    4.90999985    1.48000002
   12.62138939  269.35198975    4.90999985    1.48000002
   12.62444496  279.33599854    4.90999985    1.48000002
   12.62777805  247.91700745    4.90999985    1.48000002
   12.63111115  292.19299316    4.90999985    1.48000002
   12.63277817  317.85400391    4.90999985    1.48000002
   12.63472176  294.46899414    4.90999985    1.48000002
   12.63805580  327.54199219    4.90999985    1.48000002
   12.64388847  327.54199219    4.90999985    1.48000002
   12.64805508  169.82400513    4.90999985    1.48000002
   12.65111065  259.07299805    4.90999985    1.48000002
   12.65444374  208.05099487    4.90999985    1.48000002
   12.65777779  296.52301025    4.90999985    1.48000002
   12.66083336  205.33299255    4.90999985    1.48000002
   12.66416645  259.10998535    4.90999985    1.48000002
   12.66611099  330.39700317    4.90999985    1.48000002
   12.66777802  339.52499390    4.90999985    1.48000002
   12.67111111  222.17599487    4.90999985    1.48000002
   12.67416668  354.58300781    4.90999985    1.48000002
   12.67750072  350.40399170    4.90999985    1.48000002
   12.68055630  345.23699951    4.90999985    1.48000002
   12.68666649  345.23699951    4.90999985    1.48000002
   12.69083309  341.17199707    4.90999985    1.48000002
   12.69388866  389.12600708    4.90999985    1.48000002
   12.69722271  325.37899780    4.90999985    1.48000002
   12.69944477  165.18800354    4.90999985    1.48000002
   12.70083332  322.80200195    4.90999985    1.48000002
   12.70388889  307.19299316    4.90999985    1.48000002
   12.70722198  259.10101318    4.90999985    1.48000002
   12.71055508  264.93099976    4.90999985    1.48000002
   12.71361065  317.19900513    4.90999985    1.48000002
   12.71694374  274.69799805    4.90999985    1.48000002
   12.72027779  235.92399597    4.90999985    1.48000002
   12.72333336  207.19999695    4.90999985    1.48000002
   12.72944355  207.19999695    4.90999985    1.48000002
   12.73361111  243.78999329    4.90999985    1.48000002
   12.73694515  382.42401123    4.90999985    1.48000002
   12.74000072  281.69400024    4.90999985    1.48000002
   12.74333382  149.04400635    4.90999985    1.48000002
   12.74666691   23.57019997    4.90999985    1.48000002
   12.74972248   96.45590210    4.90999985    1.48000002
   12.75305557  161.81700134    4.90999985    1.48000002
   12.75611115  309.43399048    4.90999985    1.48000002
   12.75944424  242.36500549    4.90999985    1.48000002
   12.76277733  284.78298950    4.90999985    1.48000002
   12.76583290  328.82800293    4.90999985    1.48000002
   12.76638889  302.92999268    4.90999985    1.48000002
   12.77250004  302.92999268    4.90999985    1.48000002
   12.77638817  177.27200317    4.90999985    1.48000002
   12.77972221  226.66799927    4.90999985    1.48000002
   12.78305531  199.94999695    4.90999985    1.48000002
   12.78638935  162.41900635    4.90999985    1.48000002
   12.78944492  356.50000000    4.90999985    1.48000002
   12.79277802  344.86599731    4.90999985    1.48000002
   12.79611111  251.06300354    4.90999985    1.48000002
   12.79916668  210.87699890    4.90999985    1.48000002
   12.79972267  153.37699890    4.90999985    1.48000002
   12.80277824  222.61900330    4.90999985    1.48000002
   12.80583382  190.85800171    4.90999985    1.48000002
   12.80916691  276.73199463    4.90999985    1.48000002
   12.81527805  276.73199463    4.90999985    1.48000002
   12.81944466  244.22999573    4.90999985    1.48000002
   12.82250023  257.31201172    4.90999985    1.48000002
   12.82583332  323.94400024    4.90999985    1.48000002
   12.82916641  304.18798828    4.90999985    1.48000002
   12.83222198  217.25700378    4.90999985    1.48000002
   12.83305550  176.46400452    4.90999985    1.48000002
   12.83583260  287.17599487    4.90999985    1.48000002
   12.83888817  310.73999023    4.90999985    1.48000002
   12.84222221  323.28399658    4.90999985    1.48000002
   12.84555531  395.89001465    4.90999985    1.48000002
   12.84861088  338.67800903    4.90999985    1.48000002
   12.85194492  365.35699463    4.90999985    1.48000002
   12.85805607  365.35699463    4.90999985    1.48000002
   12.86222267  132.94700623    4.90999985    1.48000002
   12.86555576  129.74400330    4.90999985    1.48000002
   12.86638927  156.89799500    4.90999985    1.48000002
   12.86916637  156.45300293    4.90999985    1.48000002
   12.87250042  142.57800293    4.90999985    1.48000002
   12.87555599  141.40499878    4.90999985    1.48000002
   12.87888908  144.15400696    4.90999985    1.48000002
   12.88194466  114.26300049    4.90999985    1.48000002
   12.88527775  213.11999512    4.90999985    1.48000002
   12.88861084  299.30300903    4.90999985    1.48000002
   12.89166641  152.05799866    4.90999985    1.48000002
   12.89499950  137.27799988    4.90999985    1.48000002
   12.90083313  137.27799988    4.90999985    1.48000002
   12.90499973  121.58799744    4.90999985    1.48000002
   12.90833282  202.33099365    4.90999985    1.48000002
   12.91138840  315.02398682    4.90999985    1.48000002
   12.91472149  293.72299194    4.90999985    1.48000002
   12.91805553  312.62600708    4.90999985    1.48000002
   12.92111111  303.95800781    4.90999985    1.48000002
   12.92444515  354.36199951    4.90999985    1.48000002
   12.92777824  311.21499634    4.90999985    1.48000002
   12.93083382  255.30999756    4.90999985    1.48000002
   12.93305588  265.80200195    4.90999985    1.48000002
   12.93444443  317.70098877    4.90999985    1.48000002
   12.93750000  330.03201294    4.90999985    1.48000002
   12.94388866  330.03201294    4.90999985    1.48000002
   12.94777775  256.89801025    4.90999985    1.48000002
   12.95111084  242.59500122    4.90999985    1.48000002
   12.95444393  213.24800110    4.90999985    1.48000002
   12.95749950  275.69299316    4.90999985    1.48000002
   12.96083355  269.82501221    4.90999985    1.48000002
   12.96416664  251.16700745    4.90999985    1.48000002
   12.96638870  288.80300903    4.90999985    1.48000002
   12.96777725  256.79901123    4.90999985    1.48000002
   12.97111034  352.62701416    4.90999985    1.48000002
   12.97416592  236.76100159    4.90999985    1.48000002
   12.97749996  212.23399353    4.90999985    1.48000002
   12.98055553  226.39500427    4.90999985    1.48000002
   12.98666668  226.39500427    4.90999985    1.48000002
   12.99083328  185.55499268    4.90999985    1.48000002
   12.99388885  189.38999939    4.90999985    1.48000002
   12.99722290  180.37500000    4.90999985    1.48000002
   12.99972248  180.97700500    4.90999985    1.48000002
   13.00083351  180.11300659    4.90999985    1.48000002
   13.00416660  192.78399658    4.90999985    1.48000002
   13.00722218  207.46400452    4.90999985    1.48000002
   13.01055527  195.27600098    4.90999985    1.48000002
   13.01361084  211.79899597    4.90999985    1.48000002
   13.01694393  206.38900757    4.90999985    1.48000002
   13.02027798  214.44099426    4.90999985    1.48000002
   13.02333355  233.54800415    4.90999985    1.48000002
   13.02944374  233.54800415    4.90999985    1.48000002
   13.03361130  287.37799072    4.90999985    1.48000002
   13.03666687  225.33999634    4.90999985    1.48000002
   13.04000092  288.78201294    4.90999985    1.48000002
   13.04333401  300.91799927    4.90999985    1.48000002
   13.04638958  297.52398682    4.90999985    1.48000002
   13.04972267  277.80099487    4.90999985    1.48000002
   13.05305576  333.55801392    4.90999985    1.48000002
   13.05611134  273.79598999    4.90999985    1.48000002
   13.05944443  279.48800659    4.90999985    1.48000002
   13.06250000  312.87500000    4.90999985    1.48000002
   13.06583309  270.50201416    4.90999985    1.48000002
   13.06638908  258.60400391    4.90999985    1.48000002
   13.07222176  258.60400391    4.90999985    1.48000002
   13.07638836  236.45100403    4.90999985    1.48000002
   13.07972240  303.83999634    4.90999985    1.48000002
   13.08277798  226.61000061    4.90999985    1.48000002
   13.08611107  241.35200500    4.90999985    1.48000002
   13.08944416  244.28999329    4.90999985    1.48000002
   13.09249973  209.79800415    4.90999985    1.48000002
   13.09583282  208.53900146    4.90999985    1.48000002
   13.09888840  233.53100586    4.90999985    1.48000002
   13.09972191  241.34199524    4.90999985    1.48000002
   13.10249996  267.78201294    4.90999985    1.48000002
   13.10583401  218.51199341    4.90999985    1.48000002
   13.10888958  202.79899597    4.90999985    1.48000002
   13.11527824  202.79899597    4.90999985    1.48000002
   13.11916637  192.64300537    4.90999985    1.48000002
   13.12250042  195.21499634    4.90999985    1.48000002
   13.12583351  184.22700500    4.90999985    1.48000002
   13.12888908  193.97500610    4.90999985    1.48000002
   13.13222218  188.42900085    4.90999985    1.48000002
   13.13305569  180.87600708    4.90999985    1.48000002
   13.13583279  180.06799316    4.90999985    1.48000002
   13.13916683  183.19099426    4.90999985    1.48000002
   13.14222240  175.54800415    4.90999985    1.48000002
   13.14555550  178.86099243    4.90999985    1.48000002
   13.14861107  171.26199341    4.90999985    1.48000002
   13.15194416  178.15299988    4.90999985    1.48000002
   13.15805531  178.15299988    4.90999985    1.48000002
   13.16222191  209.92100525    4.90999985    1.48000002
   13.16527748  199.68400574    4.90999985    1.48000002
   13.16638851  200.62600708    4.90999985    1.48000002
   13.16888905  223.40800476    4.90999985    1.48000002
   13.17222214  191.34199524    4.90999985    1.48000002
   13.17527771  207.42700195    4.90999985    1.48000002
   13.17861176  202.94200134    4.90999985    1.48000002
   13.18166733  219.40299988    4.90999985    1.48000002
   13.18500042  218.04899597    4.90999985    1.48000002
   13.18833351  184.33700562    4.90999985    1.48000002
   13.19138908  171.47700500    4.90999985    1.48000002
   13.19472218  182.91499329    4.90999985    1.48000002
   13.20083332  182.91499329    4.90999985    1.48000002
   13.20499992  174.80999756    4.90999985    1.48000002
   13.20805550  184.04100037    4.90999985    1.48000002
   13.21138859  203.79600525    4.90999985    1.48000002
   13.21472168  170.33500671    4.90999985    1.48000002
   13.21805477  175.45599365    4.90999985    1.48000002
   13.22111034  179.97399902    4.90999985    1.48000002
   13.22444439  176.31300354    4.90999985    1.48000002
   13.22749996  161.31700134    4.90999985    1.48000002
   13.23083305  169.48500061    4.90999985    1.48000002
   13.23305511  199.45300293    4.90999985    1.48000002
   13.23444462  167.40600586    4.90999985    1.48000002
   13.23777771  177.65800476    4.90999985    1.48000002
   13.24361134  177.65800476    4.90999985    1.48000002
   13.24777794  162.34399414    4.90999985    1.48000002
   13.25111103  188.58500671    4.90999985    1.48000002
   13.25416660  174.07800293    4.90999985    1.48000002
   13.25749969  174.11500549    4.90999985    1.48000002
   13.26083374  168.28199768    4.90999985    1.48000002
   13.26388931  170.07899475    4.90999985    1.48000002
   13.26638889  173.52400208    4.90999985    1.48000002
   13.26749992  197.95300293    4.90999985    1.48000002
   13.27083302  185.96400452    4.90999985    1.48000002
   13.27388859  200.25500488    4.90999985    1.48000002
   13.27722168  196.71699524    4.90999985    1.48000002
   13.28027725  199.72200012    4.90999985    1.48000002
   13.28666687  199.72200012    4.90999985    1.48000002
   13.29055595  196.24800110    4.90999985    1.48000002
   13.29388905  205.69400024    4.90999985    1.48000002
   13.29722309  171.59500122    4.90999985    1.48000002
   13.29972267  169.43600464    4.90999985    1.48000002
   13.30083370  186.18200684    4.90999985    1.48000002
   13.30416679  174.91999817    4.90999985    1.48000002
   13.30722237  173.83399963    4.90999985    1.48000002
   13.31055546  161.23199463    4.90999985    1.48000002
   13.31361103  163.62300110    4.90999985    1.48000002
   13.31694412  156.36900330    4.90999985    1.48000002
   13.32027817  154.60800171    4.90999985    1.48000002
   13.32333374  147.50900269    4.90999985    1.48000002
   13.32944393  147.50900269    4.90999985    1.48000002
   13.33361053  151.86399841    4.90999985    1.48000002
   13.33666611  182.41999817    4.90999985    1.48000002
   13.34000015  177.40199280    4.90999985    1.48000002
   13.34333324  166.08599854    4.90999985    1.48000002
   13.34638882  159.41299438    4.90999985    1.48000002
   13.34972191  177.70700073    4.90999985    1.48000002
   13.35277843  186.85200500    4.90999985    1.48000002
   13.35611153  186.37699890    4.90999985    1.48000002
   13.35944462  181.29100037    4.90999985    1.48000002
   13.36250019  164.80599976    4.90999985    1.48000002
   13.36583328  177.30000305    4.90999985    1.48000002
   13.36666679  168.63200378    4.90999985    1.48000002
   13.38722229  168.63200378    4.90999985    1.48000002
   13.39138889  165.23500061    4.90999985    1.48000002
   13.39472198  176.36099243    4.90999985    1.48000002
   13.39777756  169.28900146    4.90999985    1.48000002
   13.39999962  169.65699768    4.90999985    1.48000002
   13.40138817  175.72999573    4.90999985    1.48000002
   13.40472221  162.49200439    4.90999985    1.48000002
   13.40777779  159.84800720    4.90999985    1.48000002
   13.41111088  155.72099304    4.90999985    1.48000002
   13.41444397  160.78199768    4.90999985    1.48000002
   13.41750050  176.41499329    4.90999985    1.48000002
   13.42083359  184.37600708    4.90999985    1.48000002
   13.42416668  188.76400757    4.90999985    1.48000002
   13.43000031  188.76400757    4.90999985    1.48000002
   13.43416691  185.50700378    4.90999985    1.48000002
   13.43750000  172.31399536    4.90999985    1.48000002
   13.44055557  175.78300476    4.90999985    1.48000002
   13.44388866  198.62300110    4.90999985    1.48000002
   13.44694424  190.52900696    4.90999985    1.48000002
   13.45027733  160.58200073    4.90999985    1.48000002
   13.45361137  175.12199402    4.90999985    1.48000002
   13.45666695  175.06799316    4.90999985    1.48000002
   13.46000004  168.68499756    4.90999985    1.48000002
   13.46333313  162.74800110    4.90999985    1.48000002
   13.46638870  183.55499268    4.90999985    1.48000002
   13.46694374  181.59800720    4.90999985    1.48000002
   13.47277737  181.59800720    4.90999985    1.48000002
   13.47694397  180.41700745    4.90999985    1.48000002
   13.48027706  151.41000366    4.90999985    1.48000002
   13.48333359  172.23800659    4.90999985    1.48000002
   13.48666668  162.43499756    4.90999985    1.48000002
   13.49000072  171.08799744    4.90999985    1.48000002
   13.49305534  164.55700684    4.90999985    1.48000002
   13.49638939  161.48300171    4.90999985    1.48000002
   13.49972248  170.55299377    4.90999985    1.48000002
   13.50027752  167.99200439    4.90999985    1.48000002
   13.50333309  172.32499695    4.90999985    1.48000002
   13.50638866  177.51400757    4.90999985    1.48000002
   13.50972176  157.27600098    4.90999985    1.48000002
   13.51583290  157.27600098    4.90999985    1.48000002
   13.51972198  154.95300293    4.90999985    1.48000002
   13.52305508  178.02099609    4.90999985    1.48000002
   13.52638817  177.43299866    4.90999985    1.48000002
   13.52944374  167.16299438    4.90999985    1.48000002
   13.53277779  159.68200684    4.90999985    1.48000002
   13.53361130  166.24499512    4.90999985    1.48000002
   13.53638935  167.04299927    4.90999985    1.48000002
   13.53944492  159.51100159    4.90999985    1.48000002
   13.54277802  181.73199463    4.90999985    1.48000002
   13.54611111  190.64799500    4.90999985    1.48000002
   13.54916668  176.29400635    4.90999985    1.48000002
   13.55249977  188.14999390    4.90999985    1.48000002
   13.55861092  188.14999390    4.90999985    1.48000002
   13.56277752  199.75500488    4.90999985    1.48000002
   13.56583309  198.11000061    4.90999985    1.48000002
   13.56694412  194.46099854    4.90999985    1.48000002
   13.56972218  168.85099792    4.90999985    1.48000002
   13.57277775  175.35099792    4.90999985    1.48000002
   13.57611084  183.57200623    4.90999985    1.48000002
   13.57944393  183.80999756    4.90999985    1.48000002
   13.58249950  209.36999512    4.90999985    1.48000002
   13.58583260  188.46600342    4.90999985    1.48000002
   13.58888817  206.61999512    4.90999985    1.48000002
   13.59222221  189.98500061    4.90999985    1.48000002
   13.59555531  157.45199585    4.90999985    1.48000002
   13.60138893  157.45199585    4.90999985    1.48000002
   13.60555553  163.97599792    4.90999985    1.48000002
   13.60888958  163.73399353    4.90999985    1.48000002
   13.61194515  168.06199646    4.90999985    1.48000002
   13.61527824  155.68800354    4.90999985    1.48000002
   13.61861134  153.33599854    4.90999985    1.48000002
   13.62166691  154.96000671    4.90999985    1.48000002
   13.62500000  164.48800659    4.90999985    1.48000002
   13.62805557  165.86599731    4.90999985    1.48000002
   13.63138866  164.88699341    4.90999985    1.48000002
   13.63361073  157.80200195    4.90999985    1.48000002
   13.63500023  162.65199280    4.90999985    1.48000002
   13.63805580  150.67799377    4.90999985    1.48000002
   13.64416695  150.67799377    4.90999985    1.48000002
   13.64833355  163.33799744    4.90999985    1.48000002
   13.65166664  147.32699585    4.90999985    1.48000002
   13.65499973  157.18499756    4.90999985    1.48000002
   13.65805531  145.94299316    4.90999985    1.48000002
   13.66138840  155.30000305    4.90999985    1.48000002
   13.66444397  154.08700562    4.90999985    1.48000002
   13.66694450  155.57699585    4.90999985    1.48000002
   13.66833401  150.54299927    4.90999985    1.48000002
   13.67138958  140.85800171    4.90999985    1.48000002
   13.67472267  147.62100220    4.90999985    1.48000002
   13.67805576  146.10600281    4.90999985    1.48000002
   13.68111134  133.84599304    4.90999985    1.48000002
   13.68722248  133.84599304    4.90999985    1.48000002
   13.69138908  140.36599731    4.90999985    1.48000002
   13.69444466  140.37300110    4.90999985    1.48000002
   13.69777775  135.35099792    4.90999985    1.48000002
   13.70027733  141.71699524    4.90999985    1.48000002
   13.70138836  137.83200073    4.90999985    1.48000002
   13.70444393  139.59800720    4.90999985    1.48000002
   13.70777798  142.94799805    4.90999985    1.48000002
   13.71111107  146.41700745    4.90999985    1.48000002
   13.71416664  139.03799438    4.90999985    1.48000002
   13.71749973  143.08500671    4.90999985    1.48000002
   13.72083282  143.21699524    4.90999985    1.48000002
   13.72388840  151.73100281    4.90999985    1.48000002
   13.72999954  151.73100281    4.90999985    1.48000002
   13.73416710  144.79600525    4.90999985    1.48000002
   13.73722267  135.14300537    4.90999985    1.48000002
   13.74055576  146.31300354    4.90999985    1.48000002
   13.74388885  141.87899780    4.90999985    1.48000002
   13.74694443  136.84800720    4.90999985    1.48000002
   13.75027752  146.43499756    4.90999985    1.48000002
   13.75361156  140.92599487    4.90999985    1.48000002
   13.75666714  146.00100708    4.90999985    1.48000002
   13.76000023  137.20599365    4.90999985    1.48000002
   13.76305580  140.13200378    4.90999985    1.48000002
   13.76638889  144.95300293    4.90999985    1.48000002
   13.76694393  138.61700439    4.90999985    1.48000002
   13.77277756  138.61700439    4.90999985    1.48000002
   13.77694416  147.19000244    4.90999985    1.48000002
   13.78027725  145.67799377    4.90999985    1.48000002
   13.78333378  144.57699585    4.90999985    1.48000002
   13.78666687  150.03700256    4.90999985    1.48000002
   13.79000092  151.30299377    4.90999985    1.48000002
   13.79305553  141.18899536    4.90999985    1.48000002
   13.79638958  148.49099731    4.90999985    1.48000002
   13.79944515  141.66700745    4.90999985    1.48000002
   13.80027771  144.92700195    4.90999985    1.48000002
   13.80305576  138.37600708    4.90999985    1.48000002
   13.80638885  138.59700012    4.90999985    1.48000002
   13.80944443  138.78300476    4.90999985    1.48000002
   13.81555557  138.78300476    4.90999985    1.48000002
   13.81972218  133.95500183    4.90999985    1.48000002
   13.82305527  137.03599548    4.90999985    1.48000002
   13.82638836  133.16200256    4.90999985    1.48000002
   13.82944393  135.04800415    4.90999985    1.48000002
   13.83277798  135.89399719    4.90999985    1.48000002
   13.83361053  132.50100708    4.90999985    1.48000002
   13.83638859  133.97900391    4.90999985    1.48000002
   13.83972168  136.61599731    4.90999985    1.48000002
   13.84277725  135.25700378    4.90999985    1.48000002
   13.84611034  130.88000488    4.90999985    1.48000002
   13.84944439  137.11500549    4.90999985    1.48000002
   13.85249996  135.67799377    4.90999985    1.48000002
   13.85861111  135.67799377    4.90999985    1.48000002
   13.86277771  134.19400024    4.90999985    1.48000002
   13.86583328  138.51899719    4.90999985    1.48000002
   13.86694431  137.10400391    4.90999985    1.48000002
   13.86944485  138.44999695    4.90999985    1.48000002
   13.87277794  136.78100586    4.90999985    1.48000002
   13.87583351  137.58900452    4.90999985    1.48000002
   13.87916660  136.18800354    4.90999985    1.48000002
   13.88249969  142.29299927    4.90999985    1.48000002
   13.88555527  138.01499939    4.90999985    1.48000002
   13.88888836  139.16499329    4.90999985    1.48000002
   13.89222240  131.82499695    4.90999985    1.48000002
   13.89527798  136.75999451    4.90999985    1.48000002
   13.90138817  136.75999451    4.90999985    1.48000002
   13.90555477  135.16200256    4.90999985    1.48000002
   13.90861034  141.12199402    4.90999985    1.48000002
   13.91194439  131.53300476    4.90999985    1.48000002
   13.91527748  136.88000488    4.90999985    1.48000002
   13.91861153  144.83399963    4.90999985    1.48000002
   13.92166710  139.22999573    4.90999985    1.48000002
   13.92500019  133.67999268    4.90999985    1.48000002
   13.92833328  134.54699707    4.90999985    1.48000002
   13.93138885  138.20100403    4.90999985    1.48000002
   13.93361092  135.41700745    4.90999985    1.48000002
   13.93500042  137.97300720    4.90999985    1.48000002
   13.93833351  138.75999451    4.90999985    1.48000002
   13.94416714  138.75999451    4.90999985    1.48000002
   13.94833374  140.12100220    4.90999985    1.48000002
   13.95166683  139.51400757    4.90999985    1.48000002
   13.95499992  139.11599731    4.90999985    1.48000002
   13.95805550  134.54499817    4.90999985    1.48000002
   13.96138859  137.47500610    4.90999985    1.48000002
   13.96472168  136.28900146    4.90999985    1.48000002
   13.96694374  140.60400391    4.90999985    1.48000002
   13.96833324  136.42900085    4.90999985    1.48000002
   13.97166634  139.89799500    4.90999985    1.48000002
   13.97472191  135.13499451    4.90999985    1.48000002
   13.97805500  132.72300720    4.90999985    1.48000002
   13.98138809  135.50399780    4.90999985    1.48000002
   13.98694515  135.50399780    4.90999985    1.48000002
   13.99111176  136.77999878    4.90999985    1.48000002
   13.99444485  136.30900574    4.90999985    1.48000002
   13.99777794  135.43800354    4.90999985    1.48000002
   14.00027752  136.11999512    4.90999985    1.48000002
   14.00111103  134.58700562    4.90999985    1.48000002
   14.00444412  139.68400574    4.90999985    1.48000002
   14.00749969  136.01300049    4.90999985    1.48000002
   14.01083374  138.15899658    4.90999985    1.48000002
   14.01416683  136.78100586    4.90999985    1.48000002
   14.01722240  135.28700256    4.90999985    1.48000002
   14.02055550  134.34800720    4.90999985    1.48000002
   14.02388859  132.33700562    4.90999985    1.48000002
   14.02999973  132.33700562    4.90999985    1.48000002
   14.03416729  138.73599243    4.90999985    1.48000002
   14.03722286  137.36300659    4.90999985    1.48000002
   14.04055595  134.77999878    4.90999985    1.48000002
   14.04361153  136.56900024    4.90999985    1.48000002
   14.04694462  135.86199951    4.90999985    1.48000002
   14.05027771  144.48800659    4.90999985    1.48000002
   14.05361176  140.42300415    4.90999985    1.48000002
   14.05666733  136.38600159    4.90999985    1.48000002
   14.06000042  144.71200562    4.90999985    1.48000002
   14.06305599  145.84599304    4.90999985    1.48000002
   14.06638908  136.94700623    4.90999985    1.48000002
   14.06694412  140.98899841    4.90999985    1.48000002
   14.07277775  140.98899841    4.90999985    1.48000002
   14.07694435  136.39700317    4.90999985    1.48000002
   14.07999992  135.89700317    4.90999985    1.48000002
   14.08333302  139.10200500    4.90999985    1.48000002
   14.08666611  138.59599304    4.90999985    1.48000002
   14.08972168  133.19700623    4.90999985    1.48000002
   14.09305477  136.58599854    4.90999985    1.48000002
   14.09638882  136.64900208    4.90999985    1.48000002
   14.09944439  134.15600586    4.90999985    1.48000002
   14.10027790  136.87199402    4.90999985    1.48000002
   14.10305595  137.91299438    4.90999985    1.48000002
   14.10638905  137.88200378    4.90999985    1.48000002
   14.10944462  134.63400269    4.90999985    1.48000002
   14.11555576  134.63400269    4.90999985    1.48000002
   14.11972237  140.49499512    4.90999985    1.48000002
   14.12305546  131.88499451    4.90999985    1.48000002
   14.12611103  138.05000305    4.90999985    1.48000002
   14.12944412  139.58900452    4.90999985    1.48000002
   14.13277817  132.24800110    4.90999985    1.48000002
   14.13388920  138.65100098    4.90999985    1.48000002
   14.13638878  140.27200317    4.90999985    1.48000002
   14.13972187  136.89100647    4.90999985    1.48000002
   14.14277744  137.42199707    4.90999985    1.48000002
   14.14611053  138.00100708    4.90999985    1.48000002
   14.14944458  145.74499512    4.90999985    1.48000002
   14.15249920  165.38000488    4.90999985    1.48000002
   14.15833282  165.38000488    4.90999985    1.48000002
   14.16249943  161.57600403    4.90999985    1.48000002
   14.16583252  152.40400696    4.90999985    1.48000002
   14.16722298  159.02299500    4.90999985    1.48000002
   14.16944504  138.93600464    4.90999985    1.48000002
   14.17277813  183.39700317    4.90999985    1.48000002
   14.17583370  151.77400208    4.90999985    1.48000002
   14.17916679  195.54100037    4.90999985    1.48000002
   14.18249989  180.22999573    4.90999985    1.48000002
   14.18555546  138.48500061    4.90999985    1.48000002
   14.18888855  165.15499878    4.90999985    1.48000002
   14.19222260  138.96099854    4.90999985    1.48000002
   14.19527817  175.06700134    4.90999985    1.48000002
   14.20138836  175.06700134    4.90999985    1.48000002
   14.20555496  137.91700745    4.90999985    1.48000002
   14.20861053  138.45500183    4.90999985    1.48000002
   14.21194458  150.42999268    4.90999985    1.48000002
   14.21500015  144.52299500    4.90999985    1.48000002
   14.21833324  152.72099304    4.90999985    1.48000002
   14.22166634  138.73899841    4.90999985    1.48000002
   14.22499943  137.70799255    4.90999985    1.48000002
   14.22805500  136.70599365    4.90999985    1.48000002
   14.23138809  135.94500732    4.90999985    1.48000002
   14.23388958  141.85400391    4.90999985    1.48000002
   14.23500061  136.74600220    4.90999985    1.48000002
   14.23833370  135.94099426    4.90999985    1.48000002
   14.24416733  135.94099426    4.90999985    1.48000002
   14.24833393  137.41000366    4.90999985    1.48000002
   14.25138855  143.60400391    4.90999985    1.48000002
   14.25472260  138.91799927    4.90999985    1.48000002
   14.25805569  140.37399292    4.90999985    1.48000002
   14.26111126  136.34599304    4.90999985    1.48000002
   14.26444435  134.79200745    4.90999985    1.48000002
   14.26722240  139.94000244    4.90999985    1.48000002
   14.26805496  138.22700500    4.90999985    1.48000002
   14.27166653  138.10299683    4.90999985    1.48000002
   14.27472210  133.50999451    4.90999985    1.48000002
   14.27805519  137.05700684    4.90999985    1.48000002
   14.28111076  131.50500488    4.90999985    1.48000002
   14.28694534  131.50500488    4.90999985    1.48000002
   14.29111195  137.03900146    4.90999985    1.48000002
   14.29444504  136.87699890    4.90999985    1.48000002
   14.29750061  137.59399414    4.90999985    1.48000002
   14.30055618  133.32000732    4.90999985    1.48000002
   14.30111122  135.38200378    4.90999985    1.48000002
   14.30444431  135.27699280    4.90999985    1.48000002
   14.30777836  132.13099670    4.90999985    1.48000002
   14.31083393  133.77000427    4.90999985    1.48000002
   14.31416702  134.94700623    4.90999985    1.48000002
   14.31722260  139.23599243    4.90999985    1.48000002
   14.32055569  136.58399963    4.90999985    1.48000002
   14.32388878  150.84500122    4.90999985    1.48000002
   14.32972240  150.84500122    4.90999985    1.48000002
   14.33388901  145.10899353    4.90999985    1.48000002
   14.33722210  157.62800598    4.90999985    1.48000002
   14.34027767  149.84800720    4.90999985    1.48000002
   14.34361076  145.95799255    4.90999985    1.48000002
   14.34694386  157.22500610    4.90999985    1.48000002
   14.35000038  162.25599670    4.90999985    1.48000002
   14.35333347  154.57400513    4.90999985    1.48000002
   14.35666752  159.47700500    4.90999985    1.48000002
   14.35972214  156.50500488    4.90999985    1.48000002
   14.36305618  154.08999634    4.90999985    1.48000002
   14.36611176  162.04899597    4.90999985    1.48000002
   14.36722279  154.47599792    4.90999985    1.48000002
   14.37277794  154.47599792    4.90999985    1.48000002
   14.37666702  160.70100403    4.90999985    1.48000002
   14.38000011  153.18800354    4.90999985    1.48000002
   14.38333321  153.84700012    4.90999985    1.48000002
   14.40083313  159.63600159    4.90999985    1.48000002
   14.40333271  148.83900452    4.90999985    1.48000002
   14.40638828  148.23199463    4.90999985    1.48000002
   14.40972137  145.16799927    4.90999985    1.48000002
   14.41555500  145.16799927    4.90999985    1.48000002
   14.41972256  138.15800476    4.90999985    1.48000002
   14.42305565  143.37500000    4.90999985    1.48000002
   14.42611122  142.54200745    4.90999985    1.48000002
   14.42944431  140.73899841    4.90999985    1.48000002
   14.43277836  139.22399902    4.90999985    1.48000002
   14.43416691  137.88699341    4.90999985    1.48000002
   14.43611145  139.08399963    4.90999985    1.48000002
   14.43944454  137.20899963    4.90999985    1.48000002
   14.44277763  141.83799744    4.90999985    1.48000002
   14.44583321  143.97500610    4.90999985    1.48000002
   14.44916630  146.49099731    4.90999985    1.48000002
   14.45222187  141.10600281    4.90999985    1.48000002
   14.45861053  141.10600281    4.90999985    1.48000002
   14.46249962  146.25300598    4.90999985    1.48000002
   14.46583271  139.29899597    4.90999985    1.48000002
   14.46749973  137.82299805    4.90999985    1.48000002
   14.46944427  143.23699951    4.90999985    1.48000002
   14.47277737  138.62600708    4.90999985    1.48000002
   14.47611046  152.94999695    4.90999985    1.48000002
   14.47916603  207.87800598    4.90999985    1.48000002
   14.48249912  254.19200134    4.90999985    1.48000002
   14.48555565  177.66099548    4.90999985    1.48000002
   14.48888874   -1.00000000    4.90999985    1.48000002
   14.49222279   65.18379974    4.90999985    1.48000002
   14.49527836   -1.00000000    4.90999985    1.48000002
   14.50555515   -1.00000000    4.90999985    1.48000002
   14.50861073   -1.00000000    4.90999985    1.48000002
   14.51194477   -1.00000000    4.90999985    1.48000002
   14.51500034   -1.00000000    4.90999985    1.48000002
   14.51833344   -1.00000000    4.90999985    1.48000002
   14.52166653   -1.00000000    4.90999985    1.48000002
   14.52472210   -1.00000000    4.90999985    1.48000002
   14.52805519   -1.00000000    4.90999985    1.48000002
   14.53138828   -1.00000000    4.90999985    1.48000002
   14.53472233   -1.00000000    4.90999985    1.48000002
   14.53805637   -1.00000000    4.90999985    1.48000002
   14.54833412   -1.00000000    4.90999985    1.48000002
   14.55138874   -1.00000000    4.90999985    1.48000002
   14.55472279   -1.00000000    4.90999985    1.48000002
   14.55805588   -1.00000000    4.90999985    1.48000002
   14.56111145   -1.00000000    4.90999985    1.48000002
   14.56444454   -1.00000000    4.90999985    1.48000002
   14.56805515   -1.00000000    4.90999985    1.48000002
   14.57138920   -1.00000000    4.90999985    1.48000002
   14.57444477   -1.00000000    4.90999985    1.48000002
   14.57777786   -1.00000000    4.90999985    1.48000002
   14.58111095   -1.00000000    4.90999985    1.48000002
   14.59111118   -1.00000000    4.90999985    1.48000002
   14.59444427   -1.00000000    4.90999985    1.48000002
   14.59749985   -1.00000000    4.90999985    1.48000002
   14.60111141   -1.00000000    4.90999985    1.48000002
   14.60444450   -1.00000000    4.90999985    1.48000002
   14.60750008   -1.00000000    4.90999985    1.48000002
   14.61083412   -1.00000000    4.90999985    1.48000002
   14.61416721   -1.00000000    4.90999985    1.48000002
   14.61722279   -1.00000000    4.90999985    1.48000002
   14.62055588   -1.00000000    4.90999985    1.48000002
   14.62388897   -1.00000000    4.90999985    1.48000002
   14.63388920   -1.00000000    4.90999985    1.48000002
   14.63777733   -1.00000000    4.90999985    1.48000002
   14.64083290   -1.00000000    4.90999985    1.48000002
   14.64416695   -1.00000000    4.90999985    1.48000002
   14.64722252   -1.00000000    4.90999985    1.48000002
   14.65055561   -1.00000000    4.90999985    1.48000002
   14.65388870   -1.00000000    4.90999985    1.48000002
   14.65694427   -1.00000000    4.90999985    1.48000002
   14.66027737   -1.00000000    4.90999985    1.48000002
   14.66361046  217.85299683    4.90999985    1.48000002
   14.66666698  276.18899536    4.90999985    1.48000002
   14.66777802  225.30400085    4.90999985    1.48000002
   14.67277813  225.30400085    4.90999985    1.48000002
   14.67694473  176.99099731    4.90999985    1.48000002
   14.68000031  177.86999512    4.90999985    1.48000002
   14.68333340  160.74000549    4.90999985    1.48000002
   14.68666649  154.70399475    4.90999985    1.48000002
   14.68972206  155.46499634    4.90999985    1.48000002
   14.69305515  149.25199890    4.90999985    1.48000002
   14.69611073  165.11099243    4.90999985    1.48000002
   14.69944477  151.51800537    4.90999985    1.48000002
   14.70111084  152.49899292    4.90999985    1.48000002
   14.70305538  151.77400208    4.90999985    1.48000002
   14.70611095  144.01899719    4.90999985    1.48000002
   14.70944405  154.13299561    4.90999985    1.48000002
   14.71555519  154.13299561    4.90999985    1.48000002
   14.71972179  151.20300293    4.90999985    1.48000002
   14.72305489  150.23300171    4.90999985    1.48000002
   14.72611046  145.68899536    4.90999985    1.48000002
   14.72944355  156.89100647    4.90999985    1.48000002
   14.73277760  146.47000122    4.90999985    1.48000002
   14.73444462  151.14300537    4.90999985    1.48000002
   14.73638916  156.71499634    4.90999985    1.48000002
   14.73944473  179.94200134    4.90999985    1.48000002
   14.74277782  176.11999512    4.90999985    1.48000002
   14.74611092  255.78500366    4.90999985    1.48000002
   14.74916649  171.93499756    4.90999985    1.48000002
   14.75249958  161.13800049    4.90999985    1.48000002
   14.75833321  161.13800049    4.90999985    1.48000002
   14.76249981  110.04900360    4.90999985    1.48000002
   14.76583290  219.74000549    4.90999985    1.48000002
   14.76777744  179.19799805    4.90999985    1.48000002
   14.76944447  160.46200562    4.90999985    1.48000002
   14.77250004  183.85000610    4.90999985    1.48000002
   14.77583313  167.49800110    4.90999985    1.48000002
   14.77916622  149.30000305    4.90999985    1.48000002
   14.78222179  154.23800659    4.90999985    1.48000002
   14.78555584  145.41200256    4.90999985    1.48000002
   14.78888893  144.41099548    4.90999985    1.48000002
   14.79194450  142.68899536    4.90999985    1.48000002
   14.79527855  141.69500732    4.90999985    1.48000002
   14.80138874  141.69500732    4.90999985    1.48000002
   14.80527782  202.89199829    4.90999985    1.48000002
   14.80861092  150.83700562    4.90999985    1.48000002
   14.81194496  192.61700439    4.90999985    1.48000002
   14.81500053   63.26480103    4.90999985    1.48000002
   14.81833363  171.05200195    4.90999985    1.48000002
   14.82166672   -1.00000000    4.90999985    1.48000002
   14.82472229  122.76300049    4.90999985    1.48000002
   14.82805538  152.20799255    4.90999985    1.48000002
   14.83111095  182.10000610    4.90999985    1.48000002
   14.83444405  194.92700195    4.90999985    1.48000002
   14.83500004  216.84399414    4.90999985    1.48000002
   14.83833313  201.10400391    4.90999985    1.48000002
   14.84416676  201.10400391    4.90999985    1.48000002
   14.84833336   81.33480072    4.90999985    1.48000002
   14.85138893   71.22650146    4.90999985    1.48000002
   14.85472298  145.52200317    4.90999985    1.48000002
   14.85805607   23.57019997    4.90999985    1.48000002
   14.86111164   49.27510071    4.90999985    1.48000002
   14.86444473  141.29200745    4.90999985    1.48000002
   14.86750031  157.93400574    4.90999985    1.48000002
   14.86805534  187.02200317    4.90999985    1.48000002
   14.87138939  151.33299255    4.90999985    1.48000002
   14.87472248  141.34800720    4.90999985    1.48000002
   14.87777805  140.64700317    4.90999985    1.48000002
   14.88111115  152.44000244    4.90999985    1.48000002
   14.88694477  152.44000244    4.90999985    1.48000002
   14.89111137  100.39700317    4.90999985    1.48000002
   14.89444447  135.96499634    4.90999985    1.48000002
   14.89750004   -1.00000000    4.90999985    1.48000002
   14.90083313   -1.00000000    4.90999985    1.48000002
   14.90444374   -1.00000000    4.90999985    1.48000002
   14.90749931   -1.00000000    4.90999985    1.48000002
   14.91083336   -1.00000000    4.90999985    1.48000002
   14.91416645  189.45700073    4.90999985    1.48000002
   14.91722298  145.94099426    4.90999985    1.48000002
   14.92055607  151.82200623    4.90999985    1.48000002
   14.92361164  150.58299255    4.90999985    1.48000002
   14.92972279  150.58299255    4.90999985    1.48000002
   14.93388939  168.31399536    4.90999985    1.48000002
   14.93472195  173.62399292    4.90999985    1.48000002
   15.03722286   -1.00000000   -1.00000000   -1.00000000
   15.14638901   -1.00000000   -1.00000000   -1.00000000
   15.26388931   -1.00000000   -1.00000000   -1.00000000
   15.29972267   -1.00000000    4.90999985    1.48000002
   15.30277824   -1.00000000    4.90999985    1.48000002
   15.30611134   -1.00000000    4.90999985    1.48000002
   15.30944443   -1.00000000    4.90999985    1.48000002
   15.31250000   -1.00000000    4.90999985    1.48000002
   15.31666660   -1.00000000    4.90999985    1.48000002
   15.32083321   -1.00000000    4.90999985    1.48000002
   15.32388878  275.01400757    4.90999985    1.48000002
   15.32722187  252.38999939    4.90999985    1.48000002
   15.33083344   -1.00000000    4.90999985    1.48000002
   15.33416653   -1.00000000    4.90999985    1.48000002
   15.33722210   -1.00000000    4.90999985    1.48000002
   15.34055519   -1.00000000    4.90999985    1.48000002
   15.34388828   -1.00000000    4.90999985    1.48000002
   15.34694386   -1.00000000    4.90999985    1.48000002
   15.35027790   -1.00000000    4.90999985    1.48000002
   15.35361195   -1.00000000    4.90999985    1.48000002
   15.36361122   -1.00000000    4.90999985    1.48000002
   15.36694431   -1.00000000    4.90999985    1.48000002
   15.36999989   -1.00000000    4.90999985    1.48000002
   15.37333393   -1.00000000    4.90999985    1.48000002
   15.37638855  118.05999756    4.90999985    1.48000002
   15.37972260  299.51000977    4.90999985    1.48000002
   15.38305569   84.47229767    4.90999985    1.48000002
   15.38611126  158.19299316    4.90999985    1.48000002
   15.38944435  139.34399414    4.90999985    1.48000002
   15.39277744  141.58099365    4.90999985    1.48000002
   15.39583302  148.86099243    4.90999985    1.48000002
   15.39638901  143.83999634    4.90999985    1.48000002
   15.40222168  143.83999634    4.90999985    1.48000002
   15.40638828  144.45799255    4.90999985    1.48000002
   15.40972137  145.63800049    4.90999985    1.48000002
   15.41305542  142.45899963    4.90999985    1.48000002
   15.41611099  147.28599548    4.90999985    1.48000002
   15.41944504  147.05599976    4.90999985    1.48000002
   15.42250061  144.54100037    4.90999985    1.48000002
   15.42583370  139.39500427    4.90999985    1.48000002
   15.42916679  138.69000244    4.90999985    1.48000002
   15.42972279  135.81500244    4.90999985    1.48000002
   15.43277836  132.35800171    4.90999985    1.48000002
   15.43583298  143.71400452    4.90999985    1.48000002
   15.43916702  136.05400085    4.90999985    1.48000002
   15.44527817  136.05400085    4.90999985    1.48000002
   15.44944477  140.55200195    4.90999985    1.48000002
   15.45249939  132.78700256    4.90999985    1.48000002
   15.45583344  137.75999451    4.90999985    1.48000002
   15.45888901  137.31500244    4.90999985    1.48000002
   15.46222210  136.55900574    4.90999985    1.48000002
   15.46305561  138.74400330    4.90999985    1.48000002
   15.46583271  139.61500549    4.90999985    1.48000002
   15.46888828  143.75599670    4.90999985    1.48000002
   15.47222137  141.02000427    4.90999985    1.48000002
   15.47555542  144.81300354    4.90999985    1.48000002
   15.47861099  262.22000122    4.90999985    1.48000002
   15.48194408   85.40529633    4.90999985    1.48000002
   15.49222279   -1.00000000    4.90999985    1.48000002
   15.49527836   -1.00000000    4.90999985    1.48000002
   15.49916649  133.22999573    4.90999985    1.48000002
   15.50222206  245.72200012    4.90999985    1.48000002
   15.50555515   -1.00000000    4.90999985    1.48000002
   15.50861073   -1.00000000    4.90999985    1.48000002
   15.51194477   -1.00000000    4.90999985    1.48000002
   15.51527786   -1.00000000    4.90999985    1.48000002
   15.51833344   -1.00000000    4.90999985    1.48000002
   15.52166653   -1.00000000    4.90999985    1.48000002
   15.52499962   -1.00000000    4.90999985    1.48000002
   15.53500080   -1.00000000    4.90999985    1.48000002
   15.53833389   -1.00000000    4.90999985    1.48000002
   15.54138947   -1.00000000    4.90999985    1.48000002
   15.54472256   -1.00000000    4.90999985    1.48000002
   15.54777813   -1.00000000    4.90999985    1.48000002
   15.55111122   -1.00000000    4.90999985    1.48000002
   15.55444431   -1.00000000    4.90999985    1.48000002
   15.55749989   -1.00000000    4.90999985    1.48000002
   15.56083393   -1.00000000    4.90999985    1.48000002
   15.56416702   -1.00000000    4.90999985    1.48000002
   15.56750011   -1.00000000    4.90999985    1.48000002
   15.57777786   -1.00000000    4.90999985    1.48000002
   15.58111095   -1.00000000    4.90999985    1.48000002
   15.58416653   -1.00000000    4.90999985    1.48000002
   15.58749962   -1.00000000    4.90999985    1.48000002
   15.59083271   -1.00000000    4.90999985    1.48000002
   15.59388828   -1.00000000    4.90999985    1.48000002
   15.59749985   -1.00000000    4.90999985    1.48000002
   15.60083389  509.07400513    4.90999985    1.48000002
   15.60277843  365.39401245    4.90999985    1.48000002
   15.60416698  248.36300659    4.90999985    1.48000002
   15.60416698   -1.00000000    4.90999985    1.48000002
   15.60416698   -1.00000000    4.90999985    1.48000002
   15.60444450   -1.00000000    4.90999985    1.48000002
   15.60444450   -1.00000000    4.90999985    1.48000002
   15.60444450   -1.00000000    4.90999985    1.48000002
   15.60444450   -1.00000000    4.90999985    1.48000002
   15.60444450  509.07400513    4.90999985    1.48000002
   15.60472298   -1.00000000    4.90999985    1.48000002
   15.60472298   -1.00000000    4.90999985    1.48000002
   15.60555553  226.09399414    4.90999985    1.48000002
   15.60861111  200.40100098    4.90999985    1.48000002
   15.61194515  195.70399475    4.90999985    1.48000002
   15.61527824  210.22500610    4.90999985    1.48000002
   15.61833382  188.07099915    4.90999985    1.48000002
   15.62500000  188.07099915    4.90999985    1.48000002
   15.62916660  165.30099487    4.90999985    1.48000002
   15.63222218  204.09399414    4.90999985    1.48000002
   15.63555527  106.57299805    4.90999985    1.48000002
   15.63805580  264.87100220    4.90999985    1.48000002
   15.63888836   62.83599854    4.90999985    1.48000002
   15.64222240   -1.00000000    4.90999985    1.48000002
   15.64555550   -1.00000000    4.90999985    1.48000002
   15.64861107   67.77839661    4.90999985    1.48000002
   15.65194416   -1.00000000    4.90999985    1.48000002
   15.65527725   -1.00000000    4.90999985    1.48000002
   15.65833282   -1.00000000    4.90999985    1.48000002
   15.66166592   -1.00000000    4.90999985    1.48000002
   15.67194462   -1.00000000    4.90999985    1.48000002
   15.67500019   -1.00000000    4.90999985    1.48000002
   15.67833328   -1.00000000    4.90999985    1.48000002
   15.68166733   -1.00000000    4.90999985    1.48000002
   15.68472195   -1.00000000    4.90999985    1.48000002
   15.68805599   -1.00000000    4.90999985    1.48000002
   15.69138908   -1.00000000    4.90999985    1.48000002
   15.69444466   -1.00000000    4.90999985    1.48000002
   15.69777775   -1.00000000    4.90999985    1.48000002
   15.70083332   -1.00000000    4.90999985    1.48000002
   15.70416641   -1.00000000    4.90999985    1.48000002
   15.71472168   -1.00000000    4.90999985    1.48000002
   15.71805477   -1.00000000    4.90999985    1.48000002
   15.72111034   -1.00000000    4.90999985    1.48000002
   15.72444439   -1.00000000    4.90999985    1.48000002
   15.72777748   -1.00000000    4.90999985    1.48000002
   15.73083305   -1.00000000    4.90999985    1.48000002
   15.73416710   -1.00000000    4.90999985    1.48000002
   15.73722267   -1.00000000    4.90999985    1.48000002
   15.74083328   -1.00000000    4.90999985    1.48000002
   15.74416733   -1.00000000    4.90999985    1.48000002
   15.74750042   -1.00000000    4.90999985    1.48000002
   15.75749969   -1.00000000    4.90999985    1.48000002
   15.76083374   -1.00000000    4.90999985    1.48000002
   15.76416683   -1.00000000    4.90999985    1.48000002
   15.76722240   -1.00000000    4.90999985    1.48000002
   15.77055550   -1.00000000    4.90999985    1.48000002
   15.77388859   -1.00000000    4.90999985    1.48000002
   15.77722168   -1.00000000    4.90999985    1.48000002
   15.78055573   -1.00000000    4.90999985    1.48000002
   15.78361130   -1.00000000    4.90999985    1.48000002
   15.78694534   -1.00000000    4.90999985    1.48000002
   15.79027843   -1.00000000    4.90999985    1.48000002
   15.80055618   -1.00000000    4.90999985    1.48000002
   15.80388927   -1.00000000    4.90999985    1.48000002
   15.80722237   -1.00000000    4.90999985    1.48000002
   15.81055546   -1.00000000    4.90999985    1.48000002
   15.81388950   -1.00000000    4.90999985    1.48000002
   15.81694412   -1.00000000    4.90999985    1.48000002
   15.82027817   -1.00000000    4.90999985    1.48000002
   15.82361126   -1.00000000    4.90999985    1.48000002
   15.82666683   -1.00000000    4.90999985    1.48000002
   15.82999992   -1.00000000    4.90999985    1.48000002
   15.83305550   -1.00000000    4.90999985    1.48000002
   15.84333324   -1.00000000    4.90999985    1.48000002
   15.84638882   -1.00000000    4.90999985    1.48000002
   15.84972191   -1.00000000    4.90999985    1.48000002
   15.85305595   -1.00000000    4.90999985    1.48000002
   15.85611153   -1.00000000    4.90999985    1.48000002
   15.85944462   -1.00000000    4.90999985    1.48000002
   15.86250019   -1.00000000    4.90999985    1.48000002
   15.86583328   -1.00000000    4.90999985    1.48000002
   15.86916637   -1.00000000    4.90999985    1.48000002
   15.87250042   -1.00000000    4.90999985    1.48000002
   15.87583351   -1.00000000    4.90999985    1.48000002
   15.88611126   -1.00000000    4.90999985    1.48000002
   15.88944435   -1.00000000    4.90999985    1.48000002
   15.89249992   -1.00000000    4.90999985    1.48000002
   15.89583302   -1.00000000    4.90999985    1.48000002
   15.89888859   -1.00000000    4.90999985    1.48000002
   15.90222168   -1.00000000    4.90999985    1.48000002
   15.90583324   -1.00000000    4.90999985    1.48000002
   15.90916634   -1.00000000    4.90999985    1.48000002
   15.91249943   -1.00000000    4.90999985    1.48000002
   15.91555500   -1.00000000    4.90999985    1.48000002
   15.91888905   -1.00000000    4.90999985    1.48000002
   15.92888927  275.08200073    4.90999985    1.48000002
   15.93222237  217.95599365    4.90999985    1.48000002
   15.93555546  104.63999939    4.90999985    1.48000002
   15.93805599  159.55900574    4.90999985    1.48000002
   15.93916702  203.63900757    4.90999985    1.48000002
   15.94222260  100.66899872    4.90999985    1.48000002
   15.94555569  194.83200073    4.90999985    1.48000002
   15.94861126  302.69500732    4.90999985    1.48000002
   15.95194435   47.86819839    4.90999985    1.48000002
   15.95527744   87.81169891    4.90999985    1.48000002
   15.95833302  252.58099365    4.90999985    1.48000002
   15.96166611  178.73399353    4.90999985    1.48000002
   15.96777725  178.73399353    4.90999985    1.48000002
   15.97194386  188.43099976    4.90999985    1.48000002
   15.97499943  163.99400330    4.90999985    1.48000002
   15.97833252  149.51699829    4.90999985    1.48000002
   15.98166656  168.24299622    4.90999985    1.48000002
   15.98472214  166.25399780    4.90999985    1.48000002
   15.98805618  160.58799744    4.90999985    1.48000002
   15.99111176  156.35099792    4.90999985    1.48000002
   15.99444485  164.45199585    4.90999985    1.48000002
   15.99777794  170.91700745    4.90999985    1.48000002
   16.00083351  159.14799500    4.90999985    1.48000002
   16.00416756  153.96800232    4.90999985    1.48000002
   16.00472260  157.93800354    4.90999985    1.48000002
   16.01055527  157.93800354    4.90999985    1.48000002
   16.01472282  164.85000610    4.90999985    1.48000002
   16.01805496  154.42599487    4.90999985    1.48000002
   16.02111053  158.40400696    4.90999985    1.48000002
   16.02444458  150.23500061    4.90999985    1.48000002
   16.02777672  155.50500488    4.90999985    1.48000002
   16.03083229  154.78900146    4.90999985    1.48000002
   16.03416634  156.69599915    4.90999985    1.48000002
   16.03750038  146.18600464    4.90999985    1.48000002
   16.03805542  142.41200256    4.90999985    1.48000002
   16.04111099  152.77900696    4.90999985    1.48000002
   16.04416656  145.81199646    4.90999985    1.48000002
   16.04749870  146.96800232    4.90999985    1.48000002
   16.05333328  146.96800232    4.90999985    1.48000002
   16.05749893  134.29400635    4.90999985    1.48000002
   16.06083298  151.97900391    4.90999985    1.48000002
   16.06388855  140.22799683    4.90999985    1.48000002
   16.06722260  145.54899597    4.90999985    1.48000002
   16.07055664  146.21400452    4.90999985    1.48000002
   16.07139015  143.77400208    4.90999985    1.48000002
   16.07416725  146.14199829    4.90999985    1.48000002
   16.07722282  143.03100586    4.90999985    1.48000002
   16.08055687  150.96000671    4.90999985    1.48000002
   16.08388901  150.32499695    4.90999985    1.48000002
   16.08694458  250.39900208    4.90999985    1.48000002
   16.09027863  318.78500366    4.90999985    1.48000002
   16.09611130  318.78500366    4.90999985    1.48000002
   16.10027885  191.26199341    4.90999985    1.48000002
   16.10361099  146.09399414    4.90999985    1.48000002
   16.10472298  149.97500610    4.90999985    1.48000002
   16.10722351  158.58299255    4.90999985    1.48000002
   16.11027908  151.92599487    4.90999985    1.48000002
   16.11361122  160.43899536    4.90999985    1.48000002
   16.11694527  152.29600525    4.90999985    1.48000002
   16.12000084  146.20199585    4.90999985    1.48000002
   16.12333298  152.52299500    4.90999985    1.48000002
   16.12638855  151.74800110    4.90999985    1.48000002
   16.12972260  147.75300598    4.90999985    1.48000002
   16.13305473  155.68400574    4.90999985    1.48000002
   16.13916588  155.68400574    4.90999985    1.48000002
   16.14333344  145.29699707    4.90999985    1.48000002
   16.14638901  155.71800232    4.90999985    1.48000002
   16.14972115  159.03100586    4.90999985    1.48000002
   16.15277672  157.04100037    4.90999985    1.48000002
   16.15611076  175.48699951    4.90999985    1.48000002
   16.15944481  156.77000427    4.90999985    1.48000002
   16.16250038  146.35200500    4.90999985    1.48000002
   16.16583252  164.44299316    4.90999985    1.48000002
   16.16916656  151.17399597    4.90999985    1.48000002
   16.17138863  157.49400330    4.90999985    1.48000002
   16.17277718  169.78300476    4.90999985    1.48000002
   16.17583275  165.19099426    4.90999985    1.48000002
   16.18194389  165.19099426    4.90999985    1.48000002
   16.18610954  154.44299316    4.90999985    1.48000002
   16.18944359  154.23699951    4.90999985    1.48000002
   16.19249916  156.94700623    4.90999985    1.48000002
   16.19583321  162.30000305    4.90999985    1.48000002
   16.19916534  155.74699402    4.90999985    1.48000002
   16.20222282  168.91999817    4.90999985    1.48000002
   16.20472336  156.80599976    4.90999985    1.48000002
   16.20611191  163.45300293    4.90999985    1.48000002
   16.20916748  163.64399719    4.90999985    1.48000002
   16.21250153  151.55599976    4.90999985    1.48000002
   16.21583366  157.18200684    4.90999985    1.48000002
   16.21888924  145.19799805    4.90999985    1.48000002
   16.22472191  145.19799805    4.90999985    1.48000002
   16.22888947   -1.00000000    4.90999985    1.48000002
   16.23222351  150.75799561    4.90999985    1.48000002
   16.23527718  206.96800232    4.90999985    1.48000002
   16.23805618  197.61799622    4.90999985    1.48000002
   16.23916626  303.29400635    4.90999985    1.48000002
   16.24222183  192.62100220    4.90999985    1.48000002
   16.24555588  238.82099915    4.90999985    1.48000002
   16.24888992   -1.00000000    4.90999985    1.48000002
   16.25194359   -1.00000000    4.90999985    1.48000002
   16.25527763   -1.00000000    4.90999985    1.48000002
   16.25833321   -1.00000000    4.90999985    1.48000002
   16.26166725   95.89630127    4.90999985    1.48000002
   16.26749992   95.89630127    4.90999985    1.48000002
   16.27166557  184.45500183    4.90999985    1.48000002
   16.27499962   46.07300186    4.90999985    1.48000002
   16.27833366   -1.00000000    4.90999985    1.48000002
   16.28138924   -1.00000000    4.90999985    1.48000002
   16.28472137   -1.00000000    4.90999985    1.48000002
   16.28777695   -1.00000000    4.90999985    1.48000002
   16.29111099   -1.00000000    4.90999985    1.48000002
   16.29444313   -1.00000000    4.90999985    1.48000002
   16.32166672   -1.00000000    4.90999985    1.48000002
   16.32500076   -1.00000000    4.90999985    1.48000002
   16.32833481   -1.00000000    4.90999985    1.48000002
   16.33139038   37.90919876    4.90999985    1.48000002
   16.33472252  139.12100220    4.90999985    1.48000002
   16.33805656  209.94200134    4.90999985    1.48000002
   16.34111214  273.67498779    4.90999985    1.48000002
   16.34444427  268.87701416    4.90999985    1.48000002
   16.34694481  185.90800476    4.90999985    1.48000002
   16.34777832  178.87699890    4.90999985    1.48000002
   16.35111237  254.91499329    4.90999985    1.48000002
   16.35444450  240.60499573    4.90999985    1.48000002
   16.36055565  240.60499573    4.90999985    1.48000002
   16.36472321  136.81100464    4.90999985    1.48000002
   16.36805534  168.01800537    4.90999985    1.48000002
   16.37111092   -1.00000000    4.90999985    1.48000002
   16.37444496   -1.00000000    4.90999985    1.48000002
   16.37777710  241.32600403    4.90999985    1.48000002
   16.38027763  173.07000732    4.90999985    1.48000002
   16.38138962  166.35699463    4.90999985    1.48000002
   16.38444519  169.52900696    4.90999985    1.48000002
   16.38777733  170.74600220    4.90999985    1.48000002
   16.39083290  203.24699402    4.90999985    1.48000002
   16.39416695  237.70899963    4.90999985    1.48000002
   16.39749908  344.76000977    4.90999985    1.48000002
   16.40333366  344.76000977    4.90999985    1.48000002
   16.40749931  274.96200562    4.90999985    1.48000002
   16.41083336  206.45100403    4.90999985    1.48000002
   16.41361046  197.89999390    4.90999985    1.48000002
   16.41416550  200.51499939    4.90999985    1.48000002
   16.41749954  187.42100525    4.90999985    1.48000002
   16.42083359  227.63999939    4.90999985    1.48000002
   16.42388916  183.27200317    4.90999985    1.48000002
   16.42722130  175.36199951    4.90999985    1.48000002
   16.43055534  163.59100342    4.90999985    1.48000002
   16.43361092  163.22599792    4.90999985    1.48000002
   16.43694305  179.91000366    4.90999985    1.48000002
   16.44027710  164.32499695    4.90999985    1.48000002
   16.44638824  164.32499695    4.90999985    1.48000002
   16.45055580  184.57699585    4.90999985    1.48000002
   16.45361137  171.71600342    4.90999985    1.48000002
   16.45694542  162.69299316    4.90999985    1.48000002
   16.46000099  164.11000061    4.90999985    1.48000002
   16.46333504  181.93499756    4.90999985    1.48000002
   16.46666718  143.76899719    4.90999985    1.48000002
   16.46972275  150.14599609    4.90999985    1.48000002
   16.47305679  158.64599609    4.90999985    1.48000002
   16.47638893  161.51300049    4.90999985    1.48000002
   16.47944450  154.23300171    4.90999985    1.48000002
   16.48139000  149.63600159    4.90999985    1.48000002
   16.48333359  153.23100281    4.90999985    1.48000002
   16.48916626  153.23100281    4.90999985    1.48000002
   16.49333382  148.99499512    4.90999985    1.48000002
   16.49638939  149.68099976    4.90999985    1.48000002
   16.49972153  141.54699707    4.90999985    1.48000002
   16.50277710  136.88600159    4.90999985    1.48000002
   16.50611115  142.53199768    4.90999985    1.48000002
   16.50944519  142.13200378    4.90999985    1.48000002
   16.51250076  134.72900391    4.90999985    1.48000002
   16.51472282  145.15400696    4.90999985    1.48000002
   16.51638794  150.64799500    4.90999985    1.48000002
   16.51944351  150.74200439    4.90999985    1.48000002
   16.52277756  147.68699646    4.90999985    1.48000002
   16.52583313  145.48500061    4.90999985    1.48000002
   16.53194427  145.48500061    4.90999985    1.48000002
   16.53610992  141.98800659    4.90999985    1.48000002
   16.53916550  146.76400757    4.90999985    1.48000002
   16.54249954  144.65899658    4.90999985    1.48000002
   16.54583359  142.19999695    4.90999985    1.48000002
   16.54805565  133.29400635    4.90999985    1.48000002
   16.54944420  134.48199463    4.90999985    1.48000002
   16.55277634  139.39900208    4.90999985    1.48000002
   16.55583191  135.74699402    4.90999985    1.48000002
   16.55916595  136.48599243    4.90999985    1.48000002
   16.56250000  134.40800476    4.90999985    1.48000002
   16.56555557  135.01100159    4.90999985    1.48000002
   16.56888962  145.01600647    4.90999985    1.48000002
   16.57472229  145.01600647    4.90999985    1.48000002
   16.57888985  146.67599487    4.90999985    1.48000002
   16.58139038  143.70799255    4.90999985    1.48000002
   16.58250046  149.61799622    4.90999985    1.48000002
   16.58583450  142.83299255    4.90999985    1.48000002
   16.58889008  150.53799438    4.90999985    1.48000002
   16.59222221  152.88699341    4.90999985    1.48000002
   16.59527779  149.68400574    4.90999985    1.48000002
   16.59861183  147.28100586    4.90999985    1.48000002
   16.60194397  149.08700562    4.90999985    1.48000002
   16.60499954  154.22500610    4.90999985    1.48000002
   16.60833359  145.55499268    4.90999985    1.48000002
   16.61166763  147.32000732    4.90999985    1.48000002
   16.61777878  147.32000732    4.90999985    1.48000002
   16.62166595  150.97599792    4.90999985    1.48000002
   16.62500000  140.77000427    4.90999985    1.48000002
   16.62833405  139.11999512    4.90999985    1.48000002
   16.63138962  133.14199829    4.90999985    1.48000002
   16.63472176  151.73300171    4.90999985    1.48000002
   16.63777733  148.91499329    4.90999985    1.48000002
   16.64111137  144.94200134    4.90999985    1.48000002
   16.64444351  142.66099548    4.90999985    1.48000002
   16.64749908  157.10800171    4.90999985    1.48000002
   16.64861107  165.11700439    4.90999985    1.48000002
   16.65138817  209.42700195    4.90999985    1.48000002
   16.65444374  228.66000366    4.90999985    1.48000002
   16.66055489  228.66000366    4.90999985    1.48000002
   16.66472244  171.10899353    4.90999985    1.48000002
   16.66777802  173.36399841    4.90999985    1.48000002
   16.67111015  282.35000610    4.90999985    1.48000002
   16.67416573  215.25900269    4.90999985    1.48000002
   16.67749977  132.79499817    4.90999985    1.48000002
   16.68083191  144.84399414    4.90999985    1.48000002
   16.68194389  322.61300659    4.90999985    1.48000002
   16.68416595  254.39900208    4.90999985    1.48000002
   16.68750000  288.86599731    4.90999985    1.48000002
   16.69083214  161.57899475    4.90999985    1.48000002
   16.69388771   -1.00000000    4.90999985    1.48000002
   16.69722176   -1.00000000    4.90999985    1.48000002
   16.70333481   -1.00000000    4.90999985    1.48000002
   16.70750046   -1.00000000    4.90999985    1.48000002
   16.71055603   72.47100067    4.90999985    1.48000002
   16.71389008  120.39399719    4.90999985    1.48000002
   16.71527863   98.59339905    4.90999985    1.48000002
   16.71750069   -1.00000000    4.90999985    1.48000002
   16.72083473  236.39999390    4.90999985    1.48000002
   16.72389030  189.10800171    4.90999985    1.48000002
   16.72722244  176.00500488    4.90999985    1.48000002
   16.73055649  142.01800537    4.90999985    1.48000002
   16.73361206  174.45799255    4.90999985    1.48000002
   16.73694420  320.12899780    4.90999985    1.48000002
   16.74027824  200.11000061    4.90999985    1.48000002
   16.74611092  200.11000061    4.90999985    1.48000002
   16.75027847  226.47099304    4.90999985    1.48000002
   16.75361061  189.65800476    4.90999985    1.48000002
   16.75666618  257.26098633    4.90999985    1.48000002
   16.76000023  262.47601318    4.90999985    1.48000002
   16.76333427  255.95599365    4.90999985    1.48000002
   16.76638794  207.27699280    4.90999985    1.48000002
   16.76972198  190.38800049    4.90999985    1.48000002
   16.77277756  204.53500366    4.90999985    1.48000002
   16.77611160  231.71899414    4.90999985    1.48000002
   16.77944374  196.59899902    4.90999985    1.48000002
   16.78194427  186.79400635    4.90999985    1.48000002
   16.78305435  195.64500427    4.90999985    1.48000002
   16.78888893  195.64500427    4.90999985    1.48000002
   16.79305458  171.18299866    4.90999985    1.48000002
   16.79638863  183.08399963    4.90999985    1.48000002
   16.79972076  166.27200317    4.90999985    1.48000002
   16.80277634  164.58999634    4.90999985    1.48000002
   16.80611038  155.44200134    4.90999985    1.48000002
   16.80916595  149.11099243    4.90999985    1.48000002
   16.81250000  153.08700562    4.90999985    1.48000002
   16.81555557  151.76100159    4.90999985    1.48000002
   16.81611061  149.82499695    4.90999985    1.48000002
   16.81944466  163.44200134    4.90999985    1.48000002
   16.82250023  157.60200500    4.90999985    1.48000002
   16.82583427  153.86000061    4.90999985    1.48000002
   16.83194542  153.86000061    4.90999985    1.48000002
   16.83611107  140.89300537    4.90999985    1.48000002
   16.83916664  169.52900696    4.90999985    1.48000002
   16.84250069  159.42900085    4.90999985    1.48000002
   16.84583473  170.48899841    4.90999985    1.48000002
   16.84889030  158.31900024    4.90999985    1.48000002
   16.84916687  160.88900757    4.90999985    1.48000002
   16.85250092  153.11199951    4.90999985    1.48000002
   16.85583305  162.40899658    4.90999985    1.48000002
   16.85888863  156.95399475    4.90999985    1.48000002
   16.86222267  142.95700073    4.90999985    1.48000002
   16.86527824  155.74600220    4.90999985    1.48000002
   16.86888885  148.35200500    4.90999985    1.48000002
   16.87472153  148.35200500    4.90999985    1.48000002
   16.87888908  148.26499939    4.90999985    1.48000002
   16.88222313  152.39999390    4.90999985    1.48000002
   16.88249969  166.44599915    4.90999985    1.48000002
   16.88583374  143.55000305    4.90999985    1.48000002
   16.88916588  142.93600464    4.90999985    1.48000002
   16.89222145  138.74200439    4.90999985    1.48000002
   16.89555550  145.16299438    4.90999985    1.48000002
   16.89861107  148.24299622    4.90999985    1.48000002
   16.90194321  132.15400696    4.90999985    1.48000002
   16.90527725  138.50500488    4.90999985    1.48000002
   16.90833282  141.38600159    4.90999985    1.48000002
   16.91166687  147.16600037    4.90999985    1.48000002
   16.91749954  147.16600037    4.90999985    1.48000002
   16.92166519  154.34599304    4.90999985    1.48000002
   16.92499924  155.72500610    4.90999985    1.48000002
   16.92833328  152.11599731    4.90999985    1.48000002
   16.93138885  139.28399658    4.90999985    1.48000002
   16.93472099  149.87300110    4.90999985    1.48000002
   16.93777657  147.97099304    4.90999985    1.48000002
   16.94111061  150.78700256    4.90999985    1.48000002
   16.94444275  147.30700684    4.90999985    1.48000002
   16.94749832  148.34300232    4.90999985    1.48000002
   16.94888878  152.54400635    4.90999985    1.48000002
   16.95111275  140.51600647    4.90999985    1.48000002
   16.95444489  133.77099609    4.90999985    1.48000002
   16.96055603  133.77099609    4.90999985    1.48000002
   16.96444511  148.84599304    4.90999985    1.48000002
   16.96777916  149.51600647    4.90999985    1.48000002
   16.97111130  149.03799438    4.90999985    1.48000002
   16.97416687  153.99099731    4.90999985    1.48000002
   16.97750092  148.46000671    4.90999985    1.48000002
   16.98055649  149.03199768    4.90999985    1.48000002
   16.98222351  159.59800720    4.90999985    1.48000002
   16.98416710  153.78199768    4.90999985    1.48000002
   16.98750114  150.30200195    4.90999985    1.48000002
   16.99083328  152.91200256    4.90999985    1.48000002
   16.99388885  152.84100342    4.90999985    1.48000002
   16.99722290  153.44900513    4.90999985    1.48000002
   17.00333405  153.44900513    4.90999985    1.48000002
   17.00749969  153.50900269    4.90999985    1.48000002
   17.01055527  163.43299866    4.90999985    1.48000002
   17.01388931  153.53599548    4.90999985    1.48000002
   17.01555634  167.40400696    4.90999985    1.48000002
   17.01749992  158.93800354    4.90999985    1.48000002
   17.02083397  172.52200317    4.90999985    1.48000002
   17.02388954  164.50399780    4.90999985    1.48000002
   17.02722168  164.50399780    4.90999985    1.48000002
   17.03055573  160.26400757    4.90999985    1.48000002
   17.03361130  156.37600708    4.90999985    1.48000002
   17.03694344  161.85899353    4.90999985    1.48000002
   17.03999901  168.71499634    4.90999985    1.48000002
   17.04611015  168.71499634    4.90999985    1.48000002
   17.05027771  161.05000305    4.90999985    1.48000002
   17.05333328  158.35800171    4.90999985    1.48000002
   17.05666542  169.06900024    4.90999985    1.48000002
   17.05999947  160.69500732    4.90999985    1.48000002
   17.06305504  162.10699463    4.90999985    1.48000002
   17.06638718  156.61000061    4.90999985    1.48000002
   17.06972313  148.64199829    4.90999985    1.48000002
   17.07277870  149.93200684    4.90999985    1.48000002
   17.07611275  175.99800110    4.90999985    1.48000002
   17.07916832  160.20100403    4.90999985    1.48000002
   17.08222389  162.45899963    4.90999985    1.48000002
   17.08277893  178.95399475    4.90999985    1.48000002
   17.08889008  178.95399475    4.90999985    1.48000002
   17.09305573  181.56700134    4.90999985    1.48000002
   17.09638977  187.68699646    4.90999985    1.48000002
   17.09944534  185.08500671    4.90999985    1.48000002
   17.10277748  194.03700256    4.90999985    1.48000002
   17.10611153  165.45500183    4.90999985    1.48000002
   17.10916710  165.17300415    4.90999985    1.48000002
   17.11250114  169.60800171    4.90999985    1.48000002
   17.11555672  158.71299744    4.90999985    1.48000002
   17.11611176  143.00399780    4.90999985    1.48000002
   17.11944389  160.89100647    4.90999985    1.48000002
   17.12249947  145.62699890    4.90999985    1.48000002
   17.12583351  150.64799500    4.90999985    1.48000002
   17.13166618  150.64799500    4.90999985    1.48000002
   17.13638878  167.76300049    4.90999985    1.48000002
   17.13944435  154.94000244    4.90999985    1.48000002
   17.14277840  152.24099731    4.90999985    1.48000002
   17.14583397  154.61399841    4.90999985    1.48000002
   17.14888954  153.43099976    4.90999985    1.48000002
   17.14944458  160.77699280    4.90999985    1.48000002
   17.15277672  141.75500488    4.90999985    1.48000002
   17.15583229  157.39900208    4.90999985    1.48000002
   17.15916634  154.32899475    4.90999985    1.48000002
   17.16250038  145.53100586    4.90999985    1.48000002
   17.16555595  143.54400635    4.90999985    1.48000002
   17.16888809  157.83099365    4.90999985    1.48000002
   17.17472076  157.83099365    4.90999985    1.48000002
   17.17888832  105.58499908    4.90999985    1.48000002
   17.18194389   -1.00000000    4.90999985    1.48000002
   17.18249893  151.80599976    4.90999985    1.48000002
   17.18555450  221.39799500    4.90999985    1.48000002
   17.18861008  231.96299744    4.90999985    1.48000002
   17.19194412  202.08000183    4.90999985    1.48000002
   17.19527626  229.56900024    4.90999985    1.48000002
   17.19833183  265.91598511    4.90999985    1.48000002
   17.20166779  205.25599670    4.90999985    1.48000002
   17.20472336  203.14300537    4.90999985    1.48000002
   17.20805550  301.63900757    4.90999985    1.48000002
   17.21138954   -1.00000000    4.90999985    1.48000002
   17.22166634   76.95970154    4.90999985    1.48000002
   17.22472191   -1.00000000    4.90999985    1.48000002
   17.22805595   -1.00000000    4.90999985    1.48000002
   17.23139000   -1.00000000    4.90999985    1.48000002
   17.23444557   -1.00000000    4.90999985    1.48000002
   17.23777771   -1.00000000    4.90999985    1.48000002
   17.24111176  127.19100189    4.90999985    1.48000002
   17.24416733   -1.00000000   -1.00000000   -1.00000000
   17.24749947   -1.00000000    4.90999985    1.48000002
   17.25083351   -1.00000000    4.90999985    1.48000002
   17.25416756   -1.00000000    4.90999985    1.48000002
   17.26027870   -1.00000000    4.90999985    1.48000002
   17.26444435  176.21000671    4.90999985    1.48000002
   17.26777840   91.50379944    4.90999985    1.48000002
   17.27083397  102.05200195    4.90999985    1.48000002
   17.27416611   -1.00000000   -1.00000000   -1.00000000
   17.27750015  144.27699280    4.90999985    1.48000002
   17.28055573   70.82319641    4.90999985    1.48000002
   17.28249931  117.81900024    4.90999985    1.48000002
   17.28444481  148.00900269    4.90999985    1.48000002
   17.28750038  143.85200500    4.90999985    1.48000002
   17.29083252  263.93701172    4.90999985    1.48000002
   17.29416656  286.18200684    4.90999985    1.48000002
   17.29722214  303.11801147    4.90999985    1.48000002
   17.30305481  303.11801147    4.90999985    1.48000002
   17.30722237  240.38499451    4.90999985    1.48000002
   17.31055450  231.53500366    4.90999985    1.48000002
   17.31388855  201.91099548    4.90999985    1.48000002
   17.33111191  313.14898682    4.90999985    1.48000002
   17.33361244   -1.00000000    4.90999985    1.48000002
   17.33694458  186.14700317    4.90999985    1.48000002
   17.34027863  153.87199402    4.90999985    1.48000002
   17.34611130  153.87199402    4.90999985    1.48000002
   17.35027885  150.27400208    4.90999985    1.48000002
   17.35361099  151.06399536    4.90999985    1.48000002
   17.35666656  152.65499878    4.90999985    1.48000002
   17.36000061  152.63499451    4.90999985    1.48000002
   17.36333466  149.83599854    4.90999985    1.48000002
   17.36444473  152.05700684    4.90999985    1.48000002
   17.36666679  155.00300598    4.90999985    1.48000002
   17.37000084  152.35200500    4.90999985    1.48000002
   17.37305641  156.04200745    4.90999985    1.48000002
   17.37638855  167.76199341    4.90999985    1.48000002
   17.37972260  157.87699890    4.90999985    1.48000002
   17.38277817  167.24299622    4.90999985    1.48000002
   17.38888931  167.24299622    4.90999985    1.48000002
   17.39305496  142.27600098    4.90999985    1.48000002
   17.39638901  156.23399353    4.90999985    1.48000002
   17.39777756  145.16999817    4.90999985    1.48000002
   17.39999962  153.44000244    4.90999985    1.48000002
   17.40333366  139.71000671    4.90999985    1.48000002
   17.40638924  157.14700317    4.90999985    1.48000002
   17.40972137  243.02299500    4.90999985    1.48000002
   17.41305542  273.57199097    4.90999985    1.48000002
   17.41638756  133.12300110    4.90999985    1.48000002
   17.41944313   -1.00000000    4.90999985    1.48000002
   17.42277718   -1.00000000    4.90999985    1.48000002
   17.42583275   -1.00000000    4.90999985    1.48000002
   17.43583298   -1.00000000    4.90999985    1.48000002
   17.43916512   -1.00000000    4.90999985    1.48000002
   17.44249916   -1.00000000    4.90999985    1.48000002
   17.44555473   -1.00000000    4.90999985    1.48000002
   17.44888878   -1.00000000    4.90999985    1.48000002
   17.45222282   -1.00000000    4.90999985    1.48000002
   17.45527840   -1.00000000    4.90999985    1.48000002
   17.45861244   -1.00000000    4.90999985    1.48000002
   17.46166801   -1.00000000    4.90999985    1.48000002
   17.46527863   -1.00000000    4.90999985    1.48000002
   17.46861076   -1.00000000    4.90999985    1.48000002
   17.47888947   -1.00000000    4.90999985    1.48000002
   17.48194504   -1.00000000    4.90999985    1.48000002
   17.48527718   -1.00000000    4.90999985    1.48000002
   17.48861122   -1.00000000    4.90999985    1.48000002
   17.49166679   -1.00000000    4.90999985    1.48000002
   17.49500084   -1.00000000    4.90999985    1.48000002
   17.49861145   -1.00000000    4.90999985    1.48000002
   17.50194359   -1.00000000    4.90999985    1.48000002
   17.50499916   -1.00000000    4.90999985    1.48000002
   17.50833321   -1.00000000    4.90999985    1.48000002
   17.51166725   -1.00000000    4.90999985    1.48000002
   17.52166557   -1.00000000    4.90999985    1.48000002
   17.52499962   -1.00000000    4.90999985    1.48000002
   17.52805519   -1.00000000    4.90999985    1.48000002
   17.53166580   -1.00000000    4.90999985    1.48000002
   17.53499985   -1.00000000    4.90999985    1.48000002
   17.53805542   -1.00000000    4.90999985    1.48000002
   17.54138756   -1.00000000    4.90999985    1.48000002
   17.54472160   -1.00000000    4.90999985    1.48000002
   17.54777718   -1.00000000    4.90999985    1.48000002
   17.55111122   -1.00000000    4.90999985    1.48000002
   17.55416679   91.24600220    4.90999985    1.48000002
   17.56027794   91.24600220    4.90999985    1.48000002
   17.56444359  258.73599243    4.90999985    1.48000002
   17.56777954  165.25500488    4.90999985    1.48000002
   17.57111168  278.60699463    4.90999985    1.48000002
   17.57416725  291.36499023    4.90999985    1.48000002
   17.57750130  276.40200806    4.90999985    1.48000002
   17.58055687  130.96499634    4.90999985    1.48000002
   17.58388901  149.45500183    4.90999985    1.48000002
   17.58722305  156.86599731    4.90999985    1.48000002
   17.59027863  214.25799561    4.90999985    1.48000002
   17.59361267  177.32000732    4.90999985    1.48000002
   17.59694481  159.44000244    4.90999985    1.48000002
   17.59777832  211.80299377    4.90999985    1.48000002
   17.60333443  211.80299377    4.90999985    1.48000002
   17.60750008  134.07099915    4.90999985    1.48000002
   17.61055565   -1.00000000    4.90999985    1.48000002
   17.61388969   -1.00000000    4.90999985    1.48000002
   17.61694527   -1.00000000    4.90999985    1.48000002
   17.62027740   -1.00000000    4.90999985    1.48000002
   17.62361145   -1.00000000    4.90999985    1.48000002
   17.62666702   -1.00000000    4.90999985    1.48000002
   17.63000107  211.55499268    4.90999985    1.48000002
   17.63111115  177.26400757    4.90999985    1.48000002
   17.63361168  142.13200378    4.90999985    1.48000002
   17.63694382   64.75340271    4.90999985    1.48000002
   17.64027786   -1.00000000    4.90999985    1.48000002
   17.64611053   -1.00000000    4.90999985    1.48000002
   17.65027809  144.05000305    4.90999985    1.48000002
   17.65333366  170.38800049    4.90999985    1.48000002
   17.65666580  302.40100098    4.90999985    1.48000002
   17.65999985  130.18400574    4.90999985    1.48000002
   17.66305542   70.52290344    4.90999985    1.48000002
   17.66444397  126.31500244    4.90999985    1.48000002
   17.66666603   95.33989716    4.90999985    1.48000002
   17.67000008   52.02289963    4.90999985    1.48000002
   17.67333221  142.55700684    4.90999985    1.48000002
   17.67638779   -1.00000000    4.90999985    1.48000002
   17.67972183   -1.00000000    4.90999985    1.48000002
   17.68277740   -1.00000000    4.90999985    1.48000002
   17.68888855   -1.00000000    4.90999985    1.48000002
   17.69305420  186.53599548    4.90999985    1.48000002
   17.69638824   -1.00000000    4.90999985    1.48000002
   17.69972038   -1.00000000    4.90999985    1.48000002
   17.70305634   -1.00000000    4.90999985    1.48000002
   17.70611191   -1.00000000    4.90999985    1.48000002
   17.70944595   -1.00000000    4.90999985    1.48000002
   17.71277809   -1.00000000    4.90999985    1.48000002
   17.71583366   -1.00000000    4.90999985    1.48000002
   17.71916771   -1.00000000    4.90999985    1.48000002
   17.72249985   -1.00000000    4.90999985    1.48000002
   17.72555542   -1.00000000    4.90999985    1.48000002
   17.73583412   -1.00000000    4.90999985    1.48000002
   17.73916626   -1.00000000    4.90999985    1.48000002
   17.74222183   -1.00000000    4.90999985    1.48000002
   17.74555588   -1.00000000    4.90999985    1.48000002
   17.74888992   -1.00000000    4.90999985    1.48000002
   17.75194359   -1.00000000    4.90999985    1.48000002
   17.75527763   -1.00000000    4.90999985    1.48000002
   17.75861168   -1.00000000    4.90999985    1.48000002
   17.76166725   -1.00000000    4.90999985    1.48000002
   17.76527786   -1.00000000    4.90999985    1.48000002
   17.76861000   -1.00000000    4.90999985    1.48000002
   17.77861023   -1.00000000    4.90999985    1.48000002
   17.78194427   -1.00000000    4.90999985    1.48000002
   17.78527641   -1.00000000    4.90999985    1.48000002
   17.78833199   -1.00000000    4.90999985    1.48000002
   17.79166603   -1.00000000    4.90999985    1.48000002
   17.79500008   -1.00000000    4.90999985    1.48000002
   17.79833221   -1.00000000    4.90999985    1.48000002
   17.80166626   -1.00000000    4.90999985    1.48000002
   17.80472183   -1.00000000    4.90999985    1.48000002
   17.80805397   -1.00000000    4.90999985    1.48000002
   17.81138802   -1.00000000    4.90999985    1.48000002
   17.82166672   -1.00000000    4.90999985    1.48000002
   17.82472229   -1.00000000    4.90999985    1.48000002
   17.82805634   -1.00000000    4.90999985    1.48000002
   17.83166695   -1.00000000    4.90999985    1.48000002
   17.83500099   -1.00000000    4.90999985    1.48000002
   17.83805656   -1.00000000    4.90999985    1.48000002
   17.84138870   -1.00000000    4.90999985    1.48000002
   17.84472275   -1.00000000    4.90999985    1.48000002
   17.84777832   -1.00000000    4.90999985    1.48000002
   17.85111237   -1.00000000    4.90999985    1.48000002
   17.85444450   -1.00000000    4.90999985    1.48000002
   17.86444473   -1.00000000    4.90999985    1.48000002
   17.86777878   -1.00000000    4.90999985    1.48000002
   17.87083435   -1.00000000    4.90999985    1.48000002
   17.87416649   -1.00000000    4.90999985    1.48000002
   17.87722206   -1.00000000    4.90999985    1.48000002
   17.88055611   -1.00000000    4.90999985    1.48000002
   17.88388824   -1.00000000    4.90999985    1.48000002
   17.88694382   -1.00000000    4.90999985    1.48000002
   17.89027786   -1.00000000    4.90999985    1.48000002
   17.89361191   -1.00000000    4.90999985    1.48000002
   17.89666748   -1.00000000    4.90999985    1.48000002
   17.90722275   -1.00000000    4.90999985    1.48000002
   17.91055489   -1.00000000    4.90999985    1.48000002
   17.91361046   -1.00000000    4.90999985    1.48000002
   17.91694450   -1.00000000    4.90999985    1.48000002
   17.92027664   -1.00000000    4.90999985    1.48000002
   17.92333221   -1.00000000    4.90999985    1.48000002
   17.92666626   -1.00000000    4.90999985    1.48000002
   17.93000031   -1.00000000    4.90999985    1.48000002
   17.93333244   -1.00000000    4.90999985    1.48000002
   17.93666649   -1.00000000    4.90999985    1.48000002
   17.93999863   -1.00000000    4.90999985    1.48000002
   17.95000076   -1.00000000    4.90999985    1.48000002
   17.95333481   -1.00000000    4.90999985    1.48000002
   17.95666695   -1.00000000    4.90999985    1.48000002
   17.95972252   -1.00000000    4.90999985    1.48000002
   17.96305656   -1.00000000    4.90999985    1.48000002
   17.96638870   -1.00000000    4.90999985    1.48000002
   17.96972275   -1.00000000    4.90999985    1.48000002
   17.97305679   -1.00000000    4.90999985    1.48000002
   17.97611237   -1.00000000    4.90999985    1.48000002
   17.97944450   -1.00000000    4.90999985    1.48000002
   17.98250008   -1.00000000    4.90999985    1.48000002
   17.99305534   -1.00000000    4.90999985    1.48000002
   17.99611092   -1.00000000    4.90999985    1.48000002
   17.99972153   -1.00000000    4.90999985    1.48000002
   18.00305557   -1.00000000    4.90999985    1.48000002
   18.00638962   -1.00000000    4.90999985    1.48000002
   18.00944519   -1.00000000    4.90999985    1.48000002
   18.01277733   -1.00000000    4.90999985    1.48000002
   18.01583290   -1.00000000    4.90999985    1.48000002
   18.01916695   -1.00000000    4.90999985    1.48000002
   18.02249908   -1.00000000    4.90999985    1.48000002
   18.02555466   -1.00000000    4.90999985    1.48000002
   18.03583336   -1.00000000    4.90999985    1.48000002
   18.03888893   -1.00000000    4.90999985    1.48000002
   18.04222107   -1.00000000    4.90999985    1.48000002
   18.04555511   -1.00000000    4.90999985    1.48000002
   18.04861069   -1.00000000    4.90999985    1.48000002
   18.05194283   -1.00000000    4.90999985    1.48000002
   18.05527687   -1.00000000    4.90999985    1.48000002
   18.05833244   -1.00000000    4.90999985    1.48000002
   18.06166649   -1.00000000    4.90999985    1.48000002
   18.06499863   -1.00000000    4.90999985    1.48000002
   18.06833458   -1.00000000    4.90999985    1.48000002
   18.07861137   -1.00000000    4.90999985    1.48000002
   18.08194542   -1.00000000    4.90999985    1.48000002
   18.08500099   -1.00000000    4.90999985    1.48000002
   18.08833313   -1.00000000    4.90999985    1.48000002
   18.09166718   -1.00000000    4.90999985    1.48000002
   18.09472275   -1.00000000    4.90999985    1.48000002
   18.09833336   -1.00000000    4.90999985    1.48000002
   18.10166740   -1.00000000    4.90999985    1.48000002
   18.10499954   -1.00000000    4.90999985    1.48000002
   18.10805511   -1.00000000    4.90999985    1.48000002
   18.11138916   -1.00000000    4.90999985    1.48000002
   18.12138939   -1.00000000    4.90999985    1.48000002
   18.12472153   -1.00000000    4.90999985    1.48000002
   18.12805557   -1.00000000    4.90999985    1.48000002
   18.13138962   -1.00000000    4.90999985    1.48000002
   18.13472176   -1.00000000    4.90999985    1.48000002
   18.13805580   -1.00000000    4.90999985    1.48000002
   18.14111137   -1.00000000    4.90999985    1.48000002
   18.14444351   -1.00000000    4.90999985    1.48000002
   18.14749908   -1.00000000    4.90999985    1.48000002
   18.15083313   -1.00000000    4.90999985    1.48000002
   18.15416718   -1.00000000    4.90999985    1.48000002
   18.16444397   -1.00000000    4.90999985    1.48000002
   18.16805458   -1.00000000    4.90999985    1.48000002
   18.17111015   -1.00000000    4.90999985    1.48000002
   18.17444420   -1.00000000    4.90999985    1.48000002
   18.17777634   -1.00000000    4.90999985    1.48000002
   18.18083191   -1.00000000    4.90999985    1.48000002
   18.18416595   -1.00000000    4.90999985    1.48000002
   18.18750000   -1.00000000    4.90999985    1.48000002
   18.19055557   -1.00000000    4.90999985    1.48000002
   18.19388771   -1.00000000    4.90999985    1.48000002
   18.19749832   -1.00000000    4.90999985    1.48000002
   18.20722389   -1.00000000    4.90999985    1.48000002
   18.21027946   -1.00000000    4.90999985    1.48000002
   18.21361160   -1.00000000    4.90999985    1.48000002
   18.21694565   -1.00000000    4.90999985    1.48000002
   18.22000122   -1.00000000    4.90999985    1.48000002
   18.22333336   -1.00000000    4.90999985    1.48000002
   18.22666740   -1.00000000    4.90999985    1.48000002
   18.22972298   -1.00000000    4.90999985    1.48000002
   18.23333359   -1.00000000    4.90999985    1.48000002
   18.23638916   -1.00000000    4.90999985    1.48000002
   18.23972321   -1.00000000    4.90999985    1.48000002
   18.25000000   -1.00000000    4.90999985    1.48000002
   18.25333405   -1.00000000    4.90999985    1.48000002
   18.25638962   -1.00000000    4.90999985    1.48000002
   18.25972176   -1.00000000    4.90999985    1.48000002
   18.26305580   -1.00000000    4.90999985    1.48000002
   18.26666641   -1.00000000    4.90999985    1.48000002
   18.27000046   -1.00000000    4.90999985    1.48000002
   18.27305603   -1.00000000    4.90999985    1.48000002
   18.27638817   -1.00000000    4.90999985    1.48000002
   18.27944374   -1.00000000    4.90999985    1.48000002
   18.28277779   -1.00000000    4.90999985    1.48000002
   18.29277802   -1.00000000    4.90999985    1.48000002
   18.29611015   -1.00000000    4.90999985    1.48000002
   18.29972076   -1.00000000    4.90999985    1.48000002
   18.30305481   -1.00000000    4.90999985    1.48000002
   18.30611038   -1.00000000    4.90999985    1.48000002
   18.30944443   -1.00000000    4.90999985    1.48000002
   18.31250000   -1.00000000    4.90999985    1.48000002
   18.31583214   -1.00000000    4.90999985    1.48000002
   18.31916809   -1.00000000    4.90999985    1.48000002
   18.32222366   -1.00000000    4.90999985    1.48000002
   18.32555580   -1.00000000    4.90999985    1.48000002
   18.34861183   -1.00000000    4.90999985    1.48000002
   18.35166740   -1.00000000    4.90999985    1.48000002
   18.35499954   -1.00000000    4.90999985    1.48000002
   18.35805511   -1.00000000    4.90999985    1.48000002
   18.36138916   -1.00000000    4.90999985    1.48000002
   18.36472321   -1.00000000    4.90999985    1.48000002
   18.36833382   -1.00000000    4.90999985    1.48000002
   18.37861061   -1.00000000    4.90999985    1.48000002
   18.38194466   -1.00000000    4.90999985    1.48000002
   18.38500023   -1.00000000    4.90999985    1.48000002
   18.38833237   -1.00000000    4.90999985    1.48000002
   18.39138794   -1.00000000    4.90999985    1.48000002
   18.39472198   -1.00000000    4.90999985    1.48000002
   18.39805603   -1.00000000    4.90999985    1.48000002
   18.40138817   -1.00000000    4.90999985    1.48000002
   18.40472221   -1.00000000    4.90999985    1.48000002
   18.40777779   -1.00000000    4.90999985    1.48000002
   18.41110992   -1.00000000    4.90999985    1.48000002
   18.42138863   -1.00000000    4.90999985    1.48000002
   18.42472076   -1.00000000    4.90999985    1.48000002
   18.42777634   -1.00000000    4.90999985    1.48000002
   18.43111038   -1.00000000    4.90999985    1.48000002
   18.43472099   -1.00000000    4.90999985    1.48000002
   18.43805504   -1.00000000    4.90999985    1.48000002
   18.44111061   -1.00000000    4.90999985    1.48000002
   18.44444275   -1.00000000    4.90999985    1.48000002
   18.44749832   -1.00000000    4.90999985    1.48000002
   18.45083427   -1.00000000    4.90999985    1.48000002
   18.45416832   -1.00000000    4.90999985    1.48000002
   18.46444511   -1.00000000    4.90999985    1.48000002
   18.46777916   -1.00000000    4.90999985    1.48000002
   18.47111130   -1.00000000    4.90999985    1.48000002
   18.47416687   -1.00000000    4.90999985    1.48000002
   18.47750092   -1.00000000    4.90999985    1.48000002
   18.48083305   -1.00000000    4.90999985    1.48000002
   18.48388863   -1.00000000    4.90999985    1.48000002
   18.48722267   -1.00000000    4.90999985    1.48000002
   18.49027824   -1.00000000    4.90999985    1.48000002
   18.49361229   -1.00000000    4.90999985    1.48000002
   18.49694443   -1.00000000    4.90999985    1.48000002
   18.50722313   -1.00000000    4.90999985    1.48000002
   18.51027870   -1.00000000    4.90999985    1.48000002
   18.51361084   -1.00000000    4.90999985    1.48000002
   18.51694489   -1.00000000    4.90999985    1.48000002
   18.52000046   -1.00000000    4.90999985    1.48000002
   18.52333260   -1.00000000    4.90999985    1.48000002
   18.52638817   -1.00000000    4.90999985    1.48000002
   18.52972221   -1.00000000    4.90999985    1.48000002
   18.53333282   -1.00000000    4.90999985    1.48000002
   18.53666687   -1.00000000    4.90999985    1.48000002
   18.53972244   -1.00000000    4.90999985    1.48000002
   18.54999924   -1.00000000    4.90999985    1.48000002
   18.55333328   -1.00000000    4.90999985    1.48000002
   18.55638885   -1.00000000    4.90999985    1.48000002
   18.55972099   -1.00000000    4.90999985    1.48000002
   18.56305504   -1.00000000    4.90999985    1.48000002
   18.56638718   -1.00000000    4.90999985    1.48000002
   18.56972313   -1.00000000    4.90999985    1.48000002
   18.57277870   -1.00000000    4.90999985    1.48000002
   18.57611275   -1.00000000    4.90999985    1.48000002
   18.57944489   -1.00000000    4.90999985    1.48000002
   18.58250046   -1.00000000    4.90999985    1.48000002
   18.59277916   -1.00000000    4.90999985    1.48000002
   18.59611130   -1.00000000    4.90999985    1.48000002
   18.59972191   -1.00000000    4.90999985    1.48000002
   18.60305595   -1.00000000    4.90999985    1.48000002
   18.60611153   -1.00000000    4.90999985    1.48000002
   18.60944557   -1.00000000    4.90999985    1.48000002
   18.61277771   -1.00000000    4.90999985    1.48000002
   18.61583328   -1.00000000    4.90999985    1.48000002
   18.61916733   -1.00000000    4.90999985    1.48000002
   18.62222290   -1.00000000    4.90999985    1.48000002
   18.62555504   -1.00000000    4.90999985    1.48000002
   18.63583374   -1.00000000    4.90999985    1.48000002
   18.63888931   -1.00000000    4.90999985    1.48000002
   18.64222145   -1.00000000    4.90999985    1.48000002
   18.64527702   -1.00000000    4.90999985    1.48000002
   18.64861107   -1.00000000    4.90999985    1.48000002
   18.65194321   -1.00000000    4.90999985    1.48000002
   18.65499878   -1.00000000    4.90999985    1.48000002
   18.65833282   -1.00000000    4.90999985    1.48000002
   18.66166687   -1.00000000    4.90999985    1.48000002
   18.66472244   -1.00000000    4.90999985    1.48000002
   18.66833305   -1.00000000    4.90999985    1.48000002
   18.67860985   -1.00000000    4.90999985    1.48000002
   18.68166542   -1.00000000    4.90999985    1.48000002
   18.68499947   -1.00000000    4.90999985    1.48000002
   18.68833160   -1.00000000    4.90999985    1.48000002
   18.69138718   -1.00000000    4.90999985    1.48000002
   18.69472122   -1.00000000    4.90999985    1.48000002
   18.69805527   -1.00000000    4.90999985    1.48000002
   18.70138931   -1.00000000    4.90999985    1.48000002
   18.70472336   -1.00000000    4.90999985    1.48000002
   18.70805550   -1.00000000    4.90999985    1.48000002
   18.71111107   -1.00000000    4.90999985    1.48000002
   18.72138977   -1.00000000    4.90999985    1.48000002
   18.72472191   -1.00000000    4.90999985    1.48000002
   18.72777748   -1.00000000    4.90999985    1.48000002
   18.73111153   -1.00000000    4.90999985    1.48000002
   18.73472214   -1.00000000    4.90999985    1.48000002
   18.73805618   -1.00000000    4.90999985    1.48000002
   18.74111176   -1.00000000    4.90999985    1.48000002
   18.74444389   -1.00000000    4.90999985    1.48000002
   18.74749947   -1.00000000    4.90999985    1.48000002
   18.75083351   -1.00000000    4.90999985    1.48000002
   18.75416756   -1.00000000    4.90999985    1.48000002
   18.76416588   -1.00000000    4.90999985    1.48000002
   18.76777840   -1.00000000    4.90999985    1.48000002
   18.77111053   -1.00000000    4.90999985    1.48000002
   18.77416611   -1.00000000    4.90999985    1.48000002
   18.77750015   -1.00000000    4.90999985    1.48000002
   18.78055573   -1.00000000    4.90999985    1.48000002
   18.78388786   -1.00000000    4.90999985    1.48000002
   18.78722191   -1.00000000    4.90999985    1.48000002
   18.79027748   -1.00000000    4.90999985    1.48000002
   18.79361153   -1.00000000    4.90999985    1.48000002
   18.79694366   -1.00000000    4.90999985    1.48000002
   18.80722237   -1.00000000    4.90999985    1.48000002
   18.81027794   -1.00000000    4.90999985    1.48000002
   18.81361008   -1.00000000    4.90999985    1.48000002
   18.81666756   -1.00000000    4.90999985    1.48000002
   18.82000160   -1.00000000    4.90999985    1.48000002
   18.82333374   -1.00000000    4.90999985    1.48000002
   18.82638931   -1.00000000    4.90999985    1.48000002
   18.82972336   -1.00000000    4.90999985    1.48000002
   18.83305550   -1.00000000    4.90999985    1.48000002
   18.83666801   -1.00000000    4.90999985    1.48000002
   18.83972359   -1.00000000    4.90999985    1.48000002
   18.85000038   -1.00000000    4.90999985    1.48000002
   18.85305595   -1.00000000    4.90999985    1.48000002
   18.85639000   -1.00000000    4.90999985    1.48000002
   18.85972214   -1.00000000    4.90999985    1.48000002
   18.86277771   -1.00000000    4.90999985    1.48000002
   18.86611176   -1.00000000    4.90999985    1.48000002
   18.86972237   -1.00000000    4.90999985    1.48000002
   18.87277794   -1.00000000    4.90999985    1.48000002
   18.87611198   -1.00000000    4.90999985    1.48000002
   18.87916756   -1.00000000    4.90999985    1.48000002
   18.88249969   -1.00000000    4.90999985    1.48000002
   18.89277840   -1.00000000    4.90999985    1.48000002
   18.89611053   -1.00000000    4.90999985    1.48000002
   18.89916611   -1.00000000    4.90999985    1.48000002
   18.90277672   -1.00000000    4.90999985    1.48000002
   18.90611076   -1.00000000    4.90999985    1.48000002
   18.90944481   -1.00000000    4.90999985    1.48000002
   18.91250038   -1.00000000    4.90999985    1.48000002
   18.91583252   -1.00000000    4.90999985    1.48000002
   18.91888809   -1.00000000    4.90999985    1.48000002
   18.92222214   -1.00000000    4.90999985    1.48000002
   18.92555428   -1.00000000    4.90999985    1.48000002
   18.93555450   -1.00000000    4.90999985    1.48000002
   18.93888855   -1.00000000    4.90999985    1.48000002
   18.94222069   -1.00000000    4.90999985    1.48000002
   18.94527626   -1.00000000    4.90999985    1.48000002
   18.94861031   -1.00000000    4.90999985    1.48000002
   18.95166779   -1.00000000    4.90999985    1.48000002
   18.95499992   -1.00000000    4.90999985    1.48000002
   18.95833397   -1.00000000    4.90999985    1.48000002
   18.96138954   -1.00000000    4.90999985    1.48000002
   18.96472359   -1.00000000    4.90999985    1.48000002
   18.96805573   -1.00000000    4.90999985    1.48000002
   18.97861099   -1.00000000    4.90999985    1.48000002
   18.98166656   -1.00000000    4.90999985    1.48000002
   18.98500061   -1.00000000    4.90999985    1.48000002
   18.98805618   -1.00000000    4.90999985    1.48000002
   18.99138832   -1.00000000    4.90999985    1.48000002
   18.99472237   -1.00000000    4.90999985    1.48000002
   18.99777794   -1.00000000    4.90999985    1.48000002
   19.00138855   -1.00000000    4.90999985    1.48000002
   19.00472260   -1.00000000    4.90999985    1.48000002
   19.00805473   -1.00000000    4.90999985    1.48000002
   19.01111031   -1.00000000    4.90999985    1.48000002
   19.02138901   -1.00000000    4.90999985    1.48000002
   19.02444458   -1.00000000    4.90999985    1.48000002
   19.02777672   -1.00000000    4.90999985    1.48000002
   19.03111076   -1.00000000    4.90999985    1.48000002
   19.03444481   -1.00000000    4.90999985    1.48000002
   19.03777695   -1.00000000    4.90999985    1.48000002
   19.04111099   -1.00000000    4.90999985    1.48000002
   19.04416656   -1.00000000    4.90999985    1.48000002
   19.04749870   -1.00000000    4.90999985    1.48000002
   19.05055428   -1.00000000    4.90999985    1.48000002
   19.05388832   -1.00000000    4.90999985    1.48000002
   19.06416512   -1.00000000    4.90999985    1.48000002
   19.06750107   -1.00000000    4.90999985    1.48000002
   19.07111168   -1.00000000    4.90999985    1.48000002
   19.07416725   -1.00000000    4.90999985    1.48000002
   19.07750130   -1.00000000    4.90999985    1.48000002
   19.08083344   -1.00000000    4.90999985    1.48000002
   19.08388901   -1.00000000    4.90999985    1.48000002
   19.08722305   -1.00000000    4.90999985    1.48000002
   19.09055710   -1.00000000    4.90999985    1.48000002
   19.09361267   -1.00000000    4.90999985    1.48000002
   19.09694481   -1.00000000    4.90999985    1.48000002
   19.10694504   -1.00000000    4.90999985    1.48000002
   19.11027908   -1.00000000    4.90999985    1.48000002
   19.11333466   -1.00000000    4.90999985    1.48000002
   19.11666679   -1.00000000    4.90999985    1.48000002
   19.12000084   -1.00000000    4.90999985    1.48000002
   19.12305641   -1.00000000    4.90999985    1.48000002
   19.12638855   -1.00000000    4.90999985    1.48000002
   19.12972260   -1.00000000    4.90999985    1.48000002
   19.13277817   -1.00000000    4.90999985    1.48000002
   19.13638878   -1.00000000    4.90999985    1.48000002
   19.13944435   -1.00000000    4.90999985    1.48000002
   19.14972115   -1.00000000    4.90999985    1.48000002
   19.15305519   -1.00000000    4.90999985    1.48000002
   19.15638924   -1.00000000    4.90999985    1.48000002
   19.15944481   -1.00000000    4.90999985    1.48000002
   19.16277695   -1.00000000    4.90999985    1.48000002
   19.16611099   -1.00000000    4.90999985    1.48000002
   19.16972160   -1.00000000    4.90999985    1.48000002
   19.17305565   -1.00000000    4.90999985    1.48000002
   19.17611122   -1.00000000    4.90999985    1.48000002
   19.17944336   -1.00000000    4.90999985    1.48000002
   19.18249893   -1.00000000    4.90999985    1.48000002
   19.19277763   -1.00000000    4.90999985    1.48000002
   19.19583321   -1.00000000    4.90999985    1.48000002
   19.19916534   -1.00000000    4.90999985    1.48000002
   19.20277786   -1.00000000    4.90999985    1.48000002
   19.20611191   -1.00000000    4.90999985    1.48000002
   19.20916748   -1.00000000    4.90999985    1.48000002
   19.21250153   -1.00000000    4.90999985    1.48000002
   19.21583366   -1.00000000    4.90999985    1.48000002
   19.21888924   -1.00000000    4.90999985    1.48000002
   19.22222328   -1.00000000    4.90999985    1.48000002
   19.22555542   -1.00000000    4.90999985    1.48000002
   19.23555565   -1.00000000    4.90999985    1.48000002
   19.23888969   -1.00000000    4.90999985    1.48000002
   19.24194527   -1.00000000    4.90999985    1.48000002
   19.24527740   -1.00000000    4.90999985    1.48000002
   19.24833298   -1.00000000    4.90999985    1.48000002
   19.25166702   -1.00000000    4.90999985    1.48000002
   19.25499916   -1.00000000    4.90999985    1.48000002
   19.25805473   -1.00000000    4.90999985    1.48000002
   19.26138878   -1.00000000    4.90999985    1.48000002
   19.26472282   -1.00000000    4.90999985    1.48000002
   19.26777840   -1.00000000    4.90999985    1.48000002
   19.27833366   -1.00000000    4.90999985    1.48000002
   19.28166580   -1.00000000    4.90999985    1.48000002
   19.28472137   -1.00000000    4.90999985    1.48000002
   19.28805542   -1.00000000    4.90999985    1.48000002
   19.29138756   -1.00000000    4.90999985    1.48000002
   19.29444313   -1.00000000    4.90999985    1.48000002
   19.29777718   -1.00000000    4.90999985    1.48000002
   19.30111122   -1.00000000    4.90999985    1.48000002
   19.30444336   -1.00000000    4.90999985    1.48000002
   19.30777740   -1.00000000    4.90999985    1.48000002
   19.31110954   -1.00000000    4.90999985    1.48000002
   19.32111168   -1.00000000    4.90999985    1.48000002
   19.32444572   -1.00000000    4.90999985    1.48000002
   19.32777786   -1.00000000    4.90999985    1.48000002
   19.33083344   -1.00000000    4.90999985    1.48000002
   19.33416748   -1.00000000    4.90999985    1.48000002
   19.33777809   -1.00000000    4.90999985    1.48000002
   19.34083366   -1.00000000    4.90999985    1.48000002
   19.34416771   -1.00000000    4.90999985    1.48000002
   19.34722328   -1.00000000    4.90999985    1.48000002
   19.37333298   -1.00000000    4.90999985    1.48000002
   19.37638855   -1.00000000    4.90999985    1.48000002
   19.37972260   -1.00000000    4.90999985    1.48000002
   19.38277817   -1.00000000    4.90999985    1.48000002
   19.38611031   -1.00000000    4.90999985    1.48000002
   19.38944435   -1.00000000    4.90999985    1.48000002
   19.39249992   -1.00000000    4.90999985    1.48000002
   19.39583397   -1.00000000    4.90999985    1.48000002
   19.39916611   -1.00000000    4.90999985    1.48000002
   19.40250015   -1.00000000    4.90999985    1.48000002
   19.40555573   -1.00000000    4.90999985    1.48000002
   19.41583252   -1.00000000    4.90999985    1.48000002
   19.41916656   -1.00000000    4.90999985    1.48000002
   19.42249870   -1.00000000    4.90999985    1.48000002
   19.42555428   -1.00000000    4.90999985    1.48000002
   19.42888832   -1.00000000    4.90999985    1.48000002
   19.43194389   -1.00000000    4.90999985    1.48000002
   19.43555450   -1.00000000    4.90999985    1.48000002
   19.43861008   -1.00000000    4.90999985    1.48000002
   19.44194412   -1.00000000    4.90999985    1.48000002
   19.44527626   -1.00000000    4.90999985    1.48000002
   19.44833183   -1.00000000    4.90999985    1.48000002
   19.45888901   -1.00000000    4.90999985    1.48000002
   19.46194458   -1.00000000    4.90999985    1.48000002
   19.46527863   -1.00000000    4.90999985    1.48000002
   19.46888924   -1.00000000    4.90999985    1.48000002
   19.47194481   -1.00000000    4.90999985    1.48000002
   19.47527885   -1.00000000    4.90999985    1.48000002
   19.47861099   -1.00000000    4.90999985    1.48000002
   19.48166656   -1.00000000    4.90999985    1.48000002
   19.48500061   -1.00000000    4.90999985    1.48000002
   19.48833275   -1.00000000    4.90999985    1.48000002
   19.49138832   -1.00000000    4.90999985    1.48000002
   19.50166702   -1.00000000    4.90999985    1.48000002
   19.50527763   -1.00000000    4.90999985    1.48000002
   19.50861168   -1.00000000    4.90999985    1.48000002
   19.51166725   -1.00000000    4.90999985    1.48000002
   19.51499939   -1.00000000    4.90999985    1.48000002
   19.51833344   -1.00000000    4.90999985    1.48000002
   19.52138901   -1.00000000    4.90999985    1.48000002
   19.52472115   -1.00000000    4.90999985    1.48000002
   19.52777672   -1.00000000    4.90999985    1.48000002
   19.53111076   -1.00000000    4.90999985    1.48000002
   19.53444481   -1.00000000    4.90999985    1.48000002
   19.54444313   -1.00000000    4.90999985    1.48000002
   19.54777718   -1.00000000    4.90999985    1.48000002
   19.55083275   -1.00000000    4.90999985    1.48000002
   19.55416679   -1.00000000    4.90999985    1.48000002
   19.55722237   -1.00000000    4.90999985    1.48000002
   19.56055450   -1.00000000    4.90999985    1.48000002
   19.56388855   -1.00000000    4.90999985    1.48000002
   19.56694603   -1.00000000    4.90999985    1.48000002
   19.57055664   -1.00000000    4.90999985    1.48000002
   19.57389069   -1.00000000    4.90999985    1.48000002
   19.57694626   -1.00000000    4.90999985    1.48000002
   19.58722305   -1.00000000    4.90999985    1.48000002
   19.59055710   -1.00000000    4.90999985    1.48000002
   19.59361267   -1.00000000    4.90999985    1.48000002
   19.59694481   -1.00000000    4.90999985    1.48000002
   19.60027885   -1.00000000    4.90999985    1.48000002
   19.60361099   -1.00000000    4.90999985    1.48000002
   19.60694504   -1.00000000    4.90999985    1.48000002
   19.61000061   -1.00000000    4.90999985    1.48000002
   19.61333466   -1.00000000    4.90999985    1.48000002
   19.61666679   -1.00000000    4.90999985    1.48000002
   19.61972237   -1.00000000    4.90999985    1.48000002
   19.63000107   -1.00000000    4.90999985    1.48000002
   19.63333321   -1.00000000    4.90999985    1.48000002
   19.63694382   -1.00000000    4.90999985    1.48000002
   19.64027786   -1.00000000    4.90999985    1.48000002
   19.64361191   -1.00000000    4.90999985    1.48000002
   19.64666748   -1.00000000    4.90999985    1.48000002
   19.64999962   -1.00000000    4.90999985    1.48000002
   19.65305519   -1.00000000    4.90999985    1.48000002
   19.65638924   -1.00000000    4.90999985    1.48000002
   19.65972137   -1.00000000    4.90999985    1.48000002
   19.66277695   -1.00000000    4.90999985    1.48000002
   19.67305565   -1.00000000    4.90999985    1.48000002
   19.67611122   -1.00000000    4.90999985    1.48000002
   19.67944336   -1.00000000    4.90999985    1.48000002
   19.68277740   -1.00000000    4.90999985    1.48000002
   19.68583298   -1.00000000    4.90999985    1.48000002
   19.68916512   -1.00000000    4.90999985    1.48000002
   19.69222069   -1.00000000    4.90999985    1.48000002
   19.69555473   -1.00000000    4.90999985    1.48000002
   19.69888878   -1.00000000    4.90999985    1.48000002
   19.70194435   -1.00000000    4.90999985    1.48000002
   19.70583344   -1.00000000    4.90999985    1.48000002
   19.71583366   -1.00000000    4.90999985    1.48000002
   19.71916771   -1.00000000    4.90999985    1.48000002
   19.72222328   -1.00000000    4.90999985    1.48000002
   19.72555542   -1.00000000    4.90999985    1.48000002
   19.72861099   -1.00000000    4.90999985    1.48000002
   19.73194504   -1.00000000    4.90999985    1.48000002
   19.73527718   -1.00000000    4.90999985    1.48000002
   19.73888969   -1.00000000    4.90999985    1.48000002
   19.74194527   -1.00000000    4.90999985    1.48000002
   19.74527740   -1.00000000    4.90999985    1.48000002
   19.74833298   -1.00000000    4.90999985    1.48000002
   19.75861168   -1.00000000    4.90999985    1.48000002
   19.76194382   -1.00000000    4.90999985    1.48000002
   19.76527786   -1.00000000    4.90999985    1.48000002
   19.76833344   -1.00000000    4.90999985    1.48000002
   19.77194405   -1.00000000    4.90999985    1.48000002
   19.77499962   -1.00000000    4.90999985    1.48000002
   19.77833366   -1.00000000    4.90999985    1.48000002
   19.78166580   -1.00000000    4.90999985    1.48000002
   19.78472137   -1.00000000    4.90999985    1.48000002
   19.78805542   -1.00000000    4.90999985    1.48000002
   19.79138756   -1.00000000    4.90999985    1.48000002
