    HOUR (UT)   FLARE FACTOR    SKY TESTER    SUN TESTER
   11.15388870   -1.00000000   -1.00000000   -1.00000000
   11.18833351  103.33699799    2.23000002    2.30999994
   11.19305515   94.56790161    2.21000004    2.30999994
   11.19666672   -1.00000000    2.19000006    2.30999994
   11.19999981   -1.00000000    2.19000006    2.32999992
   11.20333290   -1.00000000    2.19000006    2.30999994
   11.20638847   -1.00000000    2.19000006    2.30999994
   11.20972157   -1.00000000    2.19000006    2.30999994
   11.23361111  110.78600311    2.19000006    2.32999992
   11.23666668  102.61499786    2.17000008    2.32999992
   11.24000072  103.80000305    2.15000010    2.32999992
   11.24333382  104.11599731    2.15000010    2.34999990
   11.24638939   98.55879974    2.11999989    2.32999992
   11.24972248   99.71659851    2.09999990    2.34999990
   11.25388908   99.71659851    2.07999992    2.34999990
   11.25805569  100.10900116    2.05999994    2.34999990
   11.26111126  100.13500214    2.03999996    2.34999990
   11.26444435  104.30400085    2.03999996    2.34999990
   11.26694393  104.24500275    2.01999998    2.34999990
   11.26805496   98.92320251    2.01999998    2.34999990
   11.27138901   98.59259796    2.00000000    2.34999990
   11.27472210  104.85199738    2.00000000    2.36999989
   11.27777767  102.01999664    2.00000000    2.34999990
   11.28111076  100.58699799    1.98000002    2.36999989
   11.28444481  104.27100372    1.98000002    2.36999989
   11.28750038  100.56900024    1.98000002    2.34999990
   11.29083347  102.71600342    1.98000002    2.34999990
   11.29666710  102.71600342    1.98000002    2.34999990
   11.30083370  100.61000061    2.00000000    2.36999989
   11.30416679   94.75460052    2.01999998    2.36999989
   11.30722237  108.27400208    2.00000000    2.36999989
   11.31055546  105.70600128    2.00000000    2.34999990
   11.31361103   95.08709717    1.98000002    2.36999989
   11.31694412  100.37999725    1.98000002    2.39000010
   11.32027817  103.47599792    1.98000002    2.36999989
   11.32333374   96.29440308    1.98000002    2.36999989
   11.32666683  100.45200348    1.96000004    2.36999989
   11.32999992  101.26000214    1.96000004    2.39000010
   11.33305550  100.27300262    1.96000004    2.39000010
   11.33361053   97.45149994    1.96000004    2.39000010
   11.33944416   97.45149994    1.96000004    2.39000010
   11.34361076  101.20700073    1.94000006    2.36999989
   11.34694386   96.86470032    1.94000006    2.39000010
   11.35000038  100.68900299    1.96000004    2.39000010
   11.35333347  106.03700256    1.94000006    2.39000010
   11.35666752  102.47599792    1.94000006    2.39000010
   11.35972214   95.64019775    1.94000006    2.39000010
   11.36305618  103.16999817    1.96000004    2.39000010
   11.36638927   92.15440369    1.94000006    2.39000010
   11.36694431   98.75579834    1.94000006    2.39000010
   11.36999989   99.10970306    1.94000006    2.39000010
   11.37305546   99.29940033    1.94000006    2.39000010
   11.37638855   96.60800171    1.94000006    2.39000010
   11.38249969   96.60800171    1.91999996    2.39000010
   11.38638878  106.44200134    1.94000006    2.39000010
   11.38972187   96.91670227    1.91999996    2.40000010
   11.39305496   99.63639832    1.91999996    2.40000010
   11.39611053   97.77320099    1.89999998    2.40000010
   11.39944458  100.76899719    1.89999998    2.40000010
   11.40027714   97.38379669    1.89999998    2.40000010
   11.40305519   96.58989716    1.91999996    2.40000010
   11.40611076   93.30390167    1.91999996    2.40000010
   11.40944386   94.46109772    1.91999996    2.40000010
   11.41277695   95.78849792    1.91999996    2.40000010
   11.41583252   95.11669922    1.94000006    2.40000010
   11.41916656   96.50129700    1.91999996    2.40000010
   11.42527771   96.50129700    1.94000006    2.39000010
   11.42944431   94.97530365    1.96000004    2.40000010
   11.43249989  104.33599854    1.96000004    2.40000010
   11.43361092   97.61720276    1.96000004    2.40000010
   11.43638897   92.13950348    1.94000006    2.40000010
   11.43944454  105.87599945    1.94000006    2.40000010
   11.44277763   96.03849792    1.94000006    2.40000010
   11.44611073   93.79769897    1.91999996    2.40000010
   11.44916630  101.24199677    1.91999996    2.40000010
   11.45249939   94.92739868    1.94000006    2.40000010
   11.45555496  100.26499939    1.91999996    2.40000010
   11.45888901   93.04049683    1.89999998    2.40000010
   11.46222210  104.00599670    1.89999998    2.40000010
   11.46805477  104.00599670    1.88000000    2.40000010
   11.47222137   91.39600372    1.88000000    2.40000010
   11.47555542   90.65830231    1.88000000    2.42000008
   11.47861099   95.09149933    1.86000001    2.42000008
   11.48194408   97.25129700    1.86000001    2.42000008
   11.48500061   91.43229675    1.85000002    2.42000008
   11.48833370   96.82499695    1.85000002    2.42000008
   11.49166679   96.81300354    1.83000004    2.42000008
   11.49472237   96.19280243    1.83000004    2.42000008
   11.49805546  102.99700165    1.80999994    2.42000008
   11.50027752   91.17520142    1.80999994    2.42000008
   11.50166702   90.78440094    1.78999996    2.42000008
   11.50472260   91.51840210    1.78999996    2.42000008
   11.51083374   91.51840210    1.76999998    2.42000008
   11.51500034   91.17099762    1.75000000    2.42000008
   11.51833344   95.60369873    1.75000000    2.42000008
   11.52138901  101.55599976    1.73000002    2.44000006
   11.52472210   92.08149719    1.73000002    2.42000008
   11.52805519   90.70749664    1.73000002    2.42000008
   11.53111076   96.73549652    1.73000002    2.44000006
   11.53361130   94.07460022    1.73000002    2.44000006
   11.53500080  100.75099945    1.71000004    2.44000006
   11.53805637   95.58480072    1.71000004    2.44000006
   11.54138947   96.79109955    1.71000004    2.44000006
   11.54472256  101.44699860    1.71000004    2.42000008
   11.54777813  104.03299713    1.69000006    2.44000006
   11.55388927  104.03299713    1.69000006    2.46000004
   11.55777836   93.11479950    1.71000004    2.46000004
   11.56111145   88.53099823    1.71000004    2.46000004
   11.56444454   86.72750092    1.71000004    2.44000006
   11.56694412   88.64459991    1.73000002    2.44000006
   11.56805515   84.52799988    1.73000002    2.44000006
   11.57111073   88.61630249    1.73000002    2.44000006
   11.57444477   92.73940277    1.73000002    2.46000004
   11.57777786   88.17340088    1.73000002    2.44000006
   11.58083344   90.51139832    1.73000002    2.44000006
   11.58416653   89.57420349    1.73000002    2.44000006
   11.58749962   87.01570129    1.75000000    2.46000004
   11.59055519  100.75299835    1.76999998    2.46000004
   11.59666634  100.75299835    1.80999994    2.46000004
   11.60083389   91.64779663    1.83000004    2.44000006
   11.60416698   90.41059875    1.85000002    2.44000006
   11.60750008  102.41100311    1.85000002    2.44000006
   11.61055565   94.51419830    1.88000000    2.46000004
   11.61388969   98.19879913    1.94000006    2.46000004
   11.61722279   92.72740173    2.01999998    2.46000004
   11.62027836  102.22599792    2.01999998    2.44000006
   11.62361145   97.01570129    2.00000000    2.46000004
   11.62666702   91.58249664    2.00000000    2.44000006
   11.63000011   97.91210175    2.00000000    2.46000004
   11.63333321   90.81659698    2.01999998    2.46000004
   11.63361073   98.51730347    2.01999998    2.46000004
   11.63944435   98.51730347    2.01999998    2.46000004
   11.64361095   99.68450165    2.00000000    2.46000004
   11.64694405   93.34570313    1.98000002    2.46000004
   11.64999962   91.23819733    1.98000002    2.46000004
   11.65333271   93.32409668    1.96000004    2.46000004
   11.65638828  101.26899719    1.98000002    2.46000004
   11.65972137   94.57350159    1.96000004    2.46000004
   11.66305542   94.03320313    1.96000004    2.46000004
   11.66611099   91.16600037    1.96000004    2.46000004
   11.66722298   95.59040070    1.96000004    2.46000004
   11.66972256   95.78869629    1.94000006    2.46000004
   11.67305565   92.40989685    1.94000006    2.46000004
   11.67611122   95.00900269    1.94000006    2.44000006
   11.68222237   95.00900269    1.94000006    2.46000004
   11.68638897  104.81300354    1.94000006    2.46000004
   11.68972206   99.01550293    1.94000006    2.46000004
   11.69277763   94.86660004    1.91999996    2.46000004
   11.69611073   98.00070190    1.91999996    2.46000004
   11.69944477   97.74269867    1.91999996    2.46000004
   11.70055580   98.63559723    1.88000000    2.46000004
   11.70277786   94.11769867    1.88000000    2.46000004
   11.70611095   99.65789795    1.80999994    2.46000004
   11.70944405   90.87979889    1.78999996    2.46000004
   11.71277714   97.95259857    1.76999998    2.46000004
   11.71583271   93.81340027    1.73000002    2.46000004
   11.71916580  100.88400269    1.71000004    2.46000004
   11.72527695  100.88400269    1.66999996    2.46000004
   11.72916603   97.56549835    1.64999998    2.48000002
   11.73249912   97.62169647    1.63000000    2.46000004
   11.73388958  100.26699829    1.63000000    2.46000004
   11.73611164   96.79560089    1.61000001    2.48000002
   11.73944473   92.30860138    1.61000001    2.48000002
   11.74250031   94.95149994    1.61000001    2.48000002
   11.74611092   97.37799835    1.61000001    2.48000002
   11.74916649   98.31020355    1.60000002    2.48000002
   11.75249958   99.70549774    1.60000002    2.48000002
   11.75583363   92.67630005    1.58000004    2.48000002
   11.75888920   90.42829895    1.55999994    2.48000002
   11.76222229   94.12319946    1.55999994    2.48000002
   11.76805496   94.12319946    1.53999996    2.48000002
   11.77222157   93.18930054    1.51999998    2.48000002
   11.77527714   96.18049622    1.51999998    2.48000002
   11.77861118   95.54820251    1.50000000    2.48000002
   11.78194427   92.15950012    1.50000000    2.48000002
   11.78500080  100.82299805    1.51999998    2.48000002
   11.78833389   91.79119873    1.50000000    2.48000002
   11.79138947   98.52459717    1.50000000    2.48000002
   11.79472256   93.04730225    1.50000000    2.48000002
   11.79805565   92.41809845    1.50000000    2.50000000
   11.80055618   93.28759766    1.50000000    2.48000002
   11.80138874   94.54180145    1.50000000    2.48000002
   11.80472279   86.64779663    1.50000000    2.48000002
   11.81083393   86.64779663    1.51999998    2.50000000
   11.81500053   92.48829651    1.51999998    2.50000000
   11.81833363   93.37560272    1.51999998    2.50000000
   11.82138920   92.65670013    1.51999998    2.50000000
   11.82472229   91.91519928    1.51999998    2.50000000
   11.82805538   90.86940002    1.51999998    2.50000000
   11.83111095   95.99749756    1.51999998    2.50000000
   11.83388901   98.66100311    1.51999998    2.50000000
   11.83472157   87.86160278    1.51999998    2.50000000
   11.83805561   92.94689941    1.50000000    2.50000000
   11.84138870   91.66719818    1.50000000    2.50000000
   11.84444427   99.48979950    1.51999998    2.51999998
   11.84777737   93.51719666    1.51999998    2.51999998
   11.85361195   93.51719666    1.50000000    2.51999998
   11.85777855   87.00820160    1.50000000    2.51999998
   11.86111164   83.23210144    1.50000000    2.50000000
   11.86416721   93.32800293    1.50000000    2.50000000
   11.86722279   89.04340363    1.50000000    2.50000000
   11.86777782   86.57849884    1.50000000    2.50000000
   11.87111092   88.81199646    1.48000002    2.50000000
   11.87444496   86.31790161    1.48000002    2.50000000
   11.87750053   93.30000305    1.48000002    2.51999998
   11.88083363   92.19989777    1.48000002    2.51999998
   11.88388920   87.20880127    1.46000004    2.51999998
   11.88722229   99.75189972    1.46000004    2.51999998
   11.89055538   88.55970001    1.46000004    2.50000000
   11.89666653   88.55970001    1.48000002    2.48000002
   11.90055561   88.70300293    1.48000002    2.50000000
   11.90388870   95.68620300    1.48000002    2.50000000
   11.90722179   88.08119965    1.48000002    2.51999998
   11.91027737   90.60479736    1.46000004    2.51999998
   11.91361046   92.69589996    1.46000004    2.51999998
   11.91694450   93.03749847    1.46000004    2.51999998
   11.92000008   93.87750244    1.46000004    2.51999998
   11.92333412   92.04360199    1.44000006    2.51999998
   11.92638874   90.88130188    1.44000006    2.51999998
   11.92972279   88.94380188    1.44000006    2.51999998
   11.93305588   92.76419830    1.44000006    2.51999998
   11.93388939   86.52860260    1.41999996    2.51999998
   11.93944454   86.52860260    1.44000006    2.51999998
   11.94361115   84.11009979    1.44000006    2.53999996
   11.94666672   83.72260284    1.44000006    2.53999996
   11.94999981   84.84850311    1.46000004    2.51999998
   11.95333290   83.29660034    1.46000004    2.51999998
   11.95638847   89.87529755    1.46000004    2.51999998
   11.95972157   88.18219757    1.48000002    2.51999998
   11.96277714   81.97019958    1.48000002    2.51999998
   11.96611118   88.04090118    1.50000000    2.51999998
   11.96722221   88.97109985    1.50000000    2.51999998
   11.96972179   86.35299683    1.50000000    2.51999998
   11.97305489   92.78810120    1.50000000    2.51999998
   11.97638798   89.88549805    1.51999998    2.53999996
   11.98222160   89.88549805    1.53999996    2.53999996
   11.98638916   92.02030182    1.55999994    2.53999996
   11.98972225   93.47109985    1.55999994    2.51999998
   11.99277782   90.53060150    1.55999994    2.51999998
   11.99611092   87.86470032    1.58000004    2.53999996
   11.99944496   86.22019958    1.60000002    2.51999998
   12.00055599   91.42749786    1.60000002    2.51999998
   12.00277805   91.04499817    1.58000004    2.53999996
   12.00611115   94.05619812    1.53999996    2.53999996
   12.00944424   86.53179932    1.51999998    2.53999996
   12.01249981   92.68779755    1.51999998    2.53999996
   12.01583290   86.41609955    1.48000002    2.53999996
   12.01888847   89.05950165    1.46000004    2.55999994
   12.02499962   89.05950165    1.44000006    2.53999996
   12.02916622   89.64299774    1.44000006    2.55999994
   12.03249931   88.92970276    1.44000006    2.55999994
   12.03388977   88.12010193    1.41999996    2.53999996
   12.03611183   89.72789764    1.41999996    2.53999996
   12.03944492   88.41780090    1.41999996    2.55999994
   12.04277802   86.46849823    1.39999998    2.53999996
   12.04583359   86.94419861    1.39999998    2.53999996
   12.04916668   92.77510071    1.36000001    2.55999994
   12.05249977   92.98220062    1.36000001    2.55999994
   12.05555534   89.99960327    1.34000003    2.55999994
   12.05888939   89.53170013    1.33000004    2.55999994
   12.06194496  110.28900146    1.33000004    2.55999994
   12.06805515  110.28900146    1.28999996    2.55999994
   12.07222176  102.59899902    1.26999998    2.55999994
   12.07527733  107.59300232    1.25000000    2.55999994
   12.07861137  108.79299927    1.23000002    2.55999994
   12.08194447  104.87500000    1.23000002    2.55999994
   12.08500004   94.81960297    1.23000002    2.55999994
   12.08833313   95.60610199    1.25000000    2.55999994
   12.09166622   95.55529785    1.25000000    2.55999994
   12.09472179   85.70069885    1.25000000    2.55999994
   12.09805489   91.42900085    1.25000000    2.55999994
   12.10055637   89.78769684    1.25000000    2.55999994
   12.10138893   94.31259918    1.25000000    2.55999994
   12.10472298   90.13680267    1.25000000    2.55999994
   12.11083412   90.13680267    1.26999998    2.57999992
   12.11500072   97.83750153    1.26999998    2.57999992
   12.11805534   86.98020172    1.28999996    2.55999994
   12.12138939   86.56420135    1.30999994    2.55999994
   12.12472248   92.95210266    1.30999994    2.55999994
   12.12777805   91.98400116    1.30999994    2.55999994
   12.13111115   96.03179932    1.30999994    2.57999992
   12.13388920   88.58020020    1.30999994    2.55999994
   12.13472176   89.55680084    1.30999994    2.55999994
   12.13805580   90.39939880    1.33000004    2.55999994
   12.14138889   95.45960236    1.33000004    2.55999994
   12.14444447  105.14700317    1.34000003    2.57999992
   12.14777756  100.46399689    1.36000001    2.57999992
   12.15361118  100.46399689    1.36000001    2.57999992
   12.15777779   98.62159729    1.36000001    2.57999992
   12.16111088  103.52999878    1.36000001    2.59999990
   12.16416645  109.48000336    1.36000001    2.59999990
   12.16722298   95.95210266    1.36000001    2.59999990
   12.16777802   90.79699707    1.36000001    2.59999990
   12.17111111   98.41809845    1.36000001    2.57999992
   12.17444515   92.97540283    1.36000001    2.57999992
   12.17750072   99.22389984    1.36000001    2.57999992
   12.18083382   95.10430145    1.38000000    2.59999990
   12.18388939   99.12049866    1.38000000    2.57999992
   12.18722248   90.99530029    1.38000000    2.57999992
   12.19055557   95.47070313    1.38000000    2.57999992
   12.19638920   95.47070313    1.41999996    2.57999992
   12.20055580  102.66000366    1.44000006    2.57999992
   12.20388889  101.60600281    1.44000006    2.57999992
   12.20722198  110.42700195    1.44000006    2.55999994
   12.21027756   90.57890320    1.44000006    2.55999994
   12.21361065   88.48860168    1.44000006    2.55999994
   12.21666622  110.67500305    1.46000004    2.57999992
   12.21999931   90.48329926    1.46000004    2.57999992
   12.22333336   96.80259705    1.46000004    2.57999992
   12.22638798   92.94740295    1.46000004    2.55999994
   12.22972202   96.76460266    1.46000004    2.57999992
   12.23305511   89.64620209    1.48000002    2.57999992
   12.23388958   96.63909912    1.48000002    2.57999992
   12.25444412   96.63909912    1.51999998    2.57999992
   12.25861073   99.48370361    1.51999998    2.57999992
   12.26194477  101.62400055    1.55999994    2.57999992
   12.26500034   99.68520355    1.55999994    2.57999992
   12.26722240  102.65699768    1.55999994    2.59999990
   12.26861095  101.25700378    1.55999994    2.59999990
   12.27194405   93.27359772    1.55999994    2.59999990
   12.27527714   96.49900055    1.55999994    2.57999992
   12.27833271   99.57510376    1.55999994    2.57999992
   12.28166676  105.32399750    1.55999994    2.57999992
   12.28500080   98.87190247    1.50000000    2.59999990
   12.28805637  101.21099854    1.50000000    2.59999990
   12.29138947  107.33899689    1.48000002    2.59999990
   12.29722309  107.33899689    1.50000000    2.59999990
   12.30138874  101.51599884    1.50000000    2.59999990
   12.30472279  113.44699860    1.48000002    2.59999990
   12.30777836  125.37400055    1.48000002    2.59999990
   12.31111145  108.97799683    1.48000002    2.59999990
   12.31444454  105.34899902    1.46000004    2.59999990
   12.31750011  110.80400085    1.46000004    2.59999990
   12.32083321  106.75199890    1.44000006    2.59999990
   12.32388878  101.02600098    1.44000006    2.59999990
   12.32722187  103.20200348    1.41999996    2.57999992
   12.33055592   98.92079926    1.41999996    2.59999990
   12.33361053  102.56199646    1.39999998    2.59999990
   12.33416653  105.05799866    1.39999998    2.59999990
   12.34000015  105.05799866    1.41999996    2.59999990
   12.34416676  102.13400269    1.41999996    2.59999990
   12.34749985  110.83799744    1.41999996    2.59999990
   12.35083389  112.70600128    1.41999996    2.59999990
   12.35388947  121.01399994    1.39999998    2.59999990
   12.35722256  122.91200256    1.41999996    2.59999990
   12.36055565  103.95099640    1.46000004    2.59999990
   12.36361122   93.92870331    1.48000002    2.59999990
   12.36694431  103.65100098    1.48000002    2.59999990
   12.36750031  100.87500000    1.50000000    2.59999990
   12.37055588  114.86799622    1.50000000    2.59999990
   12.37361145  108.29000092    1.53999996    2.59999990
   12.37694454   99.67289734    1.53999996    2.59999990
   12.38305569   99.67289734    1.53999996    2.59999990
   12.38722229  109.04199982    1.51999998    2.59999990
   12.39027786  105.73899841    1.53999996    2.59999990
   12.39361095  105.30300140    1.51999998    2.59999990
   12.39666653   98.90029907    1.51999998    2.59999990
   12.39999962   99.71810150    1.51999998    2.61999989
   12.40083313  108.11000061    1.51999998    2.61999989
   12.40361118  103.41699982    1.50000000    2.59999990
   12.40666676  113.43399811    1.46000004    2.61999989
   12.40999985  100.27300262    1.46000004    2.61999989
   12.41333294  114.48300171    1.44000006    2.61999989
   12.41638851  125.06999969    1.41999996    2.61999989
   12.41972256  109.80000305    1.41999996    2.61999989
   12.42583370  109.80000305    1.39999998    2.59999990
   12.43000031  126.48300171    1.41999996    2.59999990
   12.43305588  101.72799683    1.44000006    2.61999989
   12.43416691  108.56199646    1.46000004    2.59999990
   12.43666649  113.83799744    1.46000004    2.59999990
   12.43972206  107.16100311    1.50000000    2.59999990
   12.44305515   99.59970093    1.51999998    2.61999989
   12.44638920   99.79250336    1.50000000    2.61999989
   12.44972229   92.75000000    1.50000000    2.61999989
   12.45277786  104.52700043    1.46000004    2.61999989
   12.45611095   96.27390289    1.39999998    2.61999989
   12.45916653  109.67199707    1.36000001    2.61999989
   12.46249962   98.93620300    1.34000003    2.61999989
   12.46861076   98.93620300    1.36000001    2.64000010
   12.47277737  118.98000336    1.38000000    2.61999989
   12.47611046  106.11499786    1.38000000    2.61999989
   12.47916603  108.67099762    1.39999998    2.61999989
   12.48249912  113.90000153    1.39999998    2.61999989
   12.48583317  114.08499908    1.39999998    2.61999989
   12.48888874  115.00599670    1.38000000    2.61999989
   12.49222279  109.17900085    1.36000001    2.64000010
   12.49527836  103.98300171    1.36000001    2.61999989
   12.49861145  102.25499725    1.38000000    2.61999989
   12.50083351  119.26499939    1.41999996    2.64000010
   12.50222206  115.58399963    1.41999996    2.64000010
   12.50527763  125.15299988    1.41999996    2.61999989
   12.51138878  125.15299988    1.38000000    2.64000010
   12.51555538  116.94599915    1.38000000    2.64000010
   12.51888847  105.24400330    1.38000000    2.61999989
   12.52194405   98.63800049    1.39999998    2.61999989
   12.52527714  101.91999817    1.44000006    2.61999989
   12.52861118  125.79100037    1.48000002    2.61999989
   12.53166676  119.71700287    1.48000002    2.64000010
   12.53416729  108.40200043    1.48000002    2.64000010
   12.53527832  101.79499817    1.44000006    2.64000010
   12.53833389  109.99299622    1.44000006    2.64000010
   12.54166698  102.60500336    1.38000000    2.64000010
   12.54500008  114.78099823    1.34000003    2.64000010
   12.54805565   92.56690216    1.36000001    2.64000010
   12.55444431   92.56690216    1.30999994    2.64000010
   12.55833340  111.50000000    1.33000004    2.64000010
   12.56166649  115.85399628    1.33000004    2.64000010
   12.56500053  111.59700012    1.33000004    2.64000010
   12.56750011  116.87899780    1.33000004    2.64000010
   12.56861115  117.55999756    1.33000004    2.64000010
   12.57194424   96.91419983    1.28999996    2.61999989
   12.57499981  113.33000183    1.28999996    2.61999989
   12.57833290  109.77300262    1.26999998    2.64000010
   12.58138847  107.30100250    1.23000002    2.64000010
   12.58472157  120.85800171    1.19000006    2.66000009
   12.58805561  102.77100372    1.14999998    2.66000009
   12.59138870  117.95600128    1.11000001    2.64000010
   12.59722233  117.95600128    1.07000005    2.66000009
   12.60138893  111.91699982    1.03999996    2.66000009
   12.60444450  111.47699738    1.07000005    2.66000009
   12.60777855  106.10099792    1.07000005    2.66000009
   12.61111164  113.15499878    1.09000003    2.67000008
   12.61416721  106.73899841    1.07000005    2.67000008
   12.61750031  110.03700256    1.07000005    2.67000008
   12.62055588   97.69550323    1.09000003    2.64000010
   12.62388897  108.79000092    1.07000005    2.66000009
   12.62722206   93.90550232    1.07000005    2.66000009
   12.63027763  103.17600250    1.07000005    2.66000009
   12.63361073  102.68599701    1.05999994    2.64000010
   12.63416672   98.29479980    1.05999994    2.64000010
   12.64000034   98.29479980    1.03999996    2.66000009
   12.64416695   87.47170258    1.09000003    2.66000009
   12.64750004  113.44000244    1.11000001    2.67000008
   12.65055561   98.18329620    1.14999998    2.64000010
   12.65388870  110.13400269    1.14999998    2.64000010
   12.65694427   95.21759796    1.21000004    2.66000009
   12.66027737   93.22170258    1.23000002    2.66000009
   12.66361046   99.92910004    1.23000002    2.66000009
   12.66694450  107.90000153    1.23000002    2.66000009
   12.66750050   91.93090057    1.23000002    2.66000009
   12.67055607   93.90029907    1.21000004    2.66000009
   12.67388916   97.79609680    1.21000004    2.66000009
   12.67694473   93.73729706    1.23000002    2.66000009
   12.68277836   93.73729706    1.19000006    2.67000008
   12.68694496   97.26930237    1.16999996    2.66000009
   12.69027805  104.57099915    1.14999998    2.66000009
   12.69333363  117.70200348    1.13000000    2.67000008
   12.69666672  103.91799927    1.09000003    2.66000009
   12.69999981  107.56099701    1.07000005    2.66000009
   12.70083332  103.59999847    1.07000005    2.66000009
   12.70361137   98.49069977    1.07000005    2.66000009
   12.70694447  102.68000031    1.07000005    2.66000009
   12.71000004  103.26000214    1.05999994    2.67000008
   12.71333313  100.75800323    1.07000005    2.67000008
   12.71638870  102.97799683    1.11000001    2.67000008
   12.71972179   94.29640198    1.11000001    2.66000009
   12.72583294   94.29640198    1.11000001    2.67000008
   12.72972202  104.03299713    1.13000000    2.66000009
   12.73305511   92.13890076    1.14999998    2.67000008
   12.73416710  110.71099854    1.14999998    2.67000008
   12.73666668  105.38300323    1.14999998    2.67000008
   12.74000072   97.03240204    1.14999998    2.67000008
   12.74305534   98.46630096    1.16999996    2.67000008
   12.74638939   99.07029724    1.19000006    2.66000009
   12.74972248   86.68370056    1.19000006    2.67000008
   12.75277805  106.22399902    1.19000006    2.67000008
   12.75611115  106.47000122    1.16999996    2.67000008
   12.75916672  103.98200226    1.19000006    2.67000008
   12.76249981  107.77999878    1.16999996    2.67000008
   12.76861095  107.77999878    1.19000006    2.67000008
   12.77277756  107.54699707    1.21000004    2.67000008
   12.77583313  115.81099701    1.25000000    2.67000008
   12.77916622  101.92900085    1.25000000    2.67000008
   12.78249931  106.33499908    1.26999998    2.66000009
   12.78555584  103.38300323    1.25000000    2.67000008
   12.78888893  106.43499756    1.25000000    2.67000008
   12.79194450  106.33799744    1.25000000    2.67000008
   12.79527855   93.21299744    1.25000000    2.69000006
   12.79861164  122.30000305    1.25000000    2.69000006
   12.80083370  107.92900085    1.25000000    2.69000006
   12.80222225  100.35600281    1.25000000    2.69000006
   12.80555534  110.86599731    1.26999998    2.67000008
   12.81138897  110.86599731    1.28999996    2.67000008
   12.81555557   98.49610138    1.28999996    2.67000008
   12.81888866  110.61499786    1.26999998    2.67000008
   12.82194424  115.20800018    1.21000004    2.67000008
   12.82527733  105.31199646    1.16999996    2.67000008
   12.82833290  107.26799774    1.16999996    2.67000008
   12.83166695   97.88159943    1.13000000    2.69000006
   12.93916702   -1.00000000   -1.00000000   -1.00000000
   13.03916740   -1.00000000   -1.00000000   -1.00000000
   13.14055538   -1.00000000   -1.00000000   -1.00000000
   13.20361137   68.33399963    1.19000006    2.71000004
   13.20694447   97.03430176    1.19000006    2.71000004
   13.21027756   93.21119690    1.16999996    2.73000002
   13.21333313   89.77120209    1.13000000    2.73000002
   13.21666622   85.46880341    1.13000000    2.73000002
   13.21972179   89.61060333    1.14999998    2.73000002
   13.22388840   89.61060333    1.13000000    2.73000002
   13.22805500   92.56199646    1.11000001    2.73000002
   13.23138809   93.90290070    1.11000001    2.73000002
   13.23444462   93.70749664    1.13000000    2.73000002
   13.23694515   90.76180267    1.13000000    2.73000002
   13.23805618   85.36109924    1.13000000    2.73000002
   13.24138927   90.10140228    1.11000001    2.73000002
   13.24444485   90.56479645    1.11000001    2.73000002
   13.24777794   98.30979919    1.11000001    2.73000002
   13.25083351   96.03410339    1.11000001    2.71000004
   13.25416660   93.44629669    1.09000003    2.73000002
   13.25749969   89.61589813    1.05999994    2.73000002
   13.26055527   90.22660065    1.03999996    2.73000002
   13.26666641   90.22660065    0.98000002    2.73000002
   13.27083302   88.96440125    0.95999998    2.73000002
   13.27416611   86.45050049    0.94000000    2.75000000
   13.27722168   87.00800323    0.94000000    2.75000000
   13.28055573   84.32430267    0.92000002    2.73000002
   13.28388977   87.94170380    0.89999998    2.75000000
   13.28694534   89.31700134    0.92000002    2.75000000
   13.29027843   90.62319946    0.92000002    2.75000000
   13.29361153   86.95159912    0.92000002    2.75000000
   13.29666710   87.27539825    0.94000000    2.75000000
   13.30000019   89.55580139    0.94000000    2.73000002
   13.30333328   85.91729736    0.94000000    2.73000002
   13.30361176   85.85079956    0.94000000    2.73000002
   13.30972195   85.85079956    0.95999998    2.73000002
   13.31361103   91.67610168    1.00000000    2.75000000
   13.31694412   93.36260223    1.01999998    2.73000002
   13.32027817   91.40000153    1.01999998    2.73000002
   13.32333374   93.52239990    1.01999998    2.75000000
   13.32666683   89.22579956    1.00000000    2.73000002
   13.32999992   92.70120239    1.00000000    2.75000000
   13.33305550   90.23410034    1.03999996    2.75000000
   13.33638859   85.25990295    1.03999996    2.73000002
   13.33694458   84.94129944    1.03999996    2.73000002
   13.34000015   87.99089813    1.03999996    2.75000000
   13.34333324   85.66850281    1.03999996    2.75000000
   13.34638882   88.24579620    1.03999996    2.75000000
   13.35249996   88.24579620    1.00000000    2.75000000
   13.35666752   86.33840179    0.94000000    2.73000002
   13.35972214   88.26450348    0.89999998    2.73000002
   13.36333370   86.76760101    0.88000000    2.75000000
   13.36638927   89.43859863    0.88000000    2.75000000
   13.36972237   85.25330353    0.88000000    2.75000000
   13.37027836   88.52330017    0.89999998    2.75000000
   13.37333393   92.23249817    0.89999998    2.75000000
   13.37666702   89.28230286    0.94000000    2.75000000
   13.37972260   95.76360321    0.95999998    2.75000000
   13.38305569   83.61060333    0.95999998    2.75000000
   13.38638878   90.88549805    0.98000002    2.75000000
   13.38972187   89.90850067    1.00000000    2.73000002
   13.39527798   89.90850067    1.00000000    2.75000000
   13.39944458   93.41519928    1.00000000    2.75000000
   13.40277767   91.30290222    1.01999998    2.73000002
   13.40361118   86.52030182    1.01999998    2.73000002
   13.40611076  100.12699890    1.05999994    2.73000002
   13.40944386   90.24549866    1.09000003    2.75000000
   13.41249943   87.71559906    1.09000003    2.73000002
   13.41583252   90.33969879    1.09000003    2.73000002
   13.41916656   88.81009674    1.07000005    2.75000000
   13.42222214   92.96219635    1.07000005    2.73000002
   13.42555618   92.25700378    1.07000005    2.73000002
   13.42888927   92.26650238    1.05999994    2.76999998
   13.43194485   91.43540192    1.05999994    2.75000000
   13.43833351   91.43540192    1.05999994    2.75000000
   13.44250011   89.12870026    1.01999998    2.75000000
   13.44583321   90.86740112    1.01999998    2.75000000
   13.44888878   94.00399780    1.01999998    2.75000000
   13.45222187   91.55359650    1.00000000    2.75000000
   13.45527744   95.77700043    1.00000000    2.75000000
   13.45861053   95.16809845    1.03999996    2.75000000
   13.46194458   92.12640381    1.03999996    2.76999998
   13.46527767   91.40450287    1.01999998    2.75000000
   13.46833324  108.15699768    1.03999996    2.75000000
   13.47027779   99.88729858    1.03999996    2.75000000
   13.47194386   89.83190155    1.03999996    2.75000000
   13.47527695   91.10829926    1.05999994    2.73000002
   13.48111057   91.10829926    1.03999996    2.75000000
   13.48527813   94.73000336    1.03999996    2.75000000
   13.48833370   93.88050079    1.03999996    2.75000000
   13.49166679   94.59999847    1.01999998    2.75000000
   13.49499989   98.81719971    1.00000000    2.75000000
   13.49805546   92.97789764    1.00000000    2.75000000
   13.50138855   93.72250366    1.00000000    2.75000000
   13.50361156   87.05940247    1.00000000    2.75000000
   13.50500011   86.85099792    0.98000002    2.75000000
   13.50833321   81.55660248    0.98000002    2.75000000
   13.51138878   95.08059692    0.98000002    2.75000000
   13.51472187   94.52369690    0.94000000    2.76999998
   13.51805496   91.56960297    0.94000000    2.76999998
   13.52388859   91.56960297    0.92000002    2.75000000
   13.52805519   87.60980225    0.92000002    2.75000000
   13.53111076   88.60070038    0.92000002    2.75000000
   13.53444481   98.52999878    0.89999998    2.75000000
   13.53722286   93.70279694    0.89999998    2.75000000
   13.53805637   88.48359680    0.88000000    2.75000000
   13.54138947   90.19170380    0.88000000    2.76999998
   13.54444504   89.92620087    0.88000000    2.76999998
   13.54777813   88.12940216    0.88000000    2.75000000
   13.55111122   98.19280243    0.86000001    2.76999998
   13.55416679   89.69349670    0.83999997    2.75000000
   13.55749989   88.41100311    0.81999999    2.76999998
   13.56083393   88.90940094    0.83999997    2.76999998
   13.56666660   88.90940094    0.86000001    2.76999998
   13.57083321   97.65440369    0.86000001    2.76999998
   13.57416630   90.08399963    0.83999997    2.76999998
   13.57722187   95.20200348    0.83999997    2.76999998
   13.58055592   92.12940216    0.83999997    2.75000000
   13.58388901  102.25099945    0.83999997    2.75000000
   13.58694458   98.48860168    0.86000001    2.76999998
   13.59027767   97.26999664    0.83999997    2.75000000
   13.59361076   86.07080078    0.86000001    2.76999998
   13.59666634  101.10399628    0.86000001    2.76999998
   13.60000038   97.26159668    0.86000001    2.75000000
   13.60305595   90.94770050    0.86000001    2.76999998
   13.60388947   91.00240326    0.86000001    2.76999998
   13.60944462   91.00240326    0.83999997    2.76999998
   13.61361122  100.75599670    0.86000001    2.76999998
   13.61694431   94.21440125    0.86000001    2.76999998
   13.62027836  100.05300140    0.88000000    2.75000000
   13.62333393   90.98979950    0.86000001    2.76999998
   13.62666702   90.19950104    0.88000000    2.76999998
   13.63000011   85.73459625    0.88000000    2.75000000
   13.63305569   87.93340302    0.86000001    2.76999998
   13.63638878  100.34899902    0.86000001    2.76999998
   13.63722229   87.23059845    0.86000001    2.76999998
   13.64000034   95.24060059    0.86000001    2.76999998
   13.64333344   97.27490234    0.86000001    2.76999998
   13.64638901   90.36009979    0.83999997    2.76999998
   13.65249920   90.36009979    0.86000001    2.76999998
   13.65666676   90.71710205    0.83999997    2.75000000
   13.65972137   89.23069763    0.83999997    2.75000000
   13.66305542   97.75180054    0.83999997    2.76999998
   13.66611099  101.17700195    0.86000001    2.75000000
   13.66944504   87.21289825    0.86000001    2.76999998
   13.67055607   98.97530365    0.86000001    2.76999998
   13.67305565   88.22519684    0.81999999    2.75000000
   13.67638874   92.90640259    0.81999999    2.76999998
   13.67944431  106.23799896    0.81999999    2.76999998
   13.68277836   92.45610046    0.81999999    2.76999998
   13.68611145   92.76280212    0.80000001    2.76999998
   13.68916702  101.81199646    0.80000001    2.75000000
   13.69527817  101.81199646    0.79000002    2.76999998
   13.69944477  101.25900269    0.79000002    2.75000000
   13.70249939   88.63780212    0.76999998    2.75000000
   13.70388889   91.27380371    0.76999998    2.75000000
   13.70611095   94.71769714    0.76999998    2.76999998
   13.70944405   92.27189636    0.76999998    2.76999998
   13.71249962   97.30010223    0.79000002    2.75000000
   13.71583271   91.12280273    0.76999998    2.76999998
   13.71916580   95.04949951    0.76999998    2.76999998
   13.72222137  105.46399689    0.76999998    2.78999996
   13.72555542   89.78849792    0.76999998    2.78999996
   13.72888851   95.45580292    0.76999998    2.78999996
   13.73194408   95.16259766    0.75000000    2.78999996
   13.73805618   95.16259766    0.73000002    2.78999996
   13.74222279   87.39109802    0.73000002    2.76999998
   13.74555588   88.67410278    0.69000000    2.78999996
   13.74861145   93.74890137    0.67000002    2.76999998
   13.75194454   89.66770172    0.64999998    2.78999996
   13.75527763   88.64589691    0.63000000    2.78999996
   13.75833321   98.47209930    0.63000000    2.78999996
   13.76166630   87.72389984    0.63000000    2.78999996
   13.76472187   96.49009705    0.61000001    2.78999996
   13.76805496   89.59220123    0.63000000    2.78999996
   13.77055550   92.20159912    0.61000001    2.78999996
   13.77166653   89.38169861    0.61000001    2.78999996
   13.77499962   92.37200165    0.63000000    2.78999996
   13.78083324   92.37200165    0.63000000    2.78999996
   13.78500080   86.38520050    0.63000000    2.78999996
   13.78833389   97.34449768    0.63000000    2.78999996
   13.79138947  106.57199860    0.63000000    2.78999996
   13.79472256   88.25060272    0.64999998    2.78999996
   13.79805565   94.27960205    0.64999998    2.78999996
   13.80111122   88.55580139    0.64999998    2.78999996
   13.80388927   98.74710083    0.67000002    2.76999998
   13.80472279   89.35119629    0.67000002    2.76999998
   13.80805588   88.55660248    0.67000002    2.78999996
   13.81138897   92.93039703    0.67000002    2.76999998
   13.81444454   99.91770172    0.67000002    2.76999998
   13.81777763   86.99500275    0.64999998    2.78999996
   13.82388878   86.99500275    0.64999998    2.80999994
   13.82777786   91.82520294    0.64999998    2.80999994
   13.83111095   85.66410065    0.63000000    2.80999994
   13.83444405   98.61849976    0.63000000    2.78999996
   13.83722210   89.88320160    0.63000000    2.78999996
   13.83777714   93.70149994    0.63000000    2.78999996
   13.84111118   86.41439819    0.63000000    2.78999996
   13.84444427   89.79499817    0.63000000    2.76999998
   13.84749985   91.12870026    0.61000001    2.76999998
   13.85083389   89.56189728    0.61000001    2.76999998
   13.85416698   96.79309845    0.61000001    2.78999996
   13.85722256   92.14060211    0.61000001    2.78999996
   13.86055565   87.04299927    0.61000001    2.78999996
   13.86666679   87.04299927    0.63000000    2.78999996
   13.87083340   87.33190155    0.63000000    2.78999996
   13.87388897   91.04769897    0.61000001    2.78999996
   13.87722206   95.45249939    0.61000001    2.78999996
   13.88027763   88.29039764    0.58999997    2.78999996
   13.88361073   92.60399628    0.61000001    2.76999998
   13.88694477   91.49130249    0.61000001    2.80999994
   13.89027786   86.66539764    0.61000001    2.80999994
   13.89333344   90.79579926    0.61000001    2.78999996
   13.89666653   89.80919647    0.61000001    2.78999996
   13.89972210  100.46499634    0.63000000    2.78999996
   13.90305519   90.48519897    0.63000000    2.80999994
   13.90388870   88.93579865    0.63000000    2.80999994
   13.90944386   88.93579865    0.64999998    2.78999996
   13.91361046   88.14569855    0.64999998    2.78999996
   13.91666698   89.04730225    0.64999998    2.78999996
   13.92000008   90.19550323    0.64999998    2.78999996
   13.92333412   85.09220123    0.64999998    2.78999996
   13.92638874   96.82140350    0.63000000    2.78999996
   13.92972279   89.74289703    0.63000000    2.78999996
   13.93305588   93.78459930    0.63000000    2.80999994
   13.93611145   88.95850372    0.63000000    2.80999994
   13.93722248   87.01509857    0.63000000    2.78999996
   13.93972206   87.55930328    0.63000000    2.78999996
   13.94305515   89.57289886    0.63000000    2.78999996
   13.94638920   87.52790070    0.63000000    2.78999996
   13.95222187   87.52790070    0.63000000    2.80999994
   13.95638847   86.88809967    0.63000000    2.80999994
   13.95972157   86.91609955    0.61000001    2.80999994
   13.96277714   87.55509949    0.61000001    2.80999994
   13.96611118   87.45770264    0.61000001    2.78999996
   13.96944427   90.39540100    0.63000000    2.78999996
   13.97055531   86.76899719    0.63000000    2.78999996
   13.97277737   90.85150146    0.63000000    2.78999996
   13.97611046   88.69249725    0.63000000    2.78999996
   13.97944355   85.97519684    0.63000000    2.78999996
   13.98249912   88.57749939    0.63000000    2.80999994
   13.98583317   84.95279694    0.64999998    2.80999994
   13.98888874   87.63500214    0.64999998    2.80999994
   13.99527836   87.63500214    0.63000000    2.78999996
   13.99916649   86.51879883    0.63000000    2.78999996
   14.00249958   84.64969635    0.63000000    2.82999992
   14.00388908   89.28070068    0.63000000    2.82999992
   14.00611115   96.60399628    0.63000000    2.80999994
   14.00944424   93.52500153    0.63000000    2.80999994
   14.01277733   87.92220306    0.64999998    2.78999996
   14.01583290   92.53559875    0.64999998    2.78999996
   14.01916599   85.67559814    0.67000002    2.80999994
   14.02222157   88.94329834    0.64999998    2.78999996
   14.02555561   91.45279694    0.67000002    2.78999996
   14.02888870   87.00710297    0.67000002    2.78999996
   14.03194427   85.04280090    0.76999998    2.78999996
   14.03805637   85.04280090    0.76999998    2.78999996
   14.04222298   90.21360016    0.76999998    2.78999996
   14.04527855   86.06169891    0.76999998    2.78999996
   14.04861164   92.84739685    0.79000002    2.80999994
   14.05166721   88.96890259    0.76999998    2.78999996
   14.05500031   91.28079987    0.75000000    2.78999996
   14.05833340   91.33390045    0.73000002    2.78999996
   14.06166649   88.20600128    0.73000002    2.78999996
   14.06472206   90.03569794    0.73000002    2.78999996
   14.06805515   87.61560059    0.70999998    2.80999994
   14.07055569   89.98229980    0.70999998    2.78999996
   14.07166672   89.72879791    0.70999998    2.78999996
   14.07499981   88.83360291    0.70999998    2.78999996
   14.08083344   88.83360291    0.70999998    2.78999996
   14.08500004   86.24690247    0.70999998    2.78999996
   14.08833313   88.15899658    0.70999998    2.78999996
   14.09138870   87.82810211    0.70999998    2.78999996
   14.09472179   93.46849823    0.70999998    2.78999996
   14.09805489   90.29589844    0.70999998    2.78999996
   14.10111141   98.38480377    0.70999998    2.80999994
   14.10388947   97.45390320    0.70999998    2.78999996
   14.10472298   93.12660217    0.70999998    2.78999996
   14.10805607   97.39949799    0.70999998    2.78999996
   14.11138916   86.02929688    0.70999998    2.80999994
   14.11444473   87.90390015    0.70999998    2.80999994
   14.11777782   89.60510254    0.70999998    2.78999996
   14.12361145   89.60510254    0.70999998    2.80999994
   14.12777805   97.14330292    0.70999998    2.80999994
   14.13111115   93.55940247    0.70999998    2.80999994
   14.13416672  105.73999786    0.70999998    2.80999994
   14.13722229  101.36599731    0.70999998    2.80999994
   14.13805580   97.86029816    0.70999998    2.80999994
   14.14138889   97.80370331    0.70999998    2.78999996
   14.14472198   92.11150360    0.70999998    2.78999996
   14.14777756   96.35749817    0.70999998    2.78999996
   14.15111065   90.59719849    0.73000002    2.80999994
   14.15444374   87.98519897    0.73000002    2.78999996
   14.15749931   94.38240051    0.73000002    2.78999996
   14.16083336   97.26349640    0.75000000    2.78999996
   14.16638851   97.26349640    0.75000000    2.80999994
   14.17055607  107.64900208    0.75000000    2.80999994
   14.17388916   97.92310333    0.75000000    2.80999994
   14.17722225   94.63059998    0.75000000    2.78999996
   14.18027782   90.65319824    0.75000000    2.80999994
   14.18361092   92.76609802    0.75000000    2.80999994
   14.18666649   90.80280304    0.75000000    2.80999994
   14.19000053  101.00299835    0.76999998    2.80999994
   14.19333363   97.64929962    0.75000000    2.80999994
   14.19638920   87.87400055    0.75000000    2.78999996
   14.19972229   97.86209869    0.73000002    2.80999994
   14.20305538  103.18499756    0.73000002    2.80999994
   14.20388889   94.18830109    0.73000002    2.78999996
   14.22444439   94.18830109    0.75000000    2.78999996
   14.22861099   90.69580078    0.75000000    2.80999994
   14.23194408   97.88300323    0.79000002    2.80999994
   14.23500061   90.15969849    0.76999998    2.78999996
   14.23722267   89.57019806    0.76999998    2.80999994
   14.23888874   88.69599915    0.76999998    2.80999994
   14.24194431   84.34619904    0.76999998    2.80999994
   14.24527836   95.47160339    0.75000000    2.80999994
   14.24833393  103.49400330    0.73000002    2.82999992
   14.25166702   89.58480072    0.73000002    2.82999992
   14.25500011   96.39730072    0.73000002    2.80999994
   14.25805569   90.04679871    0.73000002    2.80999994
   14.26138878   95.67379761    0.73000002    2.80999994
   14.26722240   95.67379761    0.75000000    2.80999994
   14.27138901   86.57620239    0.73000002    2.80999994
   14.27472210   88.95069885    0.75000000    2.78999996
   14.27777767   96.26499939    0.75000000    2.78999996
   14.28111076   91.47480011    0.75000000    2.80999994
   14.28444481   98.69629669    0.73000002    2.82999992
   14.28750038  102.85900116    0.73000002    2.80999994
   14.29083347   83.30429840    0.73000002    2.78999996
   14.29388905   91.43180084    0.73000002    2.82999992
   14.29722309  100.57099915    0.73000002    2.82999992
   14.30055618   91.21250153    0.73000002    2.80999994
   14.30361176  108.41400146    0.73000002    2.80999994
   14.30416679   98.81300354    0.73000002    2.80999994
   14.31000042   98.81300354    0.73000002    2.80999994
   14.31444454  109.26499939    0.73000002    2.80999994
   14.31777763   88.56490326    0.73000002    2.80999994
   14.32083321   93.69719696    0.73000002    2.80999994
   14.32416630   89.47080231    0.75000000    2.80999994
   14.32722187   96.81150055    0.75000000    2.80999994
   14.33055592   98.39209747    0.75000000    2.80999994
   14.33388901   85.91310120    0.75000000    2.82999992
   14.33694458   86.23419952    0.75000000    2.82999992
   14.33749962   84.62249756    0.75000000    2.82999992
   14.34055519   90.23000336    0.75000000    2.80999994
   14.34361076   86.95670319    0.73000002    2.80999994
   14.34694386   96.74469757    0.73000002    2.80999994
   14.35305595   96.74469757    0.70999998    2.82999992
   14.35722256   91.79039764    0.70999998    2.82999992
   14.36055565   87.81980133    0.70999998    2.80999994
   14.36361122   88.99990082    0.70999998    2.82999992
   14.36694431   88.82350159    0.70999998    2.82999992
   14.37027836   94.28900146    0.70999998    2.80999994
   14.37083340   94.96549988    0.70999998    2.80999994
   14.37388897   88.90399933    0.70999998    2.80999994
   14.37694454   93.25379944    0.69000000    2.82999992
   14.38027763   93.35700226    0.69000000    2.80999994
   14.38361073   91.30200195    0.70999998    2.80999994
   14.38666630   87.95469666    0.69000000    2.82999992
   14.39000034   92.86560059    0.67000002    2.80999994
   14.39583302   92.86560059    0.67000002    2.82999992
   14.39999962   90.99349976    0.67000002    2.82999992
   14.40305519   88.21549988    0.69000000    2.80999994
   14.40416622   94.02639771    0.69000000    2.80999994
   14.40666676   85.55680084    0.67000002    2.82999992
   14.40972137   84.91000366    0.67000002    2.80999994
   14.41305542  102.67099762    0.67000002    2.80999994
   14.41638851   97.66069794    0.67000002    2.80999994
   14.41944504   89.03759766    0.64999998    2.80999994
   14.42277813   88.43150330    0.67000002    2.82999992
   14.42611122   93.97119904    0.64999998    2.82999992
   14.42916679   87.28759766    0.64999998    2.82999992
   14.43249989   85.27619934    0.64999998    2.82999992
   14.43861103   85.27619934    0.64999998    2.80999994
   14.44277763   88.33910370    0.64999998    2.82999992
   14.44611073   85.38050079    0.64999998    2.82999992
   14.44916630   88.01390076    0.64999998    2.82999992
   14.45249939   87.60949707    0.67000002    2.82999992
   14.45583344   85.20490265    0.67000002    2.82999992
   14.45888901   88.95580292    0.64999998    2.84999990
   14.46222210   87.80100250    0.64999998    2.84999990
   14.46527767   95.25119781    0.64999998    2.82999992
   14.46861076   87.79209900    0.64999998    2.80999994
   14.47083282   85.37640381    0.64999998    2.80999994
   14.47222137   89.54730225    0.64999998    2.80999994
   14.47527695  101.30999756    0.64999998    2.80999994
   14.48138809  101.30999756    0.64999998    2.82999992
   14.48555565   92.10220337    0.64999998    2.80999994
   14.48888874  100.58300018    0.64999998    2.82999992
   14.49194431   90.40100098    0.64999998    2.82999992
   14.49527836   94.55329895    0.64999998    2.82999992
   14.49861145   89.83750153    0.64999998    2.82999992
   14.50166702   93.10959625    0.64999998    2.82999992
   14.50416660   95.22949982    0.64999998    2.82999992
   14.50527763   93.17949677    0.64999998    2.82999992
   14.50833321   95.83000183    0.64999998    2.82999992
   14.51166630   87.50959778    0.64999998    2.82999992
   14.51500034   93.05729675    0.64999998    2.82999992
   14.51805496   87.17749786    0.64999998    2.82999992
   14.52444458   87.17749786    0.64999998    2.82999992
   14.52833271   92.87460327    0.67000002    2.82999992
   14.53166676   87.87220001    0.67000002    2.82999992
   14.53500080   87.15540314    0.67000002    2.82999992
   14.53750038   91.26879883    0.64999998    2.80999994
   14.53861141  104.82099915    0.64999998    2.80999994
   14.54194450   85.13970184    0.67000002    2.82999992
   14.54500008   85.98249817    0.64999998    2.80999994
   14.54833412   96.37300110    0.67000002    2.82999992
   14.55138874   94.54519653    0.64999998    2.80999994
   14.55472279   91.92500305    0.64999998    2.80999994
   14.55805588   93.73739624    0.64999998    2.82999992
   14.56138897   92.50640106    0.64999998    2.82999992
   14.56722260   92.50640106    0.64999998    2.82999992
   14.57138920   82.66079712    0.64999998    2.84999990
   14.57444477   88.74389648    0.67000002    2.82999992
   14.57777786   83.85649872    0.67000002    2.82999992
   14.58111095   89.66249847    0.67000002    2.80999994
   14.58416653   87.46610260    0.67000002    2.82999992
   14.58749962   86.59390259    0.67000002    2.82999992
   14.59055519   84.25499725    0.67000002    2.82999992
   14.59388828   87.25450134    0.67000002    2.82999992
   14.59722233   92.60959625    0.67000002    2.82999992
   14.60027790   79.90709686    0.67000002    2.82999992
   14.60361195   90.26090240    0.67000002    2.84999990
   14.60416698   87.89730072    0.67000002    2.84999990
   14.61000061   87.89730072    0.67000002    2.82999992
   14.61416721   95.29309845    0.70999998    2.82999992
   14.61750031   98.58170319    0.67000002    2.84999990
   14.62055588   85.64820099    0.67000002    2.82999992
   14.62388897  100.87899780    0.67000002    2.82999992
   14.62722206   83.96029663    0.67000002    2.82999992
   14.63027763   92.73090363    0.67000002    2.82999992
   14.63361073  100.03299713    0.64999998    2.82999992
   14.63666630   90.33869934    0.64999998    2.82999992
   14.63749981   82.00070190    0.64999998    2.82999992
   14.64027786   84.26059723    0.64999998    2.82999992
   14.64361095   83.76219940    0.64999998    2.82999992
   14.64666653   91.74949646    0.64999998    2.84999990
   14.65277767   91.74949646    0.67000002    2.82999992
   14.65722179   98.29940033    0.64999998    2.80999994
   14.66055489   98.34989929    0.64999998    2.82999992
   14.66361046   91.95790100    0.67000002    2.82999992
   14.66694450  109.09300232    0.67000002    2.82999992
   14.67000008   87.68450165    0.67000002    2.82999992
   14.67083359   91.96559906    0.67000002    2.82999992
   14.67361164   91.43099976    0.67000002    2.82999992
   14.67694473   92.86250305    0.67000002    2.82999992
   14.68000031   94.41000366    0.69000000    2.82999992
   14.68333340   90.17910004    0.67000002    2.82999992
   14.68638897   89.87960052    0.67000002    2.82999992
   14.68972206   87.67749786    0.69000000    2.84999990
   14.69583321   87.67749786    0.67000002    2.82999992
   14.69972229   88.38960266    0.67000002    2.82999992
   14.70305538   90.18620300    0.67000002    2.84999990
   14.70416641   88.61409760    0.67000002    2.84999990
   14.70666695   94.55850220    0.67000002    2.82999992
   14.71000004   90.90370178    0.67000002    2.82999992
   14.71305561   82.38179779    0.67000002    2.82999992
   14.71638870   88.51930237    0.67000002    2.84999990
   14.71944427   87.88050079    0.67000002    2.82999992
   14.72277737   97.08070374    0.67000002    2.82999992
   14.72611046   97.34020233    0.67000002    2.82999992
   14.72916603   94.69110107    0.67000002    2.84999990
   14.73249912   87.80210114    0.67000002    2.82999992
   14.73861122   87.80210114    0.67000002    2.82999992
   14.74277782   89.52259827    0.67000002    2.82999992
   14.74583340   95.76290131    0.67000002    2.82999992
   14.74916649   87.59729767    0.67000002    2.82999992
   14.75249958   94.62370300    0.67000002    2.82999992
   14.75555515  101.84500122    0.67000002    2.82999992
   14.75916672   89.90249634    0.67000002    2.84999990
   14.76222229   87.35520172    0.64999998    2.84999990
   14.76555538   93.19560242    0.64999998    2.82999992
   14.76861095   86.13950348    0.64999998    2.82999992
   14.77083302   86.97640228    0.64999998    2.82999992
   14.77222157   90.45729828    0.64999998    2.82999992
   14.77555561   92.65519714    0.63000000    2.82999992
   14.78138828   92.65519714    0.63000000    2.84999990
   14.78555584   92.76969910    0.63000000    2.82999992
   14.78888893   90.43800354    0.63000000    2.82999992
   14.79222298   86.20459747    0.63000000    2.82999992
   14.79527855   95.40200043    0.63000000    2.82999992
   14.79861164   79.95330048    0.63000000    2.84999990
   14.80194473   86.24749756    0.63000000    2.84999990
   14.80416679   88.59709930    0.63000000    2.84999990
   14.80555534   86.72679901    0.63000000    2.84999990
   14.80888939   83.41449738    0.63000000    2.82999992
   14.81194496   90.27749634    0.61000001    2.84999990
   14.81527805   92.66989899    0.63000000    2.82999992
   14.81861115   84.91049957    0.61000001    2.84999990
   14.82416630   84.91049957    0.61000001    2.82999992
   14.82833290   86.96589661    0.61000001    2.82999992
   14.83166695   98.96769714    0.61000001    2.84999990
   14.83472157   88.83609772    0.61000001    2.82999992
   14.83749962   96.86740112    0.63000000    2.82999992
   14.83833313   93.28250122    0.63000000    2.82999992
   14.84166622   89.41470337    0.63000000    2.82999992
   14.84472179   86.15740204    0.63000000    2.82999992
   14.84805489   86.68579865    0.63000000    2.82999992
   14.85111141   86.47180176    0.63000000    2.82999992
   14.85444450   87.85449982    0.63000000    2.82999992
   14.85777855   90.72630310    0.63000000    2.82999992
   14.86083412   88.15299988    0.61000001    2.82999992
   14.86722279   88.15299988    0.61000001    2.82999992
   14.87138939   85.73480225    0.61000001    2.82999992
   14.87472248   84.91999817    0.63000000    2.84999990
   14.87777805   91.95279694    0.63000000    2.84999990
   14.88111115   88.37760162    0.63000000    2.82999992
   14.88416672   85.97699738    0.63000000    2.84999990
   14.88749981   84.73049927    0.61000001    2.84999990
   14.89083290   81.32279968    0.61000001    2.84999990
   14.89388847   92.26049805    0.63000000    2.82999992
   14.89722252   89.34449768    0.63000000    2.82999992
   14.90055561   92.00559998    0.61000001    2.84999990
   14.90388870   97.32199860    0.61000001    2.84999990
   14.90444374   90.22160339    0.61000001    2.84999990
   14.90999985   90.22160339    0.63000000    2.82999992
   14.91416645   95.96820068    0.61000001    2.84999990
   14.91722298   91.21029663    0.61000001    2.84999990
   14.92055607  100.33300018    0.63000000    2.84999990
   14.92388916   89.04029846    0.63000000    2.84999990
   14.92694473   84.79840088    0.61000001    2.84999990
   14.93027782   94.94129944    0.61000001    2.82999992
   14.93333340  100.62000275    0.63000000    2.84999990
   14.93666649   90.81800079    0.61000001    2.84999990
   14.93777752  105.45800018    0.61000001    2.84999990
   14.94027805   90.75980377    0.61000001    2.84999990
   14.94361115   87.53520203    0.63000000    2.84999990
   14.94694424   88.62059784    0.61000001    2.82999992
   14.95277786   88.62059784    0.63000000    2.84999990
   14.95694447   95.89459991    0.61000001    2.84999990
   14.96027756   92.60859680    0.61000001    2.84999990
   14.96333313   94.02380371    0.61000001    2.84999990
   14.96666622   87.66429901    0.58999997    2.84999990
   14.96999931   97.01490021    0.61000001    2.84999990
   14.97111034   99.63179779    0.61000001    2.84999990
   14.97333336   84.12139893    0.58999997    2.84999990
   14.97666645   89.51039886    0.58999997    2.82999992
   14.97999954   88.17109680    0.58999997    2.84999990
   14.98305511   99.17030334    0.56999999    2.86999989
   14.98638916  100.54900360    0.56999999    2.86999989
   14.98944473   92.66490173    0.56999999    2.86999989
   14.99555588   92.66490173    0.56999999    2.84999990
   14.99972248  100.04299927    0.56999999    2.84999990
   15.00305557  102.12599945    0.55000001    2.84999990
   15.00444412   88.02860260    0.55000001    2.84999990
   15.00666714  100.01000214    0.55000001    2.84999990
   15.01000023   83.44170380    0.55000001    2.84999990
   15.01333332   98.13159943    0.55000001    2.86999989
   15.01638889  102.26999664    0.55000001    2.86999989
   15.01972198   95.84860229    0.55000001    2.86999989
   15.02277756  103.84200287    0.55000001    2.84999990
   15.02611065   94.27110291    0.56999999    2.84999990
   15.02944374   98.13490295    0.55000001    2.86999989
   15.03249931   96.38220215    0.56999999    2.82999992
   15.03861141   96.38220215    0.58999997    2.84999990
   15.04250050   89.20230103    0.61000001    2.84999990
   15.04583359   84.63300323    0.61000001    2.86999989
   15.04916668   86.80069733    0.58999997    2.84999990
   15.05222225   92.93990326    0.58999997    2.86999989
   15.05555534  108.67299652    0.58999997    2.86999989
   15.05888939   89.97409821    0.56999999    2.84999990
   15.06194496   90.05249786    0.56999999    2.84999990
   15.06527805   92.17569733    0.56999999    2.84999990
   15.06861115   91.47910309    0.56999999    2.84999990
   15.07111073   92.51580048    0.56999999    2.84999990
   15.07194424   90.29930115    0.56999999    2.84999990
   15.07527733   84.93800354    0.56999999    2.84999990
   15.08138847   84.93800354    0.55000001    2.84999990
   15.08555508   87.24729919    0.55000001    2.84999990
   15.08861065   86.50959778    0.52999997    2.84999990
   15.09194374   94.21109772    0.52999997    2.84999990
   15.09527779   87.34059906    0.55000001    2.84999990
   15.09861088   91.21209717    0.55000001    2.84999990
   15.10194492   99.27120209    0.55000001    2.84999990
   15.10444450   95.58570099    0.55000001    2.84999990
   15.10555553  101.13700104    0.55000001    2.84999990
   15.10888958   97.33380127    0.55000001    2.84999990
   15.11222267   96.22360229    0.52999997    2.84999990
   15.11527824   92.75129700    0.55000001    2.84999990
   15.11861134   91.12809753    0.55000001    2.84999990
   15.12416649   91.12809753    0.55000001    2.84999990
   15.12833309   98.04910278    0.55000001    2.84999990
   15.13138866   93.11530304    0.55000001    2.84999990
   15.13472176   90.61859894    0.55000001    2.84999990
   15.13777733   92.81749725    0.55000001    2.86999989
   15.13833332   85.52629852    0.55000001    2.86999989
   15.14166641   97.64140320    0.56999999    2.84999990
   15.14499950   85.80339813    0.55000001    2.84999990
   15.14805508   98.43460083    0.55000001    2.84999990
   15.15138817   87.21040344    0.55000001    2.84999990
   15.15444374   86.98789978    0.55000001    2.86999989
   15.15805531   86.97840118    0.56999999    2.86999989
   15.16138840   87.30210114    0.56999999    2.86999989
   15.16694450   87.30210114    0.58999997    2.84999990
   15.17111111   85.78620148    0.56999999    2.84999990
   15.17444515   86.96690369    0.58999997    2.84999990
   15.17750072   96.84649658    0.58999997    2.84999990
   15.18083382   86.25830078    0.58999997    2.84999990
   15.18416691   86.68070221    0.61000001    2.84999990
   15.18722248   92.19689941    0.64999998    2.86999989
   15.19055557   86.93229675    0.63000000    2.86999989
   15.19388866   92.31860352    0.63000000    2.86999989
   15.19694424   85.06220245    0.64999998    2.86999989
   15.20027733   83.73650360    0.64999998    2.84999990
   15.20333290   82.37840271    0.64999998    2.82999992
   15.20444393   83.35610199    0.64999998    2.84999990
   15.20972157   83.35610199    0.67000002    2.84999990
   15.21388912   91.08740234    0.64999998    2.84999990
   15.21722221   87.20929718    0.64999998    2.84999990
   15.22055531   86.47969818    0.64999998    2.84999990
   15.23805618   91.75330353    0.69000000    2.84999990
   15.24055576   84.82150269    0.69000000    2.84999990
   15.24361134   93.26740265    0.69000000    2.86999989
   15.24694443   86.23449707    0.70999998    2.86999989
   15.25277805   86.23449707    0.70999998    2.84999990
   15.25694466   93.56960297    0.73000002    2.84999990
   15.26027775   90.30950165    0.75000000    2.84999990
   15.26333332   84.43489838    0.76999998    2.84999990
   15.26666641   97.13890076    0.76999998    2.84999990
   15.26999950   83.20590210    0.79000002    2.86999989
   15.27138901   88.55010223    0.79000002    2.86999989
   15.27333355   83.79669952    0.80000001    2.86999989
   15.27666664   97.59359741    0.79000002    2.84999990
   15.27999973   83.73449707    0.79000002    2.84999990
   15.28305531   84.14839935    0.79000002    2.84999990
   15.28638935   91.99140167    0.79000002    2.84999990
   15.28972244   88.98570251    0.79000002    2.84999990
   15.29583359   88.98570251    0.76999998    2.84999990
   15.30000019   87.78369904    0.76999998    2.84999990
   15.30305576   83.13980103    0.76999998    2.84999990
   15.30472279   94.91539764    0.76999998    2.86999989
   15.30666733   90.28089905    0.76999998    2.86999989
   15.31000042   96.75240326    0.75000000    2.84999990
   15.31333351   89.41570282    0.80000001    2.86999989
   15.31638908   98.82150269    0.81999999    2.84999990
   15.31972218  100.31800079    0.86000001    2.84999990
   15.32305527   89.90480042    0.86000001    2.84999990
   15.32611084   93.01689911    0.86000001    2.84999990
   15.32944393   93.11289978    0.86000001    2.84999990
   15.33277798   90.70369720    0.86000001    2.84999990
   15.33861065   90.70369720    0.86000001    2.86999989
   15.34277725   95.66230011    0.88000000    2.84999990
   15.34583282   90.06130219    0.88000000    2.84999990
   15.34916592   95.79519653    0.89999998    2.84999990
   15.35249996   90.60780334    0.89999998    2.84999990
   15.35555553  107.55000305    0.89999998    2.84999990
   15.35888958   88.04419708    0.88000000    2.86999989
   15.36194515   86.65519714    0.88000000    2.86999989
   15.36527824   89.08570099    0.83999997    2.84999990
   15.36861134   86.08689880    0.83999997    2.84999990
   15.37138939   95.37280273    0.81999999    2.84999990
   15.37194443   96.05860138    0.83999997    2.84999990
   15.37527752   85.75640106    0.83999997    2.84999990
   15.38138866   85.75640106    0.81999999    2.84999990
   15.38555527   91.35379791    0.80000001    2.84999990
   15.38888836   90.47830200    0.81999999    2.86999989
   15.39194393   93.04699707    0.81999999    2.84999990
   15.39527798   90.15789795    0.83999997    2.84999990
   15.39833355  100.70600128    0.83999997    2.84999990
   15.40166664   94.16439819    0.81999999    2.84999990
   15.40472221   87.58760071    0.83999997    2.86999989
   15.40527725   92.36669922    0.83999997    2.86999989
   15.40861034   88.26260376    0.81999999    2.84999990
   15.41194439   93.50240326    0.80000001    2.84999990
   15.41499996   96.56030273    0.80000001    2.84999990
   15.41833401   95.73549652    0.80000001    2.84999990
   15.42416668   95.73549652    0.83999997    2.86999989
   15.42833328   97.19770050    0.86000001    2.86999989
   15.43166733   89.11380005    0.86000001    2.86999989
   15.43472195   86.44740295    0.83999997    2.84999990
   15.43805599   83.35030365    0.86000001    2.84999990
   15.43833351   90.69370270    0.86000001    2.84999990
   15.44166660   92.19029999    0.86000001    2.86999989
   15.44499969   93.55650330    0.83999997    2.86999989
   15.44805527   90.14009857    0.83999997    2.86999989
   15.45138836   93.29850006    0.83999997    2.86999989
   15.45472240   92.66580200    0.86000001    2.84999990
   15.45777798  106.05200195    0.88000000    2.86999989
   15.46111107   90.57309723    0.88000000    2.86999989
   15.46722221   90.57309723    0.83999997    2.84999990
   15.47111034   95.33779907    0.81999999    2.84999990
   15.47166634   82.28079987    0.81999999    2.84999990
   15.47499943   96.62969971    0.80000001    2.86999989
   15.47833252   94.87629700    0.81999999    2.84999990
   15.48138809   89.40910339    0.81999999    2.84999990
   15.48472214   83.69300079    0.81999999    2.86999989
   15.48777771   85.49720001    0.81999999    2.86999989
   15.49111176   89.50409698    0.81999999    2.84999990
   15.49444485   85.17120361    0.80000001    2.84999990
   15.49777794   84.33630371    0.80000001    2.84999990
   15.50083351   82.76920319    0.81999999    2.86999989
   15.50416660   84.29149628    0.81999999    2.84999990
   15.50500011   91.28050232    0.81999999    2.84999990
   15.51000023   91.28050232    0.83999997    2.84999990
   15.51416683   84.24610138    0.83999997    2.86999989
   15.51722240   80.26760101    0.83999997    2.84999990
   15.52055550   86.04399872    0.83999997    2.84999990
   15.52388859   84.55650330    0.83999997    2.84999990
   15.52694416   88.28929901    0.81999999    2.84999990
   15.53027725  101.47299957    0.81999999    2.86999989
   15.53333378   95.98809814    0.81999999    2.86999989
   15.53666687   89.43550110    0.83999997    2.84999990
   15.53833389   94.25409698    0.83999997    2.84999990
   15.54027843   91.00039673    0.81999999    2.84999990
   15.54361153   83.52980042    0.81999999    2.86999989
   15.54666710   91.85230255    0.81999999    2.84999990
   15.55277824   91.85230255    0.80000001    2.84999990
   15.55694485   87.54370117    0.80000001    2.84999990
   15.56027794   83.00589752    0.79000002    2.84999990
   15.56333351   91.16120148    0.80000001    2.86999989
   15.56666660   85.33540344    0.80000001    2.86999989
   15.56999969   94.14230347    0.80000001    2.84999990
   15.57166672   90.53880310    0.80000001    2.84999990
   15.57361126   87.65840149    0.81999999    2.82999992
   15.57694435   86.09760284    0.81999999    2.82999992
   15.57999992   92.98490143    0.83999997    2.86999989
   15.58333302   94.75980377    0.83999997    2.86999989
   15.58638859   90.23149872    0.83999997    2.86999989
   15.58972168   91.64209747    0.83999997    2.84999990
   15.59555531   91.64209747    0.83999997    2.84999990
   15.59972191   90.72609711    0.83999997    2.84999990
   15.60305595   85.96859741    0.83999997    2.84999990
   15.60500050   99.72329712    0.81999999    2.84999990
   15.60666752   90.11879730    0.81999999    2.84999990
   15.61000061   84.62059784    0.81999999    2.86999989
   15.61333370   86.19200134    0.81999999    2.84999990
   15.61666679   91.86090088    0.81999999    2.86999989
   15.61972237   85.26170349    0.81999999    2.86999989
   15.62305546   93.77940369    0.83999997    2.84999990
   15.62611103   99.74299622    0.81999999    2.84999990
   15.62944412   90.04679871    0.81999999    2.84999990
   15.63277817   86.58920288    0.81999999    2.84999990
   15.63861084   86.58920288    0.80000001    2.84999990
   15.64277744   90.27020264    0.80000001    2.84999990
   15.64583302   89.30870056    0.80000001    2.86999989
   15.64916611   89.73359680    0.80000001    2.86999989
   15.65222168   85.15730286    0.80000001    2.86999989
   15.65555477   90.50350189    0.80000001    2.86999989
   15.65888882   94.57969666    0.79000002    2.86999989
   15.66194439   89.21230316    0.79000002    2.84999990
   15.66527748   93.57759857    0.76999998    2.82999992
   15.66861153   92.87449646    0.76999998    2.82999992
   15.67166710  100.90000153    0.76999998    2.84999990
   15.67222214   87.70099640    0.76999998    2.84999990
   15.67555618   93.69170380    0.79000002    2.84999990
   15.68138885   93.69170380    0.79000002    2.86999989
   15.68555546   89.60220337    0.79000002    2.84999990
   15.68861103   79.69629669    0.79000002    2.84999990
   15.69194412   92.35520172    0.80000001    2.84999990
   15.69527817   83.40370178    0.80000001    2.86999989
   15.69833374   83.20909882    0.80000001    2.84999990
   15.70166683   88.18379974    0.80000001    2.86999989
   15.70499992   87.46230316    0.80000001    2.86999989
   15.70527744   84.68779755    0.80000001    2.86999989
   15.70861053   88.93049622    0.80000001    2.86999989
   15.71194458   95.16529846    0.81999999    2.84999990
   15.71500015   89.78450012    0.81999999    2.84999990
   15.71833324   87.73739624    0.81999999    2.84999990
   15.72444439   87.73739624    0.81999999    2.84999990
   15.72861099   92.18250275    0.81999999    2.84999990
   15.73166656   93.32379913    0.81999999    2.84999990
   15.73500061   85.64369965    0.81999999    2.84999990
   15.73805618  100.12200165    0.83999997    2.84999990
   15.73861122   92.70790100    0.83999997    2.84999990
   15.74166679   85.98380280    0.81999999    2.84999990
   15.74499989   86.33869934    0.83999997    2.84999990
   15.74805546   88.49089813    0.86000001    2.84999990
   15.75138855   80.97850037    0.86000001    2.84999990
   15.75472260   91.35620117    0.83999997    2.84999990
   15.75777817   90.81340027    0.81999999    2.84999990
   15.76111126   85.25309753    0.81999999    2.84999990
   15.76694393   85.25309753    0.80000001    2.84999990
   15.77111053   92.75319672    0.80000001    2.86999989
   15.77194405   93.55770111    0.80000001    2.86999989
   15.77472210   84.91020203    0.79000002    2.82999992
   15.77805519   96.60500336    0.79000002    2.86999989
   15.78111076   85.98529816    0.79000002    2.86999989
   15.78444481  100.31500244    0.75000000    2.86999989
   15.78777790   90.30500031    0.75000000    2.84999990
   15.79083347   85.76660156    0.75000000    2.86999989
   15.79416752   87.90519714    0.75000000    2.84999990
   15.79722309  105.70899963    0.75000000    2.84999990
   15.80055618   89.98960114    0.76999998    2.84999990
   15.80388927   89.61239624    0.79000002    2.84999990
   15.80527782   97.46739960    0.79000002    2.84999990
   15.81000042   97.46739960    0.80000001    2.84999990
   15.81388950   89.99700165    0.80000001    2.86999989
   15.81722260   89.86489868    0.80000001    2.84999990
   15.82055569   86.97760010    0.80000001    2.86999989
   15.82361126   81.57050323    0.80000001    2.86999989
   15.82694435   82.42649841    0.80000001    2.86999989
   15.83027744   88.45729828    0.81999999    2.86999989
   15.83333302   83.48729706    0.81999999    2.84999990
   15.83666611   87.27950287    0.81999999    2.84999990
   15.83861065   86.44930267    0.81999999    2.84999990
   15.84027767   88.04689789    0.83999997    2.86999989
   15.84361076   88.39579773    0.81999999    2.86999989
   15.84666634   93.76499939    0.83999997    2.86999989
   15.85277843   93.76499939    0.83999997    2.84999990
   15.85694504   87.47709656    0.81999999    2.84999990
   15.86000061   87.49040222    0.83999997    2.86999989
   15.86333370   84.48290253    0.83999997    2.84999990
   15.86666679   87.96920013    0.83999997    2.86999989
   15.86999989   88.56880188    0.83999997    2.84999990
   15.87194443   86.84310150    0.83999997    2.84999990
   15.87361145   88.44799805    0.81999999    2.84999990
   15.87694454   82.70639801    0.81999999    2.84999990
   15.88000011   93.83129883    0.81999999    2.84999990
   15.88333321   87.78440094    0.81999999    2.84999990
   15.88666630   83.81659698    0.80000001    2.84999990
   15.88972187   86.96600342    0.79000002    2.84999990
   15.89555550   86.96600342    0.75000000    2.86999989
   15.89972210   82.23310089    0.75000000    2.86999989
   15.90305519   82.67310333    0.75000000    2.84999990
   15.90555477   89.40190125    0.75000000    2.84999990
   15.90638828   89.18530273    0.75000000    2.84999990
   15.90972137   86.70230103    0.73000002    2.84999990
   15.91277695   89.09120178    0.73000002    2.84999990
   15.91611099   89.33020020    0.70999998    2.84999990
   15.91944504   97.20919800    0.70999998    2.84999990
   15.92250061   85.21170044    0.70999998    2.84999990
   15.92583370   93.87000275    0.70999998    2.86999989
   15.92916679   87.11319733    0.69000000    2.86999989
   15.93222237   91.05319977    0.69000000    2.86999989
   15.93833351   91.05319977    0.70999998    2.86999989
   15.94250011   91.64109802    0.67000002    2.84999990
   15.94583321   88.47920227    0.69000000    2.86999989
   15.94888878   93.08059692    0.70999998    2.86999989
   15.95222187   92.29740143    0.69000000    2.84999990
   15.95555496   96.01509857    0.69000000    2.84999990
   15.95861053   90.67769623    0.69000000    2.84999990
   15.96194458   94.48889923    0.69000000    2.86999989
   15.96527767   86.85600281    0.70999998    2.86999989
   15.96833324   96.23870087    0.67000002    2.86999989
   15.97166634   89.77680206    0.64999998    2.84999990
   15.97333336   89.07810211    0.64999998    2.84999990
   15.97527695   84.20549774    0.64999998    2.84999990
   15.98111057   84.20549774    0.67000002    2.84999990
   15.98527813   86.73739624    0.73000002    2.86999989
   15.98861122   97.22940063    0.75000000    2.86999989
   15.99194431   96.49050140    0.75000000    2.84999990
   15.99527836   95.83010101    0.76999998    2.84999990
   15.99833393   85.44460297    0.75000000    2.86999989
   16.00166702   96.02680206    0.75000000    2.86999989
   16.00472260   85.94740295    0.70999998    2.86999989
   16.00666618   90.56939697    0.70999998    2.86999989
   16.00833321   85.02980042    0.70999998    2.86999989
   16.01166725   88.74299622    0.73000002    2.84999990
   16.01472282   93.44249725    0.73000002    2.84999990
   16.01805496   85.74890137    0.73000002    2.84999990
   16.02416611   85.74890137    0.76999998    2.84999990
   16.02833366   84.99819946    0.79000002    2.84999990
   16.03138924   98.22129822    0.81999999    2.84999990
   16.03472137   93.23059845    0.83999997    2.84999990
   16.03805542   81.92810059    0.83999997    2.84999990
   16.04027748   87.08630371    0.83999997    2.84999990
   16.04166603   85.03810120    0.81999999    2.84999990
   16.04472160   84.51260376    0.81999999    2.84999990
   16.04805565   89.80390167    0.81999999    2.84999990
   16.05138779   87.54370117    0.80000001    2.84999990
   16.05444336   86.43240356    0.80000001    2.84999990
   16.05777740   87.81569672    0.81999999    2.84999990
   16.06083298   88.15180206    0.83999997    2.84999990
   16.06694603   88.15180206    0.88000000    2.84999990
   16.07111168   94.57230377    0.92000002    2.86999989
   16.07361221   86.19920349    0.98000002    2.84999990
   16.07472229   95.93430328    0.98000002    2.84999990
   16.07777786   83.25650024    1.03999996    2.84999990
   16.08111191   95.11329651    1.03999996    2.84999990
   16.08444595   82.52629852    1.13000000    2.84999990
   16.08750153   82.88520050    1.11000001    2.82999992
   16.09083366   84.79740143    1.11000001    2.82999992
   16.09388924   88.89610291    1.11000001    2.84999990
   16.09722328   83.01149750    1.11000001    2.84999990
   16.10055542   85.95439911    1.07000005    2.84999990
   16.10361099   90.19439697    1.07000005    2.84999990
   16.10972214   90.19439697    1.05999994    2.84999990
   16.11388969   85.12909698    1.07000005    2.84999990
   16.11722183   93.26999664    1.07000005    2.84999990
   16.12055588   90.23729706    1.05999994    2.84999990
   16.12361145   84.98760223    1.05999994    2.84999990
   16.12694550   87.91829681    1.05999994    2.84999990
   16.13000107   82.67269897    1.07000005    2.84999990
   16.13333321   84.22370148    1.07000005    2.84999990
   16.13666725   89.08070374    1.09000003    2.84999990
   16.13972282   92.43499756    1.09000003    2.84999990
   16.14083290   90.95539856    1.09000003    2.84999990
   16.14333344   87.39630127    1.09000003    2.84999990
   16.14666748   95.13189697    1.09000003    2.84999990
   16.15277672   95.13189697    1.13000000    2.84999990
   16.15666580   87.72889709    1.16999996    2.82999992
   16.15999985   87.79900360    1.19000006    2.84999990
   16.16333389   97.71009827    1.21000004    2.84999990
   16.16666603   89.19069672    1.21000004    2.84999990
   16.17000008   91.07319641    1.21000004    2.84999990
   16.17333221   90.41889954    1.25000000    2.84999990
   16.17416573   89.94830322    1.25000000    2.84999990
   16.17666626   94.32099915    1.26999998    2.82999992
   16.18000031   85.14070129    1.28999996    2.84999990
   16.18333244   85.95230103    1.28999996    2.84999990
   16.18638802   89.10079956    1.36000001    2.84999990
   16.18972206   81.91480255    1.38000000    2.82999992
   16.19555473   81.91480255    1.41999996    2.84999990
   16.19972038   88.65390015    1.41999996    2.84999990
   16.20277786   94.30180359    1.39999998    2.82999992
   16.20611191   89.50980377    1.39999998    2.82999992
   16.20750046   95.19770050    1.41999996    2.82999992
   16.20972252   87.90110016    1.41999996    2.82999992
   16.21305656   95.07119751    1.48000002    2.82999992
   16.21611214   96.89350128    1.51999998    2.84999990
   16.21944427   94.53079987    1.58000004    2.82999992
   16.22277832   92.20880127    1.60000002    2.82999992
   16.22583389   92.03690338    1.60000002    2.82999992
   16.22916794  101.48600006    1.61000001    2.84999990
   16.23250008  104.35099792    1.58000004    2.82999992
   16.23833275  104.35099792    1.53999996    2.82999992
   16.25666618   98.37519836    1.55999994    2.82999992
   16.26000023  101.22899628    1.55999994    2.82999992
   16.26333427   96.62349701    1.53999996    2.82999992
   16.26638794  106.64199829    1.53999996    2.82999992
   16.26972198  102.51100159    1.55999994    2.82999992
   16.27305603  101.04299927    1.53999996    2.82999992
   16.27611160  110.29900360    1.53999996    2.84999990
   16.28138924  110.29900360    1.55999994    2.82999992
   16.28555489  100.01699829    1.55999994    2.82999992
   16.28888893  110.16899872    1.55999994    2.82999992
   16.28972244  104.95899963    1.53999996    2.84999990
   16.29249954   93.53579712    1.53999996    2.84999990
   16.29583359  102.05100250    1.50000000    2.82999992
   16.29888916   98.06430054    1.46000004    2.82999992
   16.30222130   99.94480133    1.46000004    2.82999992
   16.30527687   96.98239899    1.41999996    2.82999992
   16.30861092  101.75599670    1.39999998    2.82999992
   16.31194305  102.05599976    1.34000003    2.84999990
   16.31499863  103.92900085    1.30999994    2.84999990
   16.31833458   98.49960327    1.25000000    2.84999990
   16.32416725   98.49960327    1.28999996    2.84999990
   16.32833481   92.59100342    1.33000004    2.84999990
   16.33166695   94.19210052    1.33000004    2.84999990
   16.33500099   91.73459625    1.30999994    2.82999992
   16.33805656   93.65540314    1.33000004    2.84999990
   16.34138870   93.35389709    1.34000003    2.84999990
   16.34444427   92.25920105    1.34000003    2.84999990
   16.34777832   96.20839691    1.33000004    2.82999992
   16.35111237   99.24579620    1.33000004    2.84999990
   16.35416794   99.30169678    1.34000003    2.84999990
   16.35639000   99.44550323    1.34000003    2.84999990
   16.35777855   96.20839691    1.34000003    2.84999990
   16.36111069   91.32620239    1.34000003    2.86999989
   16.36722183   91.32620239    1.33000004    2.84999990
   16.37138939   97.87989807    1.33000004    2.82999992
   16.37444496   93.05310059    1.33000004    2.84999990
   16.37777710   92.98970032    1.30999994    2.84999990
   16.38111115   93.71269989    1.30999994    2.84999990
   16.38416672   92.55480194    1.33000004    2.84999990
   16.38750076   93.14669800    1.33000004    2.84999990
   16.38972282   92.07640076    1.36000001    2.84999990
   16.39111137   96.27590179    1.36000001    2.84999990
   16.39444351   97.56880188    1.44000006    2.84999990
   16.39749908   98.55249786    1.48000002    2.84999990
   16.40083313   96.92810059    1.48000002    2.84999990
   16.40388870   96.30960083    1.48000002    2.84999990
   16.40999985   96.30960083    1.48000002    2.84999990
   16.41416550   94.77819824    1.46000004    2.84999990
   16.41722107   97.46970367    1.44000006    2.84999990
   16.42055511   99.90640259    1.41999996    2.84999990
   16.42305565  101.44599915    1.41999996    2.84999990
   16.42444420   98.31800079    1.38000000    2.84999990
   16.42749977   97.67910004    1.36000001    2.84999990
   16.43083191   96.07550049    1.36000001    2.84999990
   16.43416595  102.91200256    1.38000000    2.82999992
   16.43722153   99.12059784    1.39999998    2.84999990
   16.44055557  102.46099854    1.41999996    2.84999990
   16.44388771  105.35600281    1.41999996    2.82999992
   16.44694328   99.63529968    1.41999996    2.82999992
   16.45277786   99.63529968    1.44000006    2.82999992
   16.45694542  106.10099792    1.48000002    2.84999990
   16.46027946  101.43299866    1.48000002    2.84999990
   16.46333504  106.37799835    1.50000000    2.84999990
   16.46666718  102.48999786    1.53999996    2.82999992
   16.47000122   99.61419678    1.55999994    2.84999990
   16.47305679   97.12460327    1.55999994    2.84999990
   16.47638893   94.99960327    1.58000004    2.84999990
   16.47972298   96.22489929    1.60000002    2.82999992
   16.48277855   93.60269928    1.61000001    2.82999992
   16.48611069   96.29029846    1.61000001    2.82999992
   16.48944473   99.17269897    1.63000000    2.84999990
   16.48999977   97.47080231    1.63000000    2.84999990
   16.49555588   97.47080231    1.63000000    2.82999992
   16.49972153  101.08899689    1.64999998    2.82999992
   16.50305557   99.54280090    1.66999996    2.82999992
   16.50638962  101.03199768    1.66999996    2.82999992
   16.50944519   99.38700104    1.63000000    2.82999992
   16.51277733   95.95290375    1.60000002    2.82999992
   16.51583290   97.53639984    1.60000002    2.84999990
   16.51916695   95.68599701    1.61000001    2.82999992
   16.52249908   98.81330109    1.64999998    2.84999990
   16.52333260  102.65799713    1.64999998    2.84999990
   16.52611160  101.81199646    1.71000004    2.82999992
   16.52916718  102.22499847    1.71000004    2.82999992
   16.53249931   96.84449768    1.78999996    2.84999990
   16.53861046   96.84449768    1.73000002    2.84999990
   16.54277802   99.58260345    1.73000002    2.82999992
   16.54583359   96.10990143    1.73000002    2.82999992
   16.54916573   98.17220306    1.71000004    2.84999990
   16.55222130   92.35230255    1.69000006    2.82999992
   16.55555534   97.52239990    1.64999998    2.84999990
   16.55666542   96.27870178    1.64999998    2.84999990
   16.55916595  101.53399658    1.61000001    2.84999990
   16.56222153   94.75340271    1.61000001    2.84999990
   16.56555557   99.08090210    1.58000004    2.82999992
   16.56888962   98.13549805    1.55999994    2.82999992
   16.57194519   96.23220062    1.48000002    2.84999990
   16.57527924   99.06379700    1.44000006    2.84999990
   16.58139038   99.06379700    1.41999996    2.84999990
   16.58555603   99.67250061    1.44000006    2.84999990
   16.58861160   94.38860321    1.50000000    2.86999989
   16.59000015   92.80210114    1.50000000    2.86999989
   16.59250069  100.49700165    1.50000000    2.86999989
   16.59555626   95.10030365    1.46000004    2.84999990
   16.59889030  101.95099640    1.46000004    2.84999990
   16.60194397   96.75520325    1.41999996    2.86999989
   16.60527802   97.26940155    1.41999996    2.84999990
   16.60861206   96.15899658    1.41999996    2.84999990
   16.61166763   97.65160370    1.41999996    2.84999990
   16.61499977   92.64040375    1.39999998    2.84999990
   16.61805534   93.37000275    1.38000000    2.84999990
   16.62444496   93.37000275    1.36000001    2.84999990
   16.62833405   90.96880341    1.36000001    2.82999992
   16.63166618  103.18399811    1.36000001    2.84999990
   16.63500023   89.92759705    1.33000004    2.84999990
   16.63805580   96.41790009    1.33000004    2.84999990
   16.64138794   93.17150116    1.34000003    2.84999990
   16.64472198   96.39969635    1.34000003    2.84999990
   16.64777756   93.44129944    1.33000004    2.84999990
   16.65111160  103.69899750    1.30999994    2.82999992
   16.65444374   92.69609833    1.28999996    2.84999990
   16.65666580   88.31880188    1.28999996    2.84999990
   16.65805435   97.56529999    1.28999996    2.82999992
   16.66110992  100.43699646    1.28999996    2.82999992
   16.66694450  100.43699646    1.30999994    2.84999990
   16.67111015   92.84539795    1.28999996    2.82999992
   16.67444420   93.08570099    1.28999996    2.84999990
   16.67777634   93.24559784    1.30999994    2.84999990
   16.68083191   90.40049744    1.30999994    2.82999992
   16.68416595   91.42530060    1.30999994    2.84999990
   16.68750000   98.01509857    1.33000004    2.86999989
   16.68999863   96.05079651    1.34000003    2.84999990
   16.69111061   93.75949860    1.34000003    2.84999990
   16.69416618   99.09239960    1.34000003    2.86999989
   16.69749832   92.00009918    1.34000003    2.84999990
   16.70055580  100.42400360    1.33000004    2.84999990
   16.70388985   94.92340088    1.33000004    2.84999990
   16.71000099   94.92340088    1.30999994    2.84999990
   16.71416664   96.56900024    1.30999994    2.84999990
   16.71722221   88.82129669    1.33000004    2.84999990
   16.72055626  102.72000122    1.30999994    2.84999990
   16.72333336   95.73159790    1.30999994    2.86999989
   16.72416687   94.99420166    1.28999996    2.84999990
   16.72722244   94.96520233    1.28999996    2.84999990
   16.73055649   97.41179657    1.28999996    2.84999990
   16.73361206   93.83489990    1.26999998    2.84999990
   16.73694420   95.15419769    1.26999998    2.84999990
   16.74027824   97.77989960    1.26999998    2.84999990
   16.74333382   86.85839844    1.21000004    2.84999990
   16.74666786   96.64669800    1.21000004    2.84999990
   16.75277710   96.64669800    1.14999998    2.84999990
   16.75694466   90.40740204    1.13000000    2.82999992
   16.76027870   91.29940033    1.13000000    2.86999989
   16.76333427   93.18470001    1.13000000    2.86999989
   16.76666641   96.05410004    1.11000001    2.84999990
   16.77000046   92.26270294    1.11000001    2.84999990
   16.77305603   91.75779724    1.11000001    2.84999990
   16.77638817   93.15750122    1.11000001    2.86999989
   16.77944374   95.28869629    1.09000003    2.84999990
   16.78277779  101.30300140    1.09000003    2.84999990
   16.78610992   97.42600250    1.09000003    2.84999990
   16.78916550   94.92900085    1.09000003    2.84999990
   16.78999901   96.96610260    1.09000003    2.84999990
   16.79555511   96.96610260    1.09000003    2.84999990
   16.79972076   92.40720367    1.09000003    2.84999990
   16.80305481   93.52940369    1.07000005    2.86999989
   16.80611038   90.57520294    1.07000005    2.84999990
   16.80944443   96.30090332    1.07000005    2.84999990
   16.81277657   88.32109833    1.11000001    2.84999990
   16.81583214   88.73419952    1.11000001    2.84999990
   16.81916809   91.62079620    1.09000003    2.86999989
   16.82222366   90.93769836    1.07000005    2.84999990
   16.82333374   87.46080017    1.07000005    2.84999990
   16.82611275   96.57720184    1.05999994    2.84999990
   16.82916832   90.57070160    1.05999994    2.84999990
   16.83250046   85.80509949    1.03999996    2.84999990
   16.83833313   85.80509949    1.03999996    2.84999990
   16.84277916   91.12930298    1.00000000    2.84999990
   16.84611130   92.99780273    0.98000002    2.86999989
   16.84944534   94.29280090    0.98000002    2.86999989
   16.85277748   92.08679962    1.00000000    2.86999989
   16.85583305   95.44100189    1.00000000    2.86999989
   16.85666656   91.20760345    1.00000000    2.84999990
   16.85972214   91.67410278    1.00000000    2.84999990
   16.86277771  101.51499939    0.98000002    2.84999990
   16.86611176   90.53189850    0.95999998    2.84999990
   16.86944389   88.16079712    0.92000002    2.84999990
   16.87249947   89.29290009    0.88000000    2.84999990
   16.87583351   88.47380066    0.86000001    2.84999990
   16.88138962   88.47380066    0.83999997    2.84999990
   16.88527679   92.92859650    0.81999999    2.86999989
   16.88861084   89.57710266    0.80000001    2.86999989
   16.88999939   94.81880188    0.80000001    2.86999989
   16.89222145   87.39389801    0.76999998    2.86999989
   16.89527702   92.88790131    0.79000002    2.86999989
   16.89861107   86.91649628    0.76999998    2.86999989
   16.90166664   92.99649811    0.76999998    2.86999989
   16.90499878   92.42600250    0.76999998    2.86999989
   16.90833282   92.15070343    0.79000002    2.86999989
   16.91138840   87.98539734    0.79000002    2.86999989
   16.91472244   97.22979736    0.76999998    2.86999989
   16.91805458   93.96649933    0.79000002    2.84999990
   16.92416573   93.96649933    0.79000002    2.86999989
   16.92833328   93.60389709    0.79000002    2.86999989
   16.93138885   89.00980377    0.79000002    2.84999990
   16.93472099   90.57749939    0.75000000    2.84999990
   16.93777657   86.77600098    0.75000000    2.84999990
   16.94111061   89.30300140    0.70999998    2.86999989
   16.94444275   92.73919678    0.70999998    2.86999989
   16.94749832   85.53659821    0.70999998    2.86999989
   16.95083427   87.61440277    0.70999998    2.84999990
   16.95416832   97.18029785    0.70999998    2.84999990
   16.95666695   92.66729736    0.70999998    2.84999990
   16.95777893   88.02960205    0.70999998    2.84999990
   16.96083450   89.02239990    0.70999998    2.86999989
   16.96722221   89.02239990    0.69000000    2.86999989
   16.97111130   84.54060364    0.69000000    2.86999989
   16.97444534   90.64369965    0.69000000    2.84999990
   16.97777748   88.55899811    0.69000000    2.86999989
   16.98083305   89.44020081    0.69000000    2.84999990
   16.98416710   85.62139893    0.69000000    2.84999990
   16.98750114   88.74379730    0.69000000    2.86999989
   16.98999977   86.69509888    0.69000000    2.84999990
   16.99111176   92.86430359    0.69000000    2.84999990
   16.99416733   89.60520172    0.69000000    2.86999989
   16.99749947   93.32510376    0.67000002    2.84999990
   17.00083351   89.44000244    0.67000002    2.86999989
   17.00388908   92.79869843    0.67000002    2.86999989
   17.00972176   92.79869843    0.64999998    2.84999990
   17.01388931   88.35710144    0.64999998    2.86999989
   17.01722145   93.33280182    0.63000000    2.86999989
   17.02027702   89.28710175    0.63000000    2.86999989
   17.02333260   91.70809937    0.63000000    2.86999989
   17.02416611   92.62429810    0.63000000    2.86999989
   17.02722168   85.05740356    0.63000000    2.86999989
   17.03055573   93.85399628    0.63000000    2.86999989
   17.03388786   89.24839783    0.63000000    2.84999990
   17.03694344   91.98069763    0.64999998    2.84999990
   17.04027748   85.31639862    0.64999998    2.86999989
   17.04361153   89.47010040    0.64999998    2.86999989
   17.04666710   86.55560303    0.64999998    2.86999989
   17.05277634   86.55560303    0.64999998    2.86999989
   17.05666542   91.73239899    0.67000002    2.86999989
   17.05999947   89.79129791    0.69000000    2.84999990
   17.06333351   90.87529755    0.69000000    2.84999990
   17.06638718   93.80200195    0.73000002    2.84999990
   17.06972313   88.86530304    0.73000002    2.84999990
   17.07277870   92.30429840    0.73000002    2.86999989
   17.07611275   92.78700256    0.75000000    2.84999990
   17.07944489   89.40730286    0.75000000    2.84999990
   17.08250046   92.43650055    0.76999998    2.84999990
   17.08583450   93.48329926    0.76999998    2.84999990
   17.08916664   88.68520355    0.80000001    2.84999990
   17.09000015   90.62270355    0.80000001    2.84999990
   17.09555626   90.62270355    0.80000001    2.84999990
   17.09972191   90.05580139    0.81999999    2.84999990
   17.10277748   90.94190216    0.81999999    2.84999990
   17.10611153   91.13729858    0.80000001    2.84999990
   17.10916710   90.03869629    0.81999999    2.84999990
   17.11250114   86.48419952    0.81999999    2.84999990
   17.11583328   86.51100159    0.80000001    2.84999990
   17.11916733   86.32479858    0.79000002    2.84999990
   17.12222290   91.60630035    0.79000002    2.84999990
   17.12333298   91.97630310    0.79000002    2.86999989
   17.12611198   88.04470062    0.79000002    2.84999990
   17.12916756   91.54470062    0.80000001    2.84999990
   17.13249969   88.48130035    0.80000001    2.84999990
   17.13833237   88.48130035    0.80000001    2.84999990
   17.14249992   87.39589691    0.80000001    2.84999990
   17.14555550   88.85440063    0.80000001    2.84999990
   17.14888954   95.01300049    0.81999999    2.86999989
   17.15222168   91.91629791    0.80000001    2.86999989
   17.15527725   87.18930054    0.81999999    2.86999989
   17.15666580   89.19460297    0.81999999    2.86999989
   17.15916634   88.83399963    0.83999997    2.84999990
   17.16222191   88.34809875    0.83999997    2.84999990
   17.16555595   87.03040314    0.83999997    2.84999990
   17.16888809   90.19290161    0.86000001    2.84999990
   17.17194366   87.71289825    0.86000001    2.84999990
   17.17527771   93.24909973    0.86000001    2.84999990
   17.18111038   93.24909973    0.83999997    2.86999989
   17.18527603   93.00959778    0.83999997    2.84999990
   17.18861008   94.45819855    0.86000001    2.84999990
   17.18999863   97.09470367    0.86000001    2.84999990
   17.19222069   87.95040131    0.88000000    2.86999989
   17.19555473   88.80130005    0.88000000    2.84999990
   17.19861031   89.35310364    0.88000000    2.84999990
   17.20194435   96.65370178    0.89999998    2.84999990
   17.20499992   88.23880005    0.89999998    2.84999990
   17.20833397   97.46260071    0.86000001    2.84999990
   17.21166801   91.71980286    0.86000001    2.84999990
   17.21472359   91.93019867    0.88000000    2.84999990
   17.21805573   92.06159973    0.88000000    2.84999990
   17.22416687   92.06159973    0.89999998    2.84999990
   17.22805595   89.35199738    0.89999998    2.84999990
   17.23139000   91.82659912    0.88000000    2.84999990
   17.23472214   89.66660309    0.88000000    2.84999990
   17.23777771   90.41419983    0.88000000    2.84999990
   17.24111176   89.84970093    0.88000000    2.84999990
   17.24444389   96.83580017    0.88000000    2.84999990
   17.24749947   93.46880341    0.88000000    2.84999990
   17.25083351   86.65419769    0.89999998    2.86999989
   17.25388908   94.14199829    0.88000000    2.84999990
   17.25666618   88.74420166    0.88000000    2.86999989
   17.27722168   88.74420166    0.89999998    2.84999990
   17.28138924   88.66539764    0.89999998    2.82999992
   17.28472137   88.68650055    0.92000002    2.84999990
   17.28777695   92.22579956    0.92000002    2.84999990
   17.28999901   93.38749695    0.92000002    2.84999990
   17.29166603   90.64289856    0.89999998    2.84999990
   17.29500008   94.02649689    0.88000000    2.84999990
   17.29833221   94.24700165    0.86000001    2.84999990
   17.30138779   88.53690338    0.86000001    2.84999990
   17.30472183   86.97100067    0.86000001    2.84999990
   17.30777740   85.79759979    0.86000001    2.84999990
   17.31110954   87.16560364    0.86000001    2.84999990
   17.31444359   86.88330078    0.86000001    2.84999990
   17.32027817   86.88330078    0.89999998    2.84999990
   17.32444572   92.72409821    0.89999998    2.84999990
   17.32750130   89.07510376    0.89999998    2.84999990
   17.33083344   89.02220154    0.89999998    2.84999990
   17.33416748   92.85089874    0.88000000    2.84999990
   17.33722305   90.91940308    0.88000000    2.84999990
   17.34055710   90.02790070    0.86000001    2.84999990
   17.34361267   86.05860138    0.86000001    2.84999990
   17.34694481   88.15699768    0.86000001    2.86999989
   17.35027885   90.30840302    0.86000001    2.84999990
   17.35333443   84.66230011    0.86000001    2.84999990
   17.35666656   93.09410095    0.88000000    2.84999990
   17.35722351   86.28379822    0.88000000    2.84999990
   17.36305618   86.28379822    0.89999998    2.84999990
   17.36694527   90.52069855    0.89999998    2.84999990
   17.37027740   88.15499878    0.94000000    2.84999990
   17.37361145   89.41049957    0.95999998    2.84999990
   17.37666702   98.30280304    0.98000002    2.84999990
   17.38000107   85.50859833    1.00000000    2.84999990
   17.38333321   86.95559692    1.00000000    2.84999990
   17.38638878   90.99530029    1.00000000    2.84999990
   17.38972282   87.77359772    1.01999998    2.82999992
   17.39055634   86.01180267    1.01999998    2.82999992
   17.39305496   89.54940033    1.01999998    2.84999990
   17.39638901   89.62680054    1.05999994    2.84999990
   17.39972115   84.89769745    1.07000005    2.86999989
   17.40583229   84.89769745    1.09000003    2.84999990
   17.40999985   90.12020111    1.09000003    2.84999990
   17.41305542   88.63809967    1.09000003    2.84999990
   17.41638756   91.72290039    1.07000005    2.84999990
   17.41944313   90.42019653    1.05999994    2.84999990
   17.42277718   87.33360291    1.03999996    2.84999990
   17.42388916   92.60859680    1.03999996    2.84999990
   17.42638779   90.81189728    1.03999996    2.84999990
   17.42972183   86.00129700    1.00000000    2.84999990
   17.43305397   88.58910370    0.95999998    2.84999990
   17.43610954   87.75160217    0.94000000    2.84999990
   17.43944359   87.74520111    0.94000000    2.84999990
   17.44249916   93.00299835    0.94000000    2.84999990
   17.44861031   93.00299835    0.95999998    2.82999992
   17.45277786   91.94370270    1.00000000    2.84999990
   17.45583344   96.78459930    1.00000000    2.84999990
   17.45722389   88.20790100    1.00000000    2.84999990
   17.45944595   92.63110352    1.01999998    2.84999990
   17.46277809   91.35079956    1.01999998    2.84999990
   17.46611214   97.28289795    1.00000000    2.84999990
   17.46916771   96.23690033    1.00000000    2.84999990
   17.47249985   89.58940125    0.98000002    2.84999990
   17.47555542   88.13899994    0.98000002    2.84999990
   17.47888947   94.20110321    0.98000002    2.84999990
   17.48222351   90.94809723    1.00000000    2.82999992
   17.48527718   88.05619812    1.01999998    2.82999992
   17.49138832   88.05619812    1.03999996    2.82999992
   17.49555588   87.15380096    1.01999998    2.84999990
   17.49888992   84.13739777    1.00000000    2.84999990
   17.50194359   84.96640015    0.98000002    2.82999992
   17.50527763   87.15910339    0.98000002    2.84999990
   17.50861168   91.51290131    0.98000002    2.84999990
   17.51166725   88.56040192    0.98000002    2.82999992
   17.51499939   85.39959717    0.98000002    2.82999992
   17.51805496   86.27469635    1.00000000    2.84999990
   17.52138901   86.09780121    1.01999998    2.84999990
   17.52388954   89.51909637    1.03999996    2.82999992
   17.52499962   89.73100281    1.03999996    2.82999992
   17.52833366   89.14749908    1.07000005    2.84999990
   17.53416634   89.14749908    1.07000005    2.82999992
   17.53833199   87.60119629    1.07000005    2.82999992
   17.54166603   95.29460144    1.05999994    2.82999992
   17.54500008   89.99839783    1.05999994    2.84999990
   17.54833221   88.76650238    1.05999994    2.82999992
   17.55138779   91.63809967    1.05999994    2.84999990
   17.55472183   94.11289978    1.07000005    2.82999992
   17.55722237   96.38390350    1.05999994    2.82999992
   17.55805397   92.00640106    1.07000005    2.82999992
   17.56138802   88.08679962    1.05999994    2.84999990
   17.56472206   87.37490082    1.07000005    2.82999992
   17.56777954   91.11959839    1.07000005    2.84999990
   17.57111168   88.92939758    1.05999994    2.84999990
   17.57722282   88.92939758    1.07000005    2.84999990
   17.58139038   87.19069672    1.07000005    2.84999990
   17.58444595   88.77559662    1.09000003    2.82999992
   17.58777809   88.43229675    1.09000003    2.82999992
   17.59055710   89.84799957    1.09000003    2.82999992
   17.59111214   94.68099976    1.09000003    2.82999992
   17.59444427   90.01210022    1.09000003    2.82999992
   17.59777832   87.61569977    1.09000003    2.82999992
   17.60083389   88.69830322    1.11000001    2.84999990
   17.60416794   92.84010315    1.11000001    2.82999992
   17.60750008   92.39309692    1.13000000    2.84999990
   17.61055565   88.30950165    1.11000001    2.84999990
   17.61388969   99.07309723    1.11000001    2.84999990
   17.62000084   99.07309723    1.11000001    2.82999992
   17.62416649   90.39769745    1.09000003    2.82999992
   17.62722206   90.08550262    1.09000003    2.82999992
   17.63055611   92.92659760    1.07000005    2.84999990
   17.63388824   87.27330017    1.07000005    2.84999990
   17.63722229   84.29750061    1.07000005    2.82999992
   17.64055634   87.71260071    1.09000003    2.82999992
   17.64361191   88.15329742    1.09000003    2.82999992
   17.64694405   86.07060242    1.05999994    2.84999990
   17.65027809   84.24069977    1.05999994    2.84999990
   17.65333366   86.35469818    1.05999994    2.84999990
   17.65666580   87.89450073    1.03999996    2.82999992
   17.65722275   88.40859985    1.03999996    2.82999992
   17.66277695   88.40859985    1.00000000    2.82999992
   17.66694450   84.64179993    1.01999998    2.82999992
   17.67027664   90.45279694    1.00000000    2.84999990
   17.67361069   85.44270325    1.01999998    2.82999992
   17.67694473   88.58039856    1.03999996    2.84999990
   17.68000031   88.11360168    1.03999996    2.84999990
   17.68333244   86.42430115    1.13000000    2.82999992
   17.68638802   86.03140259    1.09000003    2.82999992
   17.68972206   90.68009949    1.09000003    2.80999994
   17.69055557   87.66139984    1.09000003    2.82999992
   17.69333267   94.64779663    1.09000003    2.82999992
   17.69666672   85.23979950    1.05999994    2.82999992
   17.70000076   86.28160095    1.05999994    2.82999992
   17.70555687   86.28160095    1.05999994    2.82999992
   17.70972252   83.42359924    1.03999996    2.82999992
   17.71305656   86.96070099    1.03999996    2.82999992
   17.71638870   90.15619659    1.03999996    2.84999990
   17.71944427   89.92700195    1.03999996    2.82999992
   17.72277832   85.15969849    1.05999994    2.82999992
   17.72389030   90.78620148    1.05999994    2.82999992
   17.72611237   86.94709778    1.03999996    2.82999992
   17.72944450   89.28450012    1.05999994    2.82999992
   17.73277855   93.75710297    1.03999996    2.82999992
   17.73583412   91.38500214    1.03999996    2.82999992
   17.73916626   87.50890350    1.01999998    2.84999990
   17.74250031   88.12950134    1.00000000    2.82999992
   17.74861145   88.12950134    0.98000002    2.84999990
   17.75277710   86.52559662    1.00000000    2.82999992
   17.75583267   87.60980225    1.00000000    2.82999992
   17.75722313   90.52690125    1.00000000    2.82999992
   17.75972176   89.42420197    1.00000000    2.82999992
   17.76277733   84.20259857    1.00000000    2.82999992
   17.76611137   85.17279816    1.01999998    2.84999990
   17.76916695   86.48020172    1.01999998    2.82999992
   17.77249908   87.82360077    1.01999998    2.82999992
   17.77583313   84.20860291    1.01999998    2.82999992
   17.77888870   89.51979828    1.03999996    2.82999992
   17.78222275   90.05619812    1.03999996    2.82999992
   17.78555489   87.35569763    0.98000002    2.82999992
   17.79138756   87.35569763    0.92000002    2.84999990
   17.79555511   86.60019684    0.89999998    2.82999992
   17.79861069   89.38629913    0.89999998    2.82999992
   17.80194283   89.03260040    0.89999998    2.82999992
   17.80527687   86.85990143    0.89999998    2.82999992
   17.80833244   88.05439758    0.89999998    2.82999992
   17.81166649   88.51629639    0.88000000    2.82999992
   17.81499863   86.58619690    0.89999998    2.82999992
   17.81805611   89.03890228    0.89999998    2.84999990
   17.82139015   87.60279846    0.89999998    2.82999992
   17.82389069   86.37670135    0.89999998    2.82999992
   17.82500076   83.26039886    0.89999998    2.82999992
   17.82805634   91.40100098    0.89999998    2.84999990
   17.83416748   91.40100098    0.89999998    2.84999990
   17.83833313   90.96959686    0.89999998    2.82999992
   17.84166718   86.16059875    0.86000001    2.82999992
   17.84472275   94.77079773    0.86000001    2.82999992
   17.84805679   96.00839996    0.86000001    2.82999992
   17.85138893   88.70349884    0.86000001    2.84999990
   17.85444450   85.56439972    0.83999997    2.84999990
   17.85722351   93.55249786    0.83999997    2.84999990
   17.85833359   94.15010071    0.83999997    2.84999990
   17.86138916   89.67960358    0.83999997    2.84999990
   17.86472321   90.45269775    0.86000001    2.82999992
   17.86777878   87.55229950    0.83999997    2.84999990
   17.87111092   95.95809937    0.86000001    2.82999992
   17.87694550   95.95809937    0.89999998    2.82999992
   17.88111115   87.29579926    0.92000002    2.82999992
   17.88444519   91.74240112    0.92000002    2.84999990
   17.88777733   88.60359955    0.92000002    2.84999990
   17.89055634   87.37650299    0.94000000    2.84999990
   17.89138794   89.21299744    0.94000000    2.84999990
   17.89444351   86.23300171    0.95999998    2.82999992
   17.89777756   84.55339813    0.95999998    2.82999992
   17.90083313   86.60910034    0.95999998    2.82999992
   17.90416718   86.92070007    0.98000002    2.82999992
   17.90749931   91.93240356    0.95999998    2.82999992
   17.91055489   89.12940216    0.98000002    2.82999992
   17.91388893   91.02660370    0.98000002    2.82999992
   17.92000008   91.02660370    0.98000002    2.82999992
   17.92416573   92.15019989    0.98000002    2.84999990
   17.92722130   91.92790222    1.00000000    2.82999992
   17.93055534   86.44390106    1.00000000    2.82999992
   17.93361092   94.21330261    1.03999996    2.82999992
   17.93694305   88.31120300    1.07000005    2.82999992
   17.94027710   91.94120026    1.09000003    2.80999994
   17.94333267   86.48590088    1.11000001    2.80999994
   17.94666672   89.02580261    1.16999996    2.80999994
   17.95000076   89.04129791    1.19000006    2.80999994
   17.95305634   86.40529633    1.19000006    2.80999994
   17.95639038   84.67810059    1.19000006    2.82999992
   17.95722389   90.09590149    1.19000006    2.82999992
   17.96277809   90.09590149    1.21000004    2.80999994
   17.96694565   91.11239624    1.21000004    2.80999994
   17.97000122   84.71749878    1.21000004    2.80999994
   17.97333336   86.83090210    1.23000002    2.82999992
   17.97666740   87.43589783    1.26999998    2.80999994
   17.98000145   87.29170227    1.26999998    2.80999994
   17.98305511   89.04219818    1.28999996    2.80999994
   17.98638916   87.11820221    1.28999996    2.80999994
   17.98972321   87.77510071    1.28999996    2.80999994
   17.99055672   88.23249817    1.30999994    2.80999994
   17.99333382   86.48490143    1.30999994    2.80999994
   17.99638939   93.20619965    1.34000003    2.82999992
   17.99972153   91.44439697    1.36000001    2.80999994
   18.00555611   91.44439697    1.34000003    2.80999994
   18.00972176   88.73600006    1.30999994    2.82999992
   18.01305580   93.09559631    1.30999994    2.80999994
   18.01611137   88.47109985    1.30999994    2.80999994
   18.01944351   93.64170074    1.30999994    2.80999994
   18.02277756   97.36810303    1.30999994    2.80999994
   18.02388954   90.89880371    1.26999998    2.80999994
   18.02638817   91.53810120    1.26999998    2.80999994
   18.02944374   89.45459747    1.26999998    2.82999992
   18.03277779   87.26480103    1.30999994    2.80999994
   18.03610992   86.07790375    1.34000003    2.80999994
   18.03916550   84.92070007    1.33000004    2.80999994
   18.04249954   86.94940186    1.33000004    2.78999996
   18.04833221   86.94940186    1.30999994    2.80999994
   18.05249977   83.99310303    1.33000004    2.80999994
   18.05583191   94.06719971    1.30999994    2.80999994
   18.05722237   91.10030365    1.30999994    2.80999994
   18.05944443   89.72630310    1.30999994    2.80999994
   18.06250000   94.00309753    1.26999998    2.82999992
   18.06583214   88.82099915    1.28999996    2.82999992
   18.06916809   88.24060059    1.26999998    2.82999992
   18.07222366   87.81770325    1.26999998    2.82999992
   18.07555580   90.24030304    1.23000002    2.80999994
   18.07861137   97.83489990    1.21000004    2.82999992
   18.08194542   93.34670258    1.19000006    2.80999994
   18.08527756   94.35399628    1.16999996    2.80999994
   18.09138870   94.35399628    1.16999996    2.82999992
   18.09527779   88.95700073    1.16999996    2.82999992
   18.09861183   90.55899811    1.16999996    2.82999992
   18.10194397   90.86209869    1.14999998    2.82999992
   18.10499954   88.57189941    1.14999998    2.80999994
   18.10833359   89.99700165    1.16999996    2.82999992
   18.11166763   90.38809967    1.16999996    2.82999992
   18.11472321   88.30130005    1.16999996    2.80999994
   18.11805534   90.39140320    1.16999996    2.80999994
   18.12111092   92.26879883    1.16999996    2.80999994
   18.12388992   91.45870209    1.16999996    2.80999994
   18.12500000   88.54750061    1.16999996    2.80999994
   18.12805557   91.16320038    1.16999996    2.80999994
   18.13416672   91.16320038    1.16999996    2.80999994
   18.13833237   90.49669647    1.14999998    2.82999992
   18.14138794   96.58129883    1.14999998    2.80999994
   18.14500046   91.43479919    1.14999998    2.82999992
   18.14805603   90.35820007    1.14999998    2.82999992
   18.15138817   89.37640381    1.13000000    2.80999994
   18.15472221   89.21620178    1.13000000    2.80999994
   18.15722275   86.45310211    1.13000000    2.80999994
   18.15833282   93.67659760    1.14999998    2.80999994
   18.16138840   86.32460022    1.14999998    2.80999994
   18.16472244   88.68129730    1.14999998    2.80999994
   18.16805458   84.27149963    1.13000000    2.82999992
   18.17111015   85.24330139    1.13000000    2.82999992
   18.17694473   85.24330139    1.13000000    2.80999994
   18.18111038   87.69200134    1.13000000    2.80999994
   18.18444443   84.10269928    1.13000000    2.80999994
   18.18750000   86.80000305    1.13000000    2.80999994
   18.19055557   90.50800323    1.13000000    2.80999994
   18.19111061   88.09300232    1.13000000    2.80999994
   18.19416618   93.31629944    1.14999998    2.80999994
   18.19749832   90.41799927    1.14999998    2.80999994
   18.20083427   86.53800201    1.16999996    2.82999992
   18.20388985   90.16680145    1.14999998    2.80999994
   18.20722389   86.76580048    1.14999998    2.80999994
   18.21027946   89.73870087    1.14999998    2.80999994
   18.21361160   90.08529663    1.16999996    2.80999994
   18.21972275   90.08529663    1.14999998    2.80999994
   18.22389030   86.00689697    1.14999998    2.80999994
   18.22722244   89.47350311    1.13000000    2.82999992
   18.23055649   84.99579620    1.13000000    2.82999992
   18.23361206   89.21569824    1.13000000    2.80999994
   18.23694420   85.38719940    1.11000001    2.80999994
   18.24027824   82.34500122    1.09000003    2.82999992
   18.24333382   84.99960327    1.05999994    2.80999994
   18.24666786   87.77749634    1.01999998    2.80999994
   18.24972153   87.03730011    1.00000000    2.82999992
   18.25305557   84.32420349    1.00000000    2.82999992
   18.25638962   87.24099731    0.98000002    2.80999994
   18.25722313   90.07399750    0.98000002    2.80999994
   18.26277733   90.07399750    1.03999996    2.82999992
   18.26666641   90.34609985    1.03999996    2.82999992
   18.27000046   89.25469971    1.07000005    2.80999994
   18.27333260   87.23480225    1.07000005    2.80999994
   18.29083252   86.70210266    0.98000002    2.80999994
   18.29305458   84.00920105    0.98000002    2.80999994
   18.29638863   90.17829895    0.95999998    2.82999992
   18.29972076   88.33170319    0.92000002    2.82999992
   18.30555534   88.33170319    0.89999998    2.82999992
   18.30972099   88.72530365    0.89999998    2.82999992
   18.31305504   85.52570343    0.89999998    2.82999992
   18.31638718   89.26979828    0.92000002    2.80999994
   18.31944466   88.66989899    0.94000000    2.82999992
   18.32277870   90.32089996    0.94000000    2.82999992
   18.32416725   87.54190063    0.98000002    2.80999994
   18.32638931   90.69619751    0.98000002    2.80999994
   18.32972336   88.58239746    0.98000002    2.80999994
   18.33305550   89.49289703    0.98000002    2.82999992
   18.33611107   85.62470245    0.98000002    2.80999994
   18.33944511   87.98090363    1.00000000    2.82999992
   18.34277916   89.11319733    1.01999998    2.82999992
   18.34861183   89.11319733    1.03999996    2.80999994
   18.35277748   87.50990295    1.01999998    2.80999994
   18.35583305   88.82150269    1.00000000    2.78999996
   18.35722351   89.92639923    1.00000000    2.78999996
   18.35944557   88.91580200    0.98000002    2.82999992
   18.36277771   90.18119812    0.95999998    2.82999992
   18.36583328   91.14499664    0.94000000    2.80999994
   18.36916733   90.83769989    0.94000000    2.80999994
   18.37249947   90.45890045    0.94000000    2.80999994
   18.37555504   88.12950134    0.95999998    2.82999992
   18.37888908   87.16989899    0.95999998    2.82999992
   18.38222313   86.52020264    0.98000002    2.80999994
   18.38527679   94.86190033    1.00000000    2.80999994
   18.39138794   94.86190033    1.03999996    2.80999994
   18.39555550   91.88520050    1.05999994    2.80999994
   18.39861107   92.73329926    1.05999994    2.80999994
   18.40194321   93.30419922    1.09000003    2.80999994
   18.40527725   94.21710205    1.09000003    2.78999996
   18.40833282   91.97080231    1.11000001    2.80999994
   18.41166687   90.59210205    1.11000001    2.82999992
   18.41499901   89.55639648    1.11000001    2.82999992
   18.41805458   92.61389923    1.11000001    2.80999994
   18.42138863   92.55349731    1.11000001    2.80999994
   18.42416573   89.60829926    1.11000001    2.80999994
   18.42499924   91.28769684    1.11000001    2.80999994
   18.42833328   90.65039825    1.13000000    2.80999994
   18.43416595   90.65039825    1.13000000    2.80999994
   18.43833160   85.52760315    1.14999998    2.78999996
   18.44166565   88.32649994    1.16999996    2.78999996
   18.44472122   85.91020203    1.19000006    2.78999996
   18.44805527   87.07099915    1.19000006    2.80999994
   18.45138931   85.39299774    1.19000006    2.80999994
   18.45472336   94.15589905    1.19000006    2.80999994
   18.45750046   89.18859863    1.19000006    2.80999994
   18.45833397   91.40170288    1.19000006    2.80999994
   18.46166801   87.54070282    1.14999998    2.80999994
   18.46500015   90.51210022    1.16999996    2.80999994
   18.46805573   90.75720215    1.16999996    2.78999996
   18.47138977   96.23850250    1.16999996    2.78999996
   18.47722244   96.23850250    1.13000000    2.78999996
   18.48139000   85.52980042    1.13000000    2.78999996
   18.48472214   90.23960114    1.11000001    2.80999994
   18.48777771   96.45279694    1.11000001    2.80999994
   18.49083328   90.70200348    1.11000001    2.78999996
   18.49138832   90.03450012    1.11000001    2.78999996
   18.49472237   90.88790131    1.13000000    2.80999994
   18.49805641   92.19519806    1.14999998    2.80999994
   18.50111198   90.26950073    1.14999998    2.80999994
   18.50444412   98.47149658    1.16999996    2.78999996
   18.50749969   91.04620361    1.19000006    2.78999996
   18.51083374   91.95429993    1.16999996    2.80999994
   18.51416588   89.64330292    1.16999996    2.78999996
   18.52000046   89.64330292    1.16999996    2.78999996
   18.52416611   87.80349731    1.14999998    2.78999996
   18.52444458   88.90640259    1.14999998    2.78999996
   18.52777672   87.98390198    1.14999998    2.78999996
   18.53083229   87.10810089    1.16999996    2.80999994
   18.53416634   87.99759674    1.16999996    2.80999994
   18.53750038   90.75189972    1.16999996    2.78999996
   18.54055595   85.82620239    1.16999996    2.78999996
   18.54388809   92.73100281    1.21000004    2.80999994
   18.54722214   87.12429810    1.23000002    2.78999996
   18.55027771   84.35130310    1.25000000    2.78999996
   18.55360985   93.33129883    1.26999998    2.78999996
   18.55666542   88.94400024    1.26999998    2.78999996
   18.55749893   85.61609650    1.26999998    2.78999996
   18.56277657   85.61609650    1.28999996    2.78999996
   18.56694603   90.98120117    1.28999996    2.78999996
   18.57000160   89.19100189    1.28999996    2.78999996
   18.57333374   81.31510162    1.26999998    2.78999996
   18.57666779   87.29199982    1.26999998    2.78999996
   18.57972336   85.03089905    1.26999998    2.78999996
   18.58305550   89.48139954    1.25000000    2.80999994
   18.58638954   88.98269653    1.25000000    2.78999996
   18.58944511   86.29570007    1.25000000    2.78999996
   18.59083366   87.56199646    1.25000000    2.78999996
   18.59305573   88.74659729    1.23000002    2.80999994
   18.59638977   86.27629852    1.25000000    2.78999996
   18.59972191   90.16020203    1.25000000    2.78999996
   18.60555649   90.16020203    1.23000002    2.78999996
   18.60972214   92.58550262    1.23000002    2.78999996
   18.61305618   90.74759674    1.23000002    2.78999996
   18.61611176   88.69989777    1.23000002    2.78999996
   18.61944389   88.54879761    1.21000004    2.78999996
   18.62277794   90.30370331    1.21000004    2.78999996
   18.62416649   87.95010376    1.21000004    2.78999996
   18.62611198   88.24710083    1.19000006    2.78999996
   18.62944412   91.23709869    1.16999996    2.78999996
   18.63277817   87.30010223    1.19000006    2.78999996
   18.63583374   92.52799988    1.19000006    2.78999996
   18.63916588   98.08580017    1.19000006    2.78999996
   18.64222145   99.66799927    1.16999996    2.78999996
   18.64833260   99.66799927    1.14999998    2.78999996
   18.65250015   88.21289825    1.13000000    2.80999994
   18.65583229   89.71890259    1.13000000    2.80999994
   18.65749931   85.06970215    1.13000000    2.80999994
   18.65944481   86.55699921    1.13000000    2.78999996
   18.66277695   90.39969635    1.13000000    2.78999996
   18.66611099   89.33470154    1.13000000    2.78999996
   18.66916656   88.91970062    1.11000001    2.78999996
   18.67249870   90.63639832    1.11000001    2.78999996
   18.67583275   81.95230103    1.13000000    2.78999996
   18.67916679   90.56649780    1.13000000    2.78999996
   18.68222237   90.29160309    1.11000001    2.78999996
   18.68555450   96.51490021    1.09000003    2.80999994
   18.69138718   96.51490021    1.09000003    2.80999994
   18.69527626   86.79889679    1.09000003    2.80999994
   18.69861031   87.34290314    1.07000005    2.78999996
   18.70194435   94.67040253    1.05999994    2.78999996
   18.70499992   90.81780243    1.05999994    2.78999996
   18.70833397   87.03050232    1.05999994    2.78999996
   18.71166801   88.74819946    1.05999994    2.78999996
   18.71472359   90.68000031    1.07000005    2.78999996
   18.71805573   90.99700165    1.05999994    2.78999996
   18.72111130   90.45339966    1.03999996    2.78999996
   18.72416687   91.00759888    1.03999996    2.80999994
   18.72500038   92.38710022    1.03999996    2.80999994
   18.72833443   87.12750244    1.03999996    2.78999996
   18.73416710   87.12750244    1.01999998    2.80999994
   18.73833275   85.01860046    1.01999998    2.78999996
   18.74138832   86.20549774    1.01999998    2.78999996
   18.74472237   86.35440063    1.01999998    2.82999992
   18.74805641   85.04969788    1.01999998    2.80999994
   18.75111198   88.16369629    1.01999998    2.78999996
   18.75444412   84.43589783    1.01999998    2.80999994
   18.75749969   85.18109894    1.01999998    2.78999996
   18.75805473   88.72689819    1.01999998    2.78999996
   18.76166725   87.63539886    1.01999998    2.78999996
   18.76472282   87.44809723    1.01999998    2.80999994
   18.76805496   87.04969788    1.01999998    2.80999994
   18.77138901   91.29180145    1.01999998    2.78999996
   18.77694511   91.29180145    1.01999998    2.78999996
   18.78111076   94.81099701    1.03999996    2.78999996
   18.78444481   85.03730011    1.01999998    2.78999996
   18.78750038   92.46050262    0.98000002    2.78999996
   18.79083252   91.81330109    0.98000002    2.78999996
   18.79111099   92.11009979    0.98000002    2.78999996
   18.79444313   88.45079803    0.95999998    2.80999994
   18.79777718   89.60489655    0.94000000    2.78999996
   18.80083275   91.10289764    0.94000000    2.78999996
   18.80416679   88.97619629    0.94000000    2.78999996
   18.80722237   92.28900146    0.92000002    2.78999996
   18.81055450   94.01239777    0.92000002    2.80999994
   18.81388855   87.44129944    0.92000002    2.78999996
   18.81972313   87.44129944    0.89999998    2.78999996
   18.82389069   88.45439911    0.92000002    2.80999994
   18.82444572   87.77559662    0.92000002    2.80999994
   18.82777786   91.56800079    0.89999998    2.78999996
   18.83083344   89.34970093    0.89999998    2.78999996
   18.83416748   92.72059631    0.88000000    2.80999994
   18.83750153   90.98739624    0.88000000    2.78999996
   18.84055710   88.79329681    0.88000000    2.78999996
   18.84388924   91.15029907    0.88000000    2.78999996
   18.84722328   94.59880066    0.88000000    2.78999996
   18.85027885   91.20549774    0.88000000    2.78999996
   18.85361099   90.18399811    0.88000000    2.80999994
   18.85666656   91.70749664    0.88000000    2.78999996
   18.85777855   91.92379761    0.88000000    2.78999996
   18.86277771   91.92379761    0.88000000    2.78999996
   18.86666679   85.97489929    0.88000000    2.80999994
   18.87000084   90.89610291    0.88000000    2.78999996
   18.87333298   86.69779968    0.88000000    2.78999996
   18.87638855   87.09850311    0.88000000    2.78999996
   18.87972260   85.10790253    0.88000000    2.78999996
   18.88305473   95.36160278    0.88000000    2.80999994
   18.88611031   89.09989929    0.88000000    2.80999994
   18.88944435   87.61900330    0.89999998    2.78999996
   18.89111137   89.91059875    0.89999998    2.78999996
   18.89305496   86.68579865    0.89999998    2.78999996
   18.89611053   87.54859924    0.89999998    2.78999996
   18.89944458   90.36779785    0.88000000    2.78999996
   18.90555573   90.36779785    0.88000000    2.78999996
   18.90972137   94.46640015    0.88000000    2.80999994
   18.91277695   89.89939880    0.88000000    2.78999996
   18.91611099   95.32319641    0.88000000    2.78999996
   18.91944313  102.49800110    0.88000000    2.78999996
   18.92249870   91.97339630    0.88000000    2.78999996
   18.92444420   91.63449860    0.88000000    2.78999996
   18.92638779   88.60359955    0.88000000    2.78999996
   18.92972183   87.91639709    0.88000000    2.78999996
   18.93305397   90.01889801    0.88000000    2.78999996
   18.93610954   87.42420197    0.88000000    2.78999996
   18.93944359   87.52339935    0.88000000    2.78999996
   18.94249916   87.84079742    0.86000001    2.78999996
   18.94833183   87.84079742    0.86000001    2.78999996
   18.95250130   88.04290009    0.86000001    2.78999996
   18.95583344   87.15599823    0.86000001    2.78999996
   18.95777893   89.00189972    0.83999997    2.78999996
   18.95944595   89.10289764    0.83999997    2.78999996
   18.96250153   89.23950195    0.83999997    2.78999996
   18.96583366   86.78679657    0.81999999    2.78999996
   18.96916771   89.42400360    0.81999999    2.78999996
   18.97222328   89.38169861    0.81999999    2.80999994
   18.97555542   88.92130280    0.81999999    2.78999996
   18.97888947   87.06490326    0.81999999    2.78999996
   18.98194504   86.81559753    0.81999999    2.76999998
   18.98527718   93.58249664    0.80000001    2.78999996
   18.99111176   93.58249664    0.79000002    2.78999996
   18.99527740   85.86129761    0.79000002    2.78999996
   18.99861145   87.23249817    0.79000002    2.78999996
   19.00194359   88.79820251    0.79000002    2.80999994
   19.00499916   90.14739990    0.79000002    2.80999994
   19.00833321   88.10880280    0.79000002    2.78999996
   19.01138878   92.46700287    0.79000002    2.78999996
   19.01472282   90.10089874    0.79000002    2.78999996
   19.01805496   89.35710144    0.79000002    2.78999996
   19.02111053   87.78250122    0.79000002    2.78999996
   19.02444458   88.33599854    0.79000002    2.78999996
   19.02499962   92.01399994    0.79000002    2.78999996
   19.02805519   89.79740143    0.79000002    2.78999996
   19.03416634   89.79740143    0.79000002    2.78999996
   19.03805542   90.57959747    0.79000002    2.78999996
   19.04138756   86.67060089    0.81999999    2.78999996
   19.04472160   89.36160278    0.80000001    2.78999996
   19.04777718   88.61769867    0.80000001    2.78999996
   19.05111122   86.70079803    0.79000002    2.80999994
   19.05444336   93.45140076    0.79000002    2.78999996
   19.05749893   86.99250031    0.79000002    2.78999996
   19.05833244   88.39360046    0.79000002    2.78999996
   19.06110954   85.41880035    0.79000002    2.78999996
   19.06444359   90.02860260    0.79000002    2.76999998
   19.06777954   87.63220215    0.79000002    2.78999996
   19.07083511   85.21199799    0.76999998    2.78999996
   19.07694626   85.21199799    0.76999998    2.78999996
   19.08111191   93.32350159    0.76999998    2.78999996
   19.08416748   91.06009674    0.76999998    2.78999996
   19.08750153   87.74479675    0.76999998    2.78999996
   19.09083366   95.50689697    0.76999998    2.78999996
   19.09166718   87.28209686    0.76999998    2.78999996
   19.09416771  184.44200134    0.76999998    2.78999996
   19.09749985   92.66750336    0.76999998    2.78999996
   19.10083389   85.63800049    0.76999998    2.78999996
   19.10388947   88.57289886    0.76999998    2.76999998
   19.10722351   86.75769806    0.76999998    2.78999996
   19.11055565   88.66000366    0.79000002    2.78999996
   19.11361122   86.03430176    0.79000002    2.78999996
   19.11972237   86.03430176    0.79000002    2.78999996
   19.12388992   90.33049774    0.79000002    2.78999996
   19.12500000   89.63379669    0.79000002    2.78999996
   19.12722206   88.84059906    0.79000002    2.78999996
   19.13055611   85.66359711    0.80000001    2.78999996
   19.13388824   86.82620239    0.80000001    2.78999996
   19.13694382   90.10220337    0.80000001    2.78999996
   19.14027786   90.58999634    0.80000001    2.76999998
   19.14361191   92.81659698    0.81999999    2.76999998
   19.14666748   90.42179871    0.81999999    2.78999996
   19.14999962   91.27429962    0.81999999    2.78999996
   19.15333366   87.31439972    0.81999999    2.78999996
   19.15666580   89.94409943    0.81999999    2.78999996
   19.15833282   92.49310303    0.81999999    2.78999996
   19.16250038   92.49310303    0.81999999    2.78999996
   19.16666603   89.86450195    0.81999999    2.76999998
   19.17000008   90.69170380    0.81999999    2.76999998
   19.17305565   87.57409668    0.83999997    2.76999998
   19.17638779   87.87660217    0.86000001    2.76999998
   19.17972183   87.50180054    0.86000001    2.78999996
   19.18305397   92.15059662    0.86000001    2.76999998
   19.18610954   89.65499878    0.86000001    2.76999998
   19.18944359   91.26069641    0.86000001    2.76999998
   19.19166565   92.32369995    0.86000001    2.76999998
   19.19277763   88.27410126    0.86000001    2.76999998
   19.19610977   88.07749939    0.86000001    2.76999998
   19.19944382   89.66059875    0.86000001    2.76999998
   19.20527840   89.66059875    0.86000001    2.78999996
   19.20944595   87.56890106    0.86000001    2.78999996
   19.21277809   88.23960114    0.86000001    2.78999996
   19.21611214   88.43479919    0.86000001    2.76999998
   19.21916771   88.99349976    0.86000001    2.78999996
   19.22249985   89.93520355    0.83999997    2.76999998
   19.22500038   90.87750244    0.83999997    2.78999996
   19.22583389   89.96479797    0.83999997    2.78999996
   19.22916794   88.02269745    0.83999997    2.78999996
   19.23250008   89.01460266    0.86000001    2.78999996
   19.23555565   90.04039764    0.83999997    2.76999998
   19.23888969   89.26170349    0.86000001    2.76999998
   19.24222183   90.60600281    0.86000001    2.76999998
   19.24833298   90.60600281    0.88000000    2.76999998
   19.25250053   90.82250214    0.89999998    2.76999998
   19.25555611   90.62300110    0.88000000    2.78999996
   19.25833321   92.07800293    0.88000000    2.76999998
   19.25944519   89.41300201    0.88000000    2.76999998
   19.26277733   92.36979675    0.88000000    2.76999998
   19.26583290   90.04709625    0.89999998    2.76999998
   19.26916695   90.78009796    0.89999998    2.76999998
   19.27249908   91.73400116    0.95999998    2.76999998
   19.27555466   87.96170044    0.98000002    2.75000000
   19.27888870   88.89959717    0.98000002    2.75000000
   19.28222275   91.31240082    0.98000002    2.76999998
   19.28527641   91.75060272    0.98000002    2.76999998
   19.29111099   91.75060272    0.98000002    2.76999998
   19.30944443   89.64440155    0.95999998    2.76999998
   19.31277657   87.92790222    0.95999998    2.76999998
   19.31611061   88.72350311    0.95999998    2.76999998
   19.31916809   88.30370331    0.98000002    2.76999998
   19.32250023   83.93080139    1.00000000    2.76999998
   19.32583427   84.49009705    1.00000000    2.78999996
   19.32888985   84.46530151    0.98000002    2.76999998
   19.33416748   84.46530151    1.00000000    2.75000000
   19.33833313   91.93150330    1.01999998    2.76999998
   19.34166718   88.57409668    1.01999998    2.75000000
   19.34250069   89.38050079    1.01999998    2.75000000
   19.34527779   87.25489807    1.00000000    2.75000000
   19.34833336   89.68710327    1.00000000    2.75000000
   19.35166740   89.22840118    1.00000000    2.75000000
   19.35499954   88.37509918    1.01999998    2.75000000
   19.35805511   87.17610168    1.03999996    2.75000000
   19.36138916   87.83529663    1.09000003    2.75000000
   19.36472321   92.48130035    1.05999994    2.75000000
   19.36805534   84.22070313    1.05999994    2.75000000
   19.37138939   97.17659760    1.05999994    2.75000000
   19.37694550   97.17659760    1.05999994    2.76999998
   19.38111115   90.64459991    1.07000005    2.75000000
   19.38444519   91.77940369    1.05999994    2.75000000
   19.38750076   92.16660309    1.07000005    2.75000000
   19.39083290   89.67890167    1.07000005    2.75000000
   19.39416695   90.93830109    1.07000005    2.75000000
   19.39722252   87.49449921    1.07000005    2.75000000
   19.40055466   85.32959747    1.09000003    2.76999998
   19.40388870   86.83280182    1.11000001    2.75000000
   19.40694427   86.70890045    1.09000003    2.75000000
   19.40916634   86.20780182    1.09000003    2.75000000
   19.41055489   89.79589844    1.09000003    2.75000000
   19.41388893   88.20310211    1.09000003    2.75000000
   19.42000008   88.20310211    1.11000001    2.75000000
   19.42388916   87.24680328    1.13000000    2.75000000
   19.42722130   89.52359772    1.13000000    2.75000000
   19.43055534   91.55359650    1.13000000    2.75000000
   19.43361092   89.22429657    1.13000000    2.75000000
   19.43694305   91.79080200    1.13000000    2.75000000
   19.44027710   92.74099731    1.14999998    2.75000000
   19.44249916   87.45989990    1.19000006    2.75000000
   19.44388771   91.11060333    1.19000006    2.75000000
   19.44694328   90.36039734    1.23000002    2.75000000
   19.45027924   87.93019867    1.21000004    2.75000000
   19.45361137   90.55079651    1.21000004    2.75000000
   19.45694542   88.93019867    1.19000006    2.75000000
   19.46277809   88.93019867    1.19000006    2.75000000
   19.46694565   87.13400269    1.19000006    2.73000002
   19.47000122   88.60150146    1.16999996    2.75000000
   19.47333336   96.17749786    1.16999996    2.73000002
   19.47583389   87.31240082    1.16999996    2.75000000
   19.47694588   91.38159943    1.16999996    2.75000000
   19.48000145   87.48490143    1.16999996    2.75000000
   19.48361206   89.78579712    1.16999996    2.75000000
   19.48666763   88.14109802    1.16999996    2.75000000
   19.48999977   86.47290039    1.16999996    2.75000000
   19.49333382   86.67639923    1.19000006    2.75000000
   19.49638939   88.05889893    1.19000006    2.75000000
   19.49972153   87.02159882    1.19000006    2.75000000
   19.50555611   87.02159882    1.21000004    2.75000000
   19.50972176   90.77030182    1.21000004    2.75000000
   19.51305580   91.88320160    1.23000002    2.75000000
   19.51611137   88.80049896    1.25000000    2.73000002
   19.51944351   91.91519928    1.19000006    2.73000002
   19.52249908   94.35289764    1.19000006    2.73000002
   19.52583313   89.75530243    1.16999996    2.73000002
   19.52916718   89.77719879    1.19000006    2.75000000
   19.53222275   90.44840240    1.19000006    2.73000002
   19.53555489   89.63670349    1.16999996    2.75000000
   19.53888893   94.76799774    1.16999996    2.75000000
   19.54194450   87.45970154    1.16999996    2.75000000
   19.54249954   95.55680084    1.16999996    2.75000000
   19.54833221   95.55680084    1.14999998    2.75000000
   19.55249977   87.00389862    1.14999998    2.73000002
   19.55583191   91.38400269    1.14999998    2.73000002
   19.55888748   88.66929626    1.14999998    2.73000002
   19.56222153   86.07990265    1.13000000    2.73000002
   19.56555557   87.27839661    1.13000000    2.73000002
   19.56861115   86.89189911    1.13000000    2.73000002
   19.57194519   89.45020294    1.13000000    2.73000002
   19.57527924   88.43910217    1.13000000    2.75000000
   19.57583427   90.90830231    1.13000000    2.75000000
   19.57888985   89.44819641    1.14999998    2.75000000
   19.58222389   91.36430359    1.14999998    2.75000000
   19.58527756   88.04920197    1.14999998    2.75000000
   19.59138870   88.04920197    1.23000002    2.75000000
   19.59527779   83.16940308    1.19000006    2.73000002
   19.59861183   85.90640259    1.19000006    2.73000002
   19.60194397   87.39160156    1.19000006    2.73000002
   19.60499954   88.51069641    1.16999996    2.75000000
   19.60833359   87.03929901    1.16999996    2.75000000
   19.60916710   88.30650330    1.16999996    2.75000000
   19.61194420   87.10330200    1.16999996    2.75000000
   19.61527824   87.42420197    1.16999996    2.75000000
   19.61861038   88.43669891    1.21000004    2.75000000
   19.62166595   86.16940308    1.21000004    2.75000000
   19.62500000   90.94170380    1.19000006    2.73000002
   19.62833405   91.33470154    1.16999996    2.73000002
   19.63416672   91.33470154    1.16999996    2.73000002
   19.63833237   89.34459686    1.16999996    2.73000002
   19.64138794   93.08080292    1.19000006    2.73000002
   19.64249992   90.64499664    1.19000006    2.73000002
   19.64500046   90.10929871    1.21000004    2.73000002
   19.64833260   89.35250092    1.21000004    2.75000000
   19.65138817   90.83010101    1.25000000    2.73000002
   19.65472221   84.94629669    1.25000000    2.73000002
   19.65805435   88.93219757    1.23000002    2.73000002
   19.66110992   91.64440155    1.26999998    2.73000002
   19.66444397   85.76689911    1.23000002    2.73000002
   19.66749954   90.48449707    1.23000002    2.73000002
   19.67083359   88.50869751    1.25000000    2.73000002
   19.67694473   88.50869751    1.25000000    2.73000002
   19.68111038   88.00099945    1.26999998    2.73000002
   19.68444443   91.23560333    1.25000000    2.73000002
   19.68750000   88.58979797    1.25000000    2.73000002
   19.69083214   90.52050018    1.25000000    2.73000002
   19.69388771   91.90339661    1.25000000    2.71000004
   19.69722176   94.62660217    1.23000002    2.73000002
   19.70055580   92.45600128    1.23000002    2.73000002
   19.70361137   96.54270172    1.23000002    2.73000002
   19.70694542   95.20690155    1.21000004    2.71000004
   19.70916748   89.59529877    1.21000004    2.71000004
   19.71055603   86.84529877    1.21000004    2.71000004
   19.71389008   89.01149750    1.21000004    2.71000004
   19.71972275   89.01149750    1.21000004    2.73000002
   19.72389030   94.03869629    1.21000004    2.73000002
   19.72722244   91.76989746    1.28999996    2.73000002
   19.73027802   89.77970123    1.28999996    2.73000002
   19.73361206   87.53170013    1.28999996    2.73000002
   19.73694420   86.76679993    1.30999994    2.73000002
   19.73999977   89.43479919    1.30999994    2.71000004
   19.74250031   87.33049774    1.33000004    2.71000004
   19.74361229   86.62979889    1.33000004    2.73000002
   19.74694443   85.68460083    1.34000003    2.71000004
   19.75000000   86.78299713    1.34000003    2.71000004
   19.75333405   89.62629700    1.36000001    2.73000002
   19.75638962   95.21669769    1.36000001    2.71000004
   19.76277733   95.21669769    1.36000001    2.73000002
   19.76666641   96.50869751    1.36000001    2.71000004
   19.77000046   98.92160034    1.36000001    2.71000004
   19.77333260   91.16739655    1.36000001    2.71000004
   19.77583313   95.82630157    1.36000001    2.71000004
   19.77694511   91.64309692    1.36000001    2.71000004
   19.78027725   90.97119904    1.38000000    2.71000004
   19.78333282   92.03649902    1.34000003    2.71000004
   19.78666687   92.79460144    1.34000003    2.71000004
   19.78999901   94.74160004    1.33000004    2.71000004
   19.79305458   90.31749725    1.33000004    2.71000004
   19.79638863   89.85759735    1.33000004    2.71000004
   19.79944420   90.15029907    1.30999994    2.71000004
   19.80555534   90.15029907    1.28999996    2.71000004
   19.80972099   94.77320099    1.28999996    2.71000004
   19.81305504   90.28769684    1.28999996    2.71000004
   19.81638718   96.25370026    1.26999998    2.71000004
   19.81944466   85.25830078    1.26999998    2.71000004
   19.82277870   96.51399994    1.26999998    2.71000004
   19.82583427   92.39990234    1.26999998    2.71000004
   19.82916832   90.93000031    1.26999998    2.71000004
   19.83250046   87.79460144    1.26999998    2.71000004
   19.83555603   91.13430023    1.26999998    2.71000004
   19.83889008   88.74140167    1.26999998    2.71000004
   19.84222221   91.81189728    1.26999998    2.71000004
   19.84250069   89.43170166    1.26999998    2.71000004
   19.84833336   89.43170166    1.28999996    2.71000004
   19.85250092   87.23999786    1.30999994    2.71000004
   19.85583305   88.42140198    1.30999994    2.71000004
   19.85888863   87.49140167    1.33000004    2.71000004
   19.86222267   94.02829742    1.33000004    2.71000004
   19.86555672   87.13189697    1.33000004    2.71000004
   19.86861038   94.28440094    1.33000004    2.71000004
   19.87194443   90.15529633    1.30999994    2.71000004
   19.87527847   90.54460144    1.28999996    2.71000004
   19.87583351   90.80709839    1.28999996    2.71000004
   19.87888908   90.10340118    1.28999996    2.71000004
   19.88222313   88.64129639    1.28999996    2.71000004
   19.88527679   89.60430145    1.28999996    2.71000004
   19.89111137   89.60430145    1.28999996    2.71000004
   19.89527702   90.83380127    1.30999994    2.71000004
   19.89861107   87.73139954    1.30999994    2.71000004
   19.90166664   90.20290375    1.30999994    2.71000004
   19.90499878   88.18199921    1.28999996    2.71000004
   19.90833282   86.85569763    1.28999996    2.71000004
   19.90916634   92.22149658    1.28999996    2.71000004
   19.91194344   89.52590179    1.28999996    2.71000004
   19.91527748   89.56089783    1.28999996    2.71000004
   19.91833305   89.18309784    1.28999996    2.71000004
   19.92166519   84.37120056    1.28999996    2.71000004
   19.92499924   93.21710205    1.28999996    2.71000004
   19.92805481   90.48190308    1.28999996    2.71000004
   19.93416595   90.48190308    1.28999996    2.71000004
   19.93805504   95.59970093    1.26999998    2.71000004
   19.94138718   90.10130310    1.26999998    2.69000006
   19.94249916   95.62830353    1.26999998    2.69000006
   19.94499969   90.39920044    1.26999998    2.69000006
   19.94833183   88.74320221    1.26999998    2.71000004
   19.95138931   90.76969910    1.28999996    2.69000006
   19.95472336   89.14900208    1.28999996    2.71000004
   19.95805550   94.17559814    1.30999994    2.69000006
   19.96111107   87.59339905    1.30999994    2.69000006
   19.96444511   89.09819794    1.33000004    2.71000004
   19.96750069   93.49829865    1.34000003    2.69000006
   19.97083473   87.23609924    1.34000003    2.69000006
   19.97694588   87.23609924    1.34000003    2.69000006
   19.98111153   87.49210358    1.34000003    2.69000006
   19.98444557   87.08589935    1.36000001    2.69000006
   19.98777771   93.98719788    1.36000001    2.69000006
   19.99083328   90.65180206    1.36000001    2.69000006
   19.99416733   91.41040039    1.36000001    2.69000006
   19.99722290   90.26069641    1.36000001    2.71000004
   20.00055504   86.38230133    1.34000003    2.69000006
   20.00388908   90.21510315    1.34000003    2.69000006
   20.00694466   89.06829834    1.34000003    2.69000006
   20.00916672   91.18009949    1.36000001    2.69000006
   20.01055527   92.48979950    1.36000001    2.69000006
   20.01388931   92.74980164    1.36000001    2.69000006
   20.01972198   92.74980164    1.36000001    2.69000006
   20.02388954   89.05619812    1.38000000    2.69000006
   20.02722168   94.95110321    1.38000000    2.71000004
   20.03027725   91.28919983    1.38000000    2.67000008
   20.03361130   90.15010071    1.38000000    2.69000006
   20.03694344   87.82350159    1.39999998    2.69000006
   20.03999901   87.18640137    1.39999998    2.69000006
   20.04249954   86.03029633    1.39999998    2.69000006
   20.04361153   88.73819733    1.39999998    2.69000006
   20.04694366   88.88849640    1.41999996    2.69000006
   20.04999924   89.77749634    1.41999996    2.69000006
   20.05333328   89.29070282    1.41999996    2.69000006
   20.05666542   90.67140198    1.44000006    2.67000008
   20.06250000   90.67140198    1.44000006    2.69000006
   20.06666756   91.68499756    1.44000006    2.69000006
   20.07000160   94.17389679    1.44000006    2.69000006
   20.07305717   96.90049744    1.46000004    2.69000006
   20.07583427   94.75990295    1.44000006    2.69000006
   20.07666779   93.13009644    1.44000006    2.69000006
   20.08000183   92.85130310    1.46000004    2.69000006
   20.08305550   90.41220093    1.46000004    2.69000006
   20.08638954   93.17279816    1.46000004    2.69000006
   20.08972359   93.50270081    1.46000004    2.69000006
   20.09277916   90.73780060    1.46000004    2.69000006
   20.09611130   92.78500366    1.46000004    2.67000008
   20.09944534   94.05529785    1.46000004    2.69000006
   20.10527802   94.05529785    1.46000004    2.69000006
   20.10944557   92.77770233    1.46000004    2.67000008
   20.11277771   89.75509644    1.46000004    2.67000008
   20.11611176   91.38790131    1.46000004    2.67000008
   20.11916733   89.93409729    1.48000002    2.67000008
   20.12249947   88.75440216    1.48000002    2.69000006
   20.12583351   90.14679718    1.46000004    2.67000008
   20.12888908   89.95800018    1.44000006    2.67000008
   20.13222313   88.61579895    1.46000004    2.69000006
   20.13527679   89.02680206    1.44000006    2.69000006
   20.13861084   91.23069763    1.44000006    2.69000006
   20.14194489   95.26889801    1.46000004    2.69000006
   20.14249992   88.93489838    1.46000004    2.69000006
   20.14833260   88.93489838    1.46000004    2.69000006
   20.15250015   87.12640381    1.44000006    2.69000006
   20.15583229   92.74739838    1.48000002    2.67000008
   20.15916634   91.22339630    1.48000002    2.67000008
   20.16222191   94.36039734    1.50000000    2.69000006
   20.16555595   88.75039673    1.50000000    2.69000006
   20.16860962   92.94380188    1.50000000    2.67000008
   20.17194366   90.80500031    1.50000000    2.69000006
   20.17527771   89.26490021    1.48000002    2.67000008
   20.17583275   93.46600342    1.48000002    2.67000008
   20.17860985   89.32920074    1.48000002    2.67000008
   20.18194389   86.84230042    1.48000002    2.67000008
   20.18499947   88.40640259    1.50000000    2.69000006
   20.19111061   88.40640259    1.50000000    2.67000008
   20.19527626   92.31089783    1.55999994    2.67000008
   20.19861031   92.09439850    1.55999994    2.67000008
   20.20166779   89.42870331    1.55999994    2.67000008
   20.20499992   95.25700378    1.55999994    2.67000008
   20.20833397   87.99980164    1.55999994    2.66000009
   20.20944595   91.93890381    1.55999994    2.67000008
   20.21166801   94.00610352    1.55999994    2.67000008
   20.21500015   89.78880310    1.55999994    2.67000008
   20.21833420   94.86389923    1.58000004    2.67000008
   20.22138977   94.22000122    1.55999994    2.67000008
   20.22472191   94.48480225    1.58000004    2.66000009
   20.22777748   92.56479645    1.58000004    2.66000009
   20.23388863   92.56479645    1.60000002    2.67000008
   20.23805618   92.32360077    1.61000001    2.67000008
   20.24138832   89.15000153    1.61000001    2.67000008
   20.24277878   89.82460022    1.61000001    2.67000008
   20.24500084   90.83300018    1.63000000    2.67000008
   20.24833298   91.88539886    1.63000000    2.67000008
   20.25166702   91.89929962    1.64999998    2.67000008
   20.25472260   95.59929657    4.90999985    2.71000004
   20.25805473   90.17639923    0.58999997    1.55999994
   20.26111031   92.03250122    0.17000000    0.44000000
   20.26444435   89.23799896    0.17000000    0.44000000
   20.26777840   94.37509918    0.17000000    0.44000000
   20.27083397   88.05970001    0.17000000    0.44000000
   20.27666664   88.05970001    0.17000000    0.44000000
   20.28083229   96.18920135    0.17000000    0.44000000
   20.28416634   94.36910248    0.17000000    0.44000000
   20.28750038   96.77040100    0.17000000    0.44000000
   20.29055595   92.67250061    0.17000000    0.44000000
   20.29388809   93.21589661    0.17000000    0.44000000
   20.29722214   97.08399963    0.17000000    0.44000000
   20.30027771   98.71939850    0.17000000    0.44000000
   20.30360985   99.04209900    0.17000000    0.44000000
   20.30666542   89.11969757    0.17000000    0.44000000
   20.30944443   93.92739868    0.17000000    0.44000000
   20.33000183   93.92739868    0.17000000    0.44000000
   20.33416748   96.13909912    0.17000000    0.44000000
   20.33722305   92.29920197    0.17000000    0.44000000
   20.34055710   94.87079620    0.17000000    0.44000000
   20.34277916   90.46849823    0.17000000    0.44000000
   20.34416771   89.93099976    0.17000000    0.44000000
   20.34749985   95.47840118    0.17000000    0.44000000
   20.35055542   89.03569794    0.17000000    0.44000000
   20.35388947   94.33619690    0.17000000    0.44000000
   20.35722351   96.95829773    0.17000000    0.44000000
   20.36027908   93.67060089    0.17000000    0.44000000
   20.36361122   97.15889740    0.17000000    0.44000000
   20.36666679   94.09230042    0.17000000    0.44000000
   20.37277794   94.09230042    0.17000000    0.44000000
   20.37666702  101.88400269    0.17000000    0.44000000
   20.38000107   97.18890381    0.17000000    0.44000000
   20.38333321   95.49330139    0.17000000    0.44000000
   20.38638878   92.67160034    0.17000000    0.44000000
   20.38972282   96.47989655    0.17000000    0.44000000
   20.39277840   95.83719635    0.17000000    0.44000000
   20.39611053   94.88780212    0.17000000    0.44000000
   20.39944458   92.30280304    0.17000000    0.44000000
   20.40250015   87.52400208    0.17000000    0.44000000
   20.40583229   93.16169739    0.17000000    0.44000000
   20.40888786   90.97309875    0.17000000    0.44000000
   20.40944481   90.38300323    0.17000000    0.44000000
   20.41555595   90.38300323    0.17000000    0.44000000
   20.41972160   94.49220276    0.17000000    0.44000000
   20.42277718  100.56800079    0.17000000    0.44000000
   20.42611122   97.48690033    0.17000000    0.44000000
   20.42916679   89.80280304    0.17000000    0.44000000
   20.43249893   80.78260040    0.17000000    0.44000000
   20.43610954  100.80300140    0.17000000    0.44000000
   20.43916512   96.27999878    0.17000000    0.44000000
   20.45527840   -1.00000000   -1.00000000   -1.00000000
   20.46055603   -1.00000000   -1.00000000   -1.00000000
