    HOUR (UT)   FLARE FACTOR    SKY TESTER    SUN TESTER
   12.14916611   -1.00000000   -1.00000000   -1.00000000
   12.53361130  185.83599854    0.07000000    0.25000000
   12.53666687  182.74899292    0.07000000    0.25000000
   12.54000092  180.85400391    0.09000000    0.25000000
   12.54305553  188.96899414    0.09000000    0.25000000
   12.54638958  192.43699646    0.09000000    0.25000000
   12.54972267  176.07899475    0.09000000    0.25000000
   12.55388927  176.07899475    0.09000000    0.25000000
   12.55805588  185.15100098    0.11000000    0.25000000
   12.56111145  176.42799377    0.11000000    0.25000000
   12.56444454  173.93899536    0.11000000    0.25000000
   12.56666660  185.38499451    0.11000000    0.25000000
   12.56805515  197.32200623    0.11000000    0.25000000
   12.57166672  183.41499329    0.11000000    0.25000000
   12.57499981  187.99699402    0.13000000    0.25000000
   12.57805538  183.36599731    0.13000000    0.25000000
   12.58138847  177.09399414    0.13000000    0.25000000
   12.58472157  192.00000000    0.13000000    0.25000000
   12.58777714  202.88299561    0.13000000    0.25000000
   12.59111118  191.64399719    0.13000000    0.25000000
   12.59666634  191.64399719    0.13000000    0.25000000
   12.60083389  213.04699707    0.15000001    0.25000000
   12.60388947  217.99299622    0.15000001    0.25000000
   12.60722256  219.00799561    0.15000001    0.25000000
   12.61055565  202.99499512    0.15000001    0.25000000
   12.61361122  199.38699341    0.15000001    0.25000000
   12.61694431  176.95799255    0.15000001    0.25000000
   12.61999989  199.52900696    0.15000001    0.25000000
   12.62333393  192.57499695    0.15000001    0.25000000
   12.62666702  196.80599976    0.17000000    0.25000000
   12.62972260  194.30099487    0.17000000    0.25000000
   12.63305569  203.78799438    0.17000000    0.25000000
   12.63361073  189.22799683    0.17000000    0.25000000
   12.63944435  189.22799683    0.17000000    0.25000000
   12.64361095  203.07800293    0.17000000    0.25000000
   12.64694405  185.20700073    0.17000000    0.25000000
   12.64999962  181.99099731    0.17000000    0.25000000
   12.65333271  188.94200134    0.17000000    0.25000000
   12.65666676  182.01300049    0.17000000    0.25000000
   12.65972137  180.66900635    0.19000000    0.25000000
   12.66305542  189.77000427    0.19000000    0.25000000
   12.66638851  187.93400574    0.19000000    0.25000000
   12.66694450  194.23800659    0.19000000    0.25000000
   12.67000008  197.78399658    0.19000000    0.25000000
   12.67305565  193.80499268    0.19000000    0.25000000
   12.67638874  183.96800232    0.19000000    0.25000000
   12.68222237  183.96800232    0.19000000    0.25000000
   12.68638897  179.98300171    0.19000000    0.25000000
   12.68972206  183.09599304    0.20999999    0.25000000
   12.69277763  180.37500000    0.20999999    0.25000000
   12.69611073  179.17599487    0.20999999    0.25000000
   12.69944477  188.96299744    0.20999999    0.25000000
   12.70027733  185.14900208    0.20999999    0.25000000
   12.70305538  181.28599548    0.20999999    0.25000000
   12.70611095  178.62500000    0.20999999    0.25000000
   12.70944405  168.55999756    0.20999999    0.25999999
   12.71249962  172.13600159    0.20999999    0.25999999
   12.71583271  189.68299866    0.20999999    0.25000000
   12.71916580  178.78700256    0.20999999    0.25999999
   12.72527695  178.78700256    0.20999999    0.25999999
   12.72916603  174.26400757    0.20999999    0.25999999
   12.73249912  177.92700195    0.20999999    0.25999999
   12.73361111  174.77900696    0.20999999    0.25999999
   12.73638916  175.58500671    0.20999999    0.25999999
   12.73944473  181.96200562    0.20999999    0.25999999
   12.74277782  171.44999695    0.20999999    0.25999999
   12.74583340  184.76400757    0.20999999    0.25999999
   12.74916649  180.66099548    0.23000000    0.25999999
   12.75249958  173.42300415    0.23000000    0.25999999
   12.75555515  183.49800110    0.23000000    0.25999999
   12.75888920  178.49299622    0.23000000    0.25999999
   12.76222229  176.48399353    0.23000000    0.25999999
   12.76805496  176.48399353    0.23000000    0.25999999
   12.77222157  171.77099609    0.23000000    0.25999999
   12.77527714  185.33099365    0.23000000    0.25999999
   12.77861118  183.18099976    0.23000000    0.25999999
   12.78194427  175.72900391    0.23000000    0.25999999
   12.78500080  173.30099487    0.23000000    0.25999999
   12.78833389  172.62899780    0.23000000    0.25999999
   12.79138947  173.72300720    0.23000000    0.25999999
   12.79472256  165.89199829    0.23000000    0.25999999
   12.79805565  170.38400269    0.23000000    0.25999999
   12.80027771  174.07400513    0.23000000    0.25999999
   12.80166721  187.58500671    0.23000000    0.25999999
   12.80472279  175.49400330    0.23000000    0.25999999
   12.81083393  175.49400330    0.23000000    0.25999999
   12.81500053  161.72099304    0.23000000    0.25999999
   12.81833363  170.42799377    0.23000000    0.25999999
   12.82138920  179.94299316    0.25000000    0.25999999
   12.82472229  176.90199280    0.25000000    0.25999999
   12.82833290  185.10000610    0.25000000    0.25999999
   12.83138847  163.78799438    0.25000000    0.25999999
   12.83361053  169.07800293    0.25000000    0.25999999
   12.83555508  173.93299866    0.25000000    0.25999999
   12.83861065  163.33200073    0.25000000    0.25999999
   12.84194374  170.61900330    0.25000000    0.25999999
   12.84527779  168.46899414    0.25000000    0.25999999
   12.84833336  175.45399475    0.25000000    0.25999999
   12.85361195  175.45399475    0.25000000    0.25999999
   12.85777855  171.64599609    0.25000000    0.25999999
   12.86111164  179.93699646    0.25000000    0.25999999
   12.86416721  173.90199280    0.25999999    0.25999999
   12.86694431  161.19700623    0.25000000    0.25999999
   12.86805534  176.26800537    0.25999999    0.25999999
   12.87111092  168.39599609    0.25999999    0.25999999
   12.87444496  168.27600098    0.25000000    0.25999999
   12.87750053  176.46400452    0.25999999    0.25999999
   12.88083363  172.06500244    0.25999999    0.25999999
   12.88416672  171.01800537    0.25999999    0.25999999
   12.88722229  168.63900757    0.25999999    0.25999999
   12.89055538  162.06900024    0.25999999    0.25999999
   12.89666653  162.06900024    0.25999999    0.25999999
   12.90055561  166.63400269    0.25999999    0.25999999
   12.90388870  178.25799561    0.28000000    0.25999999
   12.90722179  179.39599609    0.28000000    0.25999999
   12.91027737  171.78300476    0.28000000    0.25999999
   12.91361046  156.95899963    0.28000000    0.25999999
   12.91694450  157.36399841    0.28000000    0.25999999
   12.92000008  162.51100159    0.28000000    0.25999999
   12.92333412  166.99499512    0.28000000    0.25999999
   12.92638874  157.21299744    0.28000000    0.25999999
   12.92972279  170.83399963    0.28000000    0.25999999
   12.93305588  158.41000366    0.28000000    0.25999999
   12.93361092  159.44999695    0.28000000    0.25999999
   12.93944454  159.44999695    0.30000001    0.25999999
   12.94361115  180.80700684    0.30000001    0.25999999
   12.94666672  167.53199768    0.30000001    0.25999999
   12.94999981  165.25900269    0.30000001    0.25999999
   12.95333290  158.35800171    0.30000001    0.25999999
   12.95638847  161.31799316    0.30000001    0.25999999
   12.95972157  174.56799316    0.30000001    0.25999999
   12.96277714  159.46099854    0.30000001    0.25999999
   12.96611118  150.82600403    0.30000001    0.25999999
   12.96694374  154.06799316    0.30000001    0.25999999
   12.96972179  157.85400391    0.30000001    0.25999999
   12.97277737  168.10800171    0.30000001    0.25999999
   12.97611046  168.06199646    0.30000001    0.25999999
   12.98222160  168.06199646    0.30000001    0.28000000
   12.98638916  177.75300598    0.30000001    0.25999999
   12.98944473  172.67599487    0.30000001    0.28000000
   12.99277782  183.12800598    0.30000001    0.28000000
   12.99611092  170.60600281    0.30000001    0.25999999
   12.99916649  171.66499329    0.30000001    0.28000000
   13.00027752  165.89399719    0.30000001    0.25999999
   13.00305557  176.59300232    0.30000001    0.25999999
   13.00611115  168.29600525    0.30000001    0.25999999
   13.00944424  170.87600708    0.30000001    0.25999999
   13.01277733  165.42999268    0.30000001    0.28000000
   13.01583290  162.86900330    0.30000001    0.28000000
   13.01916599  169.10600281    0.28000000    0.25999999
   13.02499962  169.10600281    0.30000001    0.28000000
   13.02916622  174.16799927    0.30000001    0.28000000
   13.03249931  171.65600586    0.30000001    0.28000000
   13.03361130  183.18200684    0.30000001    0.28000000
   13.03611183  176.93699646    0.30000001    0.28000000
   13.03916740  178.66000366    0.30000001    0.28000000
   13.04250050  177.75100708    0.30000001    0.25999999
   13.04583359  168.74499512    0.28000000    0.28000000
   13.04888916  176.87800598    0.30000001    0.28000000
   13.05222225  178.72799683    0.30000001    0.28000000
   13.05527782  167.42999268    0.28000000    0.28000000
   13.05861092  177.16600037    0.30000001    0.28000000
   13.06194496  170.94999695    0.30000001    0.28000000
   13.06777763  170.94999695    0.30000001    0.28000000
   13.07194424  175.43400574    0.28000000    0.28000000
   13.07527733  168.92799377    0.28000000    0.28000000
   13.07861137  160.51800537    0.28000000    0.28000000
   13.08166695  171.88000488    0.28000000    0.28000000
   13.08500004  164.19700623    0.28000000    0.28000000
   13.08805561  162.50599670    0.28000000    0.28000000
   13.09138870  165.94400024    0.28000000    0.28000000
   13.09472179  162.69599915    0.28000000    0.28000000
   13.09777737  161.79899597    0.28000000    0.28000000
   13.10027790  171.01600647    0.28000000    0.28000000
   13.10166740  164.59100342    0.25999999    0.28000000
   13.10472298  160.82499695    0.28000000    0.28000000
   13.11083412  160.82499695    0.25999999    0.28000000
   13.11500072  161.89500427    0.25999999    0.28000000
   13.11805534  168.01800537    0.25999999    0.28000000
   13.12138939  147.05299377    0.25999999    0.28000000
   13.12444496  156.43299866    0.25999999    0.28000000
   13.12777805  148.08399963    0.25999999    0.28000000
   13.13111115  149.92399597    0.25999999    0.28000000
   13.13361073  150.15299988    0.25999999    0.28000000
   13.13472176  150.96600342    0.25999999    0.28000000
   13.13777733  148.65800476    0.25999999    0.28000000
   13.14111137  150.54400635    0.25999999    0.28000000
   13.14444447  167.88600159    0.28000000    0.28000000
   13.14750004  151.19000244    0.25999999    0.28000000
   13.15361118  151.19000244    0.28000000    0.28000000
   13.15777779  161.95599365    0.28000000    0.28000000
   13.16083336  169.93400574    0.28000000    0.28000000
   13.16416645  170.79699707    0.28000000    0.28000000
   13.16694450  178.87300110    0.28000000    0.28000000
   13.16777802  179.39399719    0.28000000    0.28000000
   13.17111111  171.68899536    0.28000000    0.28000000
   13.17416668  167.72200012    0.28000000    0.28000000
   13.17750072  180.91299438    0.28000000    0.28000000
   13.18055630  161.01699829    0.28000000    0.28000000
   13.18388939  149.31599426    0.28000000    0.28000000
   13.18722248  148.48199463    0.28000000    0.28000000
   13.19027805  159.83900452    0.28000000    0.28000000
   13.19638920  159.83900452    0.28000000    0.28000000
   13.20055580  165.36199951    0.28000000    0.28000000
   13.20388889  163.51300049    0.28000000    0.28000000
   13.20694447  163.28300476    0.25999999    0.28000000
   13.21027756  157.58799744    0.28000000    0.28000000
   13.21361065  164.83700562    0.28000000    0.28000000
   13.21666622  169.19000244    0.28000000    0.28000000
   13.21999931  157.54800415    0.28000000    0.28000000
   13.22305489  157.83299255    0.25999999    0.28000000
   13.22638798  159.83799744    0.25999999    0.28000000
   13.22972202  166.62899780    0.25999999    0.28000000
   13.23277760  171.95100403    0.25999999    0.28000000
   13.23361111  170.24600220    0.25999999    0.28000000
   13.23916721  170.24600220    0.25999999    0.28000000
   13.24333382  161.84199524    0.25999999    0.28000000
   13.24666691  172.63900757    0.25999999    0.28000000
   13.25000000  169.10600281    0.25999999    0.28000000
   13.25305557  163.82600403    0.25999999    0.28000000
   13.25638866  179.44000244    0.25999999    0.28000000
   13.25972176  166.13000488    0.25999999    0.28000000
   13.26277733  158.48500061    0.25999999    0.28000000
   13.26611137  170.46200562    0.25999999    0.28000000
   13.26694393  152.12500000    0.25999999    0.28000000
   13.26972198  148.88099670    0.25999999    0.28000000
   13.27277756  145.16499329    0.25999999    0.28000000
   13.27611065  149.66200256    0.25999999    0.28000000
   13.28222179  149.66200256    0.25000000    0.28000000
   13.28611183  159.77799988    0.25999999    0.28000000
   13.28944492  160.44400024    0.25999999    0.28000000
   13.29277802  155.42100525    0.25000000    0.28000000
   13.29583359  159.06300354    0.25000000    0.28000000
   13.29916668  151.57499695    0.25000000    0.28000000
   13.30027771  149.00300598    0.25000000    0.28000000
   13.30277824  148.07699585    0.25999999    0.28000000
   13.30583382  147.64199829    0.25000000    0.28000000
   13.30916691  148.62500000    0.25000000    0.28000000
   13.31250000  152.55700684    0.25000000    0.30000001
   13.31555557  142.28900146    0.25000000    0.28000000
   13.31888866  142.47799683    0.25000000    0.28000000
   13.32499981  142.47799683    0.25000000    0.28000000
   13.32916641  148.45799255    0.25000000    0.30000001
   13.33222198  156.57499695    0.25000000    0.28000000
   13.33361053  170.70599365    0.25000000    0.28000000
   13.33611107  165.94099426    0.25000000    0.28000000
   13.33916664  161.07800293    0.25000000    0.30000001
   13.34249973  170.44999695    0.25000000    0.30000001
   13.34583282  171.35600281    0.25000000    0.30000001
   13.34888840  175.24099731    0.25000000    0.28000000
   13.35222244  167.11399841    0.25000000    0.28000000
   13.35555553  168.01800537    0.25000000    0.30000001
   13.35861111  167.39900208    0.25999999    0.28000000
   13.36194515  159.51800537    0.25999999    0.28000000
   13.36777782  159.51800537    4.90999985    2.39000010
   13.37194443  154.51300049    4.90999985    2.39000010
   13.37527752  162.93400574    4.90999985    2.39000010
   13.37861156  176.53999329    4.90999985    2.39000010
   13.38166714  174.39300537    4.90999985    2.39000010
   13.38500023  170.06199646    4.90999985    2.39000010
   13.38833332  169.80099487    4.90999985    2.36999989
   13.39138889  176.12300110    4.38999987    2.30999994
   13.39472198  166.52600098    4.11999989    2.32999992
   13.39777756  174.04200745    3.99000001    2.32999992
   13.40027714  166.48800659    3.93000007    2.32999992
   13.40166664  176.38000488    3.86999989    2.32999992
   13.40499973  169.43400574    3.86999989    2.32999992
   13.41055489  169.43400574    3.72000003    2.32999992
   13.41472149  159.20300293    3.39000010    2.32999992
   13.41805553  172.40199280    3.34999990    2.32999992
   13.42138958  166.38900757    3.28999996    2.34999990
   13.42444515  169.84599304    3.20000005    2.34999990
   13.42777824  170.19799805    3.21000004    2.32999992
   13.43083382  171.60000610    3.26999998    2.32999992
   13.43361092  170.57899475    3.26999998    2.34999990
   13.43472195  176.31599426    3.26999998    2.32999992
   13.43805599  142.96299744    3.28999996    2.34999990
   13.44111156  182.18400574    3.26999998    2.34999990
   13.44444466  173.29299927    3.23000002    2.32999992
   13.44750023  164.11700439    3.21000004    2.34999990
   13.45361137  164.11700439    3.26999998    2.34999990
   13.45749950  174.24000549    3.25000000    2.34999990
   13.46083355  179.27600098    3.26999998    2.34999990
   13.46416664  168.33500671    3.28999996    2.34999990
   13.46694374  179.07499695    3.21000004    2.34999990
   13.46777725  164.54499817    3.21000004    2.34999990
   13.47111034  162.49899292    3.14000010    2.34999990
   13.47416592  168.12199402    3.09999990    2.34999990
   13.47749996  169.05000305    3.11999989    2.34999990
   13.48055553  173.39700317    3.20000005    2.34999990
   13.48388958  181.24200439    3.23000002    2.34999990
   13.48722267  184.79299927    3.26999998    2.34999990
   13.49027824  185.99000549    3.26999998    2.34999990
   13.49638939  185.99000549    3.21000004    2.36999989
   13.50055599  174.06799316    3.18000007    2.34999990
   13.50361156  170.48800659    3.03999996    2.36999989
   13.50694466  174.53199768    2.93000007    2.36999989
   13.51027775  173.52299500    2.84999990    2.36999989
   13.51333332  169.36199951    2.80999994    2.36999989
   13.51666641  181.88999939    2.73000002    2.39000010
   13.51972198  173.38000488    2.66000009    2.36999989
   13.52305508  169.85000610    2.57999992    2.36999989
   13.52638817  179.45899963    2.50000000    2.36999989
   13.52944374  162.78799438    2.42000008    2.39000010
   13.53277779  178.57099915    2.44000006    2.39000010
   13.53361130  161.84199524    2.44000006    2.39000010
   13.55444431  161.84199524    2.17000008    2.39000010
   13.55861092  168.58399963    2.19000006    2.39000010
   13.56166649  164.17999268    2.17000008    2.39000010
   13.56500053  170.25500488    2.15000010    2.39000010
   13.56694412  166.84700012    2.15000010    2.39000010
   13.56861115  168.65199280    2.15000010    2.39000010
   13.57194424  178.28500366    2.15000010    2.39000010
   13.57499981  177.20100403    2.19000006    2.39000010
   13.57833290  174.28500366    2.21000004    2.39000010
   13.58138847  181.57099915    2.26999998    2.39000010
   13.58472157  172.04400635    2.36999989    2.39000010
   13.58805561  179.14999390    2.39000010    2.39000010
   13.59111118  178.77999878    2.34999990    2.39000010
   13.59694386  178.77999878    2.17000008    2.39000010
   13.60111141  179.19500732    2.13000011    2.39000010
   13.60444450  189.18200684    2.11999989    2.40000010
   13.60777855  187.77799988    2.13000011    2.39000010
   13.61083412  176.32000732    2.17000008    2.39000010
   13.61416721  171.13900757    2.21000004    2.39000010
   13.61750031  176.41499329    2.19000006    2.40000010
   13.62055588  174.40699768    2.11999989    2.39000010
   13.62388897  179.26699829    2.05999994    2.40000010
   13.62694454  168.08900452    2.03999996    2.39000010
   13.63027763  171.73399353    2.00000000    2.40000010
   13.63361073  185.96499634    1.96000004    2.40000010
   13.63416672  176.97599792    1.96000004    2.40000010
   13.64000034  176.97599792    2.09999990    2.40000010
   13.64416695  169.75599670    2.15000010    2.40000010
   13.64722252  178.26699829    2.09999990    2.40000010
   13.65055561  164.63099670    1.94000006    2.40000010
   13.65361118  172.53599548    1.89999998    2.40000010
   13.65694427  166.85099792    1.88000000    2.40000010
   13.66027737  160.62500000    1.86000001    2.40000010
   13.66333294  171.75100708    1.86000001    2.40000010
   13.66666698  167.13800049    1.69000006    2.40000010
   13.66750050  177.32699585    1.66999996    2.40000010
   13.67027855  170.47099304    1.66999996    2.40000010
   13.67361164  180.32099915    1.69000006    2.40000010
   13.67694473  173.66900635    1.71000004    2.40000010
   13.68277836  173.66900635    1.71000004    2.40000010
   13.68694496  168.86900330    1.76999998    2.40000010
   13.69000053  166.03900146    1.76999998    2.40000010
   13.69333363  173.73899841    1.76999998    2.40000010
   13.69666672  170.49000549    1.75000000    2.40000010
   13.69972229  181.28100586    1.75000000    2.40000010
   13.70083332  182.98599243    1.75000000    2.42000008
   13.70333290  186.45399475    1.76999998    2.40000010
   13.70666695  178.43699646    1.76999998    2.40000010
   13.71000004  182.95500183    1.76999998    2.40000010
   13.71305561  175.55200195    1.76999998    2.42000008
   13.71638870  184.56700134    1.75000000    2.40000010
   13.71944427  179.55700684    1.75000000    2.40000010
   13.72555542  179.55700684    1.66999996    2.40000010
   13.72972202  194.52799988    1.63000000    2.42000008
   13.73305511  170.06599426    1.64999998    2.42000008
   13.73416710  172.22599792    1.64999998    2.42000008
   13.73666668  175.94099426    1.64999998    2.42000008
   13.74000072  184.51199341    1.69000006    2.42000008
   13.74333382  201.31799316    1.69000006    2.42000008
   13.74638939  180.50500488    1.66999996    2.42000008
   13.74972248  174.32299805    1.64999998    2.42000008
   13.75277805  191.69599915    1.64999998    2.42000008
   13.75611115  178.54200745    1.63000000    2.42000008
   13.75944424  188.86099243    1.63000000    2.42000008
   13.76249981  177.28900146    1.63000000    2.42000008
   13.76833344  177.28900146    1.63000000    2.42000008
   13.77250004  179.30400085    1.63000000    2.42000008
   13.77583313  178.75900269    1.66999996    2.42000008
   13.77916622  179.01699829    1.69000006    2.42000008
   13.78222179  183.10699463    1.69000006    2.42000008
   13.78555584  182.68200684    1.71000004    2.42000008
   13.78888893  184.81799316    1.75000000    2.42000008
   13.79222298  184.78799438    1.76999998    2.42000008
   13.79527855  175.22900391    1.80999994    2.42000008
   13.79861164  185.09199524    1.80999994    2.42000008
   13.80083370  177.68600464    1.80999994    2.42000008
   13.80222225  177.70399475    1.76999998    2.44000006
   13.80555534  172.72399902    1.76999998    2.44000006
   13.81138897  172.72399902    1.85000002    2.42000008
   13.81555557  169.94700623    1.89999998    2.42000008
   13.81861115  179.63699341    1.94000006    2.44000006
   13.82194424  167.48199463    1.98000002    2.44000006
   13.82527733  186.70100403    1.91999996    2.42000008
   13.82833290  168.01100159    1.91999996    2.42000008
   13.83166695  171.61399841    1.89999998    2.44000006
   13.83416653  164.55400085    1.83000004    2.44000006
   13.83555508  178.71499634    1.83000004    2.44000006
   13.83888817  169.73399353    1.63000000    2.44000006
   13.84222221  171.52099609    1.66999996    2.42000008
   13.84555531  167.57000732    1.69000006    2.44000006
   13.84888840  161.07400513    1.73000002    2.42000008
   13.85416698  161.07400513    1.60000002    2.44000006
   13.85833359  166.75399780    1.53999996    2.42000008
   13.86138916  171.98800659    1.51999998    2.42000008
   13.86472225  161.81900024    1.61000001    2.44000006
   13.86750031  164.32499695    1.63000000    2.44000006
   13.86833382  165.42500305    1.63000000    2.44000006
   13.87166691  175.49499512    1.63000000    2.44000006
   13.87500000  167.72500610    1.73000002    2.42000008
   13.87805557  162.21899414    1.64999998    2.44000006
   13.88138866  163.44900513    1.60000002    2.44000006
   13.88472176  163.17500305    1.60000002    2.44000006
   13.88777733  158.31700134    1.50000000    2.44000006
   13.89111137  161.54600525    1.39999998    2.44000006
   13.89694405  161.54600525    1.19000006    2.46000004
   13.90111065  165.18800354    1.09000003    2.46000004
   13.90444374  155.27400208    1.01999998    2.46000004
   13.90749931  159.35400391    1.01999998    2.46000004
   13.91083336  157.81900024    1.00000000    2.46000004
   13.91416645  162.11199951    1.01999998    2.46000004
   13.91722298  168.60400391    1.01999998    2.46000004
   13.92055607  159.18099976    0.98000002    2.46000004
   13.92388916  164.47999573    0.98000002    2.46000004
   13.92694473  165.39900208    1.03999996    2.46000004
   13.93027782  162.91700745    1.07000005    2.46000004
   13.93333340  161.49899292    1.05999994    2.46000004
   13.93416691  159.59399414    1.05999994    2.46000004
   13.93972206  159.59399414    1.13000000    2.46000004
   13.94388866  152.98599243    1.09000003    2.46000004
   13.94722271  158.44599915    1.09000003    2.46000004
   13.95055580  163.44099426    1.07000005    2.46000004
   13.95361137  148.55000305    1.00000000    2.46000004
   13.95694447  149.71499634    1.00000000    2.46000004
   13.96000004  147.41000366    1.00000000    2.46000004
   13.96333313  154.13200378    1.03999996    2.46000004
   13.96666622  159.43099976    1.01999998    2.46000004
   13.96749973  149.91600037    1.01999998    2.46000004
   13.96999931  151.12300110    0.98000002    2.46000004
   13.97333336  154.25399780    0.98000002    2.46000004
   13.97666645  153.99000549    0.98000002    2.46000004
   13.98277760  153.99000549    1.07000005    2.48000002
   13.98666668  156.31500244    1.16999996    2.46000004
   13.99000072  150.20100403    1.25000000    2.46000004
   13.99333382  150.91999817    1.14999998    2.46000004
   13.99638939  148.67100525    1.11000001    2.46000004
   13.99972248  156.06500244    1.14999998    2.46000004
   14.00083351  156.18699646    1.14999998    2.46000004
   14.00333309  157.61399841    1.19000006    2.46000004
   14.00666714  155.55900574    1.19000006    2.46000004
   14.01000023  159.90600586    1.13000000    2.46000004
   14.01305580  152.68299866    1.11000001    2.46000004
   14.01638889  156.62199402    1.11000001    2.46000004
   14.01972198  150.95399475    1.13000000    2.46000004
   14.02555561  150.95399475    1.13000000    2.46000004
   14.02972221  152.97999573    1.11000001    2.46000004
   14.03277779  152.86000061    1.07000005    2.48000002
   14.03416729  162.60000610    1.07000005    2.48000002
   14.03638935  158.94099426    1.07000005    2.48000002
   14.03972244  153.63000488    1.11000001    2.46000004
   14.04305553  153.80400085    1.14999998    2.46000004
   14.04611111  153.19500732    1.16999996    2.46000004
   14.04944515  163.69099426    1.16999996    2.46000004
   14.05249977  157.42300415    1.19000006    2.48000002
   14.05583382  150.40800476    1.19000006    2.46000004
   14.05916691  145.96099854    1.16999996    2.46000004
   14.06222248  151.39999390    1.14999998    2.46000004
   14.06833363  151.39999390    1.14999998    2.48000002
   14.07250023  158.55299377    1.14999998    2.48000002
   14.07583332  153.09800720    1.14999998    2.48000002
   14.07888889  160.92700195    1.14999998    2.48000002
   14.08222198  146.61999512    1.14999998    2.48000002
   14.08527756  153.27400208    1.16999996    2.48000002
   14.08861065  148.09100342    1.16999996    2.48000002
   14.09194374  142.69700623    1.16999996    2.48000002
   14.09499931  150.65499878    1.21000004    2.48000002
   14.09833336  142.88400269    1.21000004    2.48000002
   14.10083389  155.53300476    1.21000004    2.48000002
   14.10194492  146.22799683    1.23000002    2.48000002
   14.10527802  160.52299500    1.21000004    2.48000002
   14.11111164  160.52299500    1.16999996    2.48000002
   14.11527824  150.96299744    1.13000000    2.48000002
   14.11861134  153.58700562    1.13000000    2.48000002
   14.12166691  153.95500183    1.13000000    2.48000002
   14.12500000  154.28599548    1.11000001    2.48000002
   14.12833309  142.20700073    1.11000001    2.48000002
   14.13138866  150.47200012    1.13000000    2.48000002
   14.13416672  149.21699524    1.21000004    2.48000002
   14.13500023  146.60699463    1.21000004    2.48000002
   14.13833332  148.23699951    1.25000000    2.48000002
   14.14166641  154.25199890    1.30999994    2.48000002
   14.14499950  148.49200439    1.30999994    2.48000002
   14.14805508  156.88400269    1.33000004    2.48000002
   14.15416622  156.88400269    1.36000001    2.48000002
   14.15805531  154.63699341    1.39999998    2.48000002
   14.16138840  148.72099304    1.36000001    2.48000002
   14.16472149  144.42700195    1.30999994    2.48000002
   14.16750050  156.16700745    1.19000006    2.48000002
   14.16833401  150.05799866    1.19000006    2.48000002
   14.17138958  148.93099976    1.14999998    2.48000002
   14.17472267  148.04200745    1.13000000    2.48000002
   14.17777824  147.66099548    1.07000005    2.48000002
   14.18111134  145.54699707    1.07000005    2.48000002
   14.18444443  148.90100098    1.09000003    2.48000002
   14.18750000  151.31700134    1.09000003    2.48000002
   14.19083309  153.33000183    1.00000000    2.48000002
   14.19694424  153.33000183    0.92000002    2.50000000
   14.20111084  158.60200500    0.83999997    2.48000002
   14.20416641  149.20199585    0.83999997    2.48000002
   14.20749950  146.36500549    0.83999997    2.50000000
   14.21083355  150.87500000    0.86000001    2.50000000
   14.21388912  147.38200378    0.86000001    2.50000000
   14.21722221  143.83500671    0.88000000    2.50000000
   14.22055531  146.57000732    0.88000000    2.50000000
   14.22361088  144.08799744    0.83999997    2.50000000
   14.22694397  155.61099243    0.81999999    2.50000000
   14.22999954  136.78399658    0.83999997    2.50000000
   14.23333359  141.94400024    0.88000000    2.50000000
   14.23416710  151.39199829    0.88000000    2.50000000
   14.23972225  151.39199829    0.92000002    2.50000000
   14.24388885  152.98100281    0.95999998    2.50000000
   14.24722290  153.00100708    0.95999998    2.50000000
   14.25027752  150.25000000    1.00000000    2.50000000
   14.25361156  151.50900269    0.98000002    2.50000000
   14.25666714  143.56399536    0.98000002    2.50000000
   14.26000023  145.07099915    0.92000002    2.50000000
   14.26333332  144.47000122    0.88000000    2.50000000
   14.26638889  148.45399475    0.95999998    2.50000000
   14.26749992  144.03799438    0.95999998    2.50000000
   14.27027798  154.11700439    0.98000002    2.50000000
   14.27333355  149.00900269    0.94000000    2.50000000
   14.27666664  146.18699646    0.94000000    2.50000000
   14.28249931  146.18699646    0.92000002    2.50000000
   14.28666687  146.64700317    0.94000000    2.50000000
   14.29000092  154.88900757    0.94000000    2.50000000
   14.29305553  147.05200195    0.88000000    2.50000000
   14.29638958  154.11700439    0.88000000    2.50000000
   14.29972267  143.41499329    0.88000000    2.50000000
   14.30083370  157.64100647    0.88000000    2.50000000
   14.30333328  148.44900513    0.88000000    2.50000000
   14.30638885  145.35400391    0.86000001    2.50000000
   14.30972195  145.85899353    0.83999997    2.51999998
   14.31305599  145.35400391    0.83999997    2.50000000
   14.31611156  148.44500732    0.86000001    2.51999998
   14.31944466  146.20399475    0.95999998    2.50000000
   14.32527733  146.20399475    0.95999998    2.50000000
   14.32944393  142.13900757    0.98000002    2.50000000
   14.33277798  142.80799866    0.98000002    2.51999998
   14.33416653  144.96899414    0.98000002    2.51999998
   14.33666611  141.87500000    1.00000000    2.50000000
   14.33972168  148.02600098    1.01999998    2.53999996
   14.34305477  144.48199463    0.98000002    2.51999998
   14.34638882  145.75199890    0.98000002    2.51999998
   14.34944439  150.01699829    0.95999998    2.51999998
   14.35277843  147.16900635    0.92000002    2.51999998
   14.35583401  143.14799500    0.81999999    2.51999998
   14.35916710  140.96899414    0.80000001    2.51999998
   14.36250019  149.85000610    0.80000001    2.51999998
   14.36833382  149.85000610    0.86000001    2.51999998
   14.37250042  140.23100281    0.89999998    2.51999998
   14.37555599  145.00700378    0.94000000    2.50000000
   14.37888908  144.85800171    0.92000002    2.51999998
   14.38194466  146.85800171    0.95999998    2.51999998
   14.38527775  156.09599304    0.95999998    2.51999998
   14.38861084  162.08500671    0.95999998    2.51999998
   14.39166641  153.27600098    0.94000000    2.51999998
   14.39499950  144.15699768    0.95999998    2.51999998
   14.39833355  144.82000732    0.98000002    2.51999998
   14.40083313  140.84899902    0.98000002    2.51999998
   14.40194416  140.25100708    0.98000002    2.51999998
   14.40499973  153.17900085    1.00000000    2.51999998
   14.41111088  153.17900085    0.92000002    2.51999998
   14.41527748  140.60000610    0.92000002    2.51999998
   14.41861153  141.39199829    0.95999998    2.51999998
   14.42166710  145.61399841    1.01999998    2.51999998
   14.42500019  146.85400391    1.09000003    2.51999998
   14.42805576  143.51699829    1.26999998    2.51999998
   14.43138885  145.53900146    1.26999998    2.51999998
   14.43416691  146.45199585    1.34000003    2.51999998
   14.43527794  149.30099487    1.34000003    2.51999998
   14.43833351  152.83999634    1.30999994    2.51999998
   14.44166660  147.17799377    1.14999998    2.51999998
   14.44499969  147.53799438    1.23000002    2.51999998
   14.44805527  146.79200745    1.14999998    2.51999998
   14.45388889  146.79200745    1.09000003    2.51999998
   14.45805550  142.51699829    1.05999994    2.51999998
   14.46138859  144.11799622    1.07000005    2.53999996
   14.46444416  136.57000732    1.14999998    2.53999996
   14.46749973  143.57099915    1.14999998    2.51999998
   14.46833324  140.30299377    1.14999998    2.51999998
   14.47138882  139.21699524    1.14999998    2.51999998
   14.47472191  141.69700623    1.09000003    2.53999996
   14.47805500  145.32000732    1.05999994    2.51999998
   14.48111057  147.83000183    1.11000001    2.51999998
   14.48444462  145.21200562    1.11000001    2.51999998
   14.48750019  142.34700012    1.14999998    2.51999998
   14.49083328  140.19900513    1.13000000    2.53999996
   14.49666691  140.19900513    1.07000005    2.53999996
   14.50083351  142.37100220    1.05999994    2.53999996
   14.50416660  145.06100464    1.00000000    2.53999996
   14.50749969  144.65499878    0.94000000    2.53999996
   14.51055527  146.81199646    0.83999997    2.53999996
   14.51388931  145.65600586    0.79000002    2.53999996
   14.51722240  147.89199829    0.79000002    2.53999996
   14.52027798  155.03199768    0.79000002    2.53999996
   14.52361107  151.91999817    0.76999998    2.53999996
   14.52666664  151.65699768    0.73000002    2.53999996
   14.52999973  144.52299500    0.75000000    2.53999996
   14.53333378  147.11700439    0.64999998    2.53999996
   14.53416729  142.02600098    0.64999998    2.53999996
   14.53972244  142.02600098    0.67000002    2.53999996
   14.54388905  157.07299805    0.73000002    2.53999996
   14.54694462  146.42300415    0.75000000    2.53999996
   14.55027771  150.39500427    0.76999998    2.53999996
   14.56777763  166.62500000    0.75000000    2.53999996
   14.57027817  165.01899719    0.76999998    2.53999996
   14.57361126  166.48100281    0.76999998    2.53999996
   14.57666683  169.74800110    0.76999998    2.53999996
   14.58277798  169.74800110    0.76999998    2.53999996
   14.58666611  157.72999573    0.76999998    2.53999996
   14.59000015  168.68299866    0.79000002    2.53999996
   14.59333324  164.99299622    0.79000002    2.53999996
   14.59638882  166.78999329    0.79000002    2.53999996
   14.59972191  183.97099304    0.79000002    2.53999996
   14.60111141  193.80000305    0.79000002    2.53999996
   14.60361195  197.97399902    0.83999997    2.53999996
   14.60666752  230.11300659    0.83999997    2.53999996
   14.61000061  292.84500122    0.88000000    2.53999996
   14.61305618  289.94198608    0.92000002    2.53999996
   14.61638927  261.38800049    0.89999998    2.53999996
   14.61972237  290.88800049    0.94000000    2.53999996
   14.62555599  290.88800049    0.98000002    2.53999996
   14.62972260  317.75900269    1.01999998    2.53999996
   14.63277817  314.17700195    1.01999998    2.53999996
   14.63444424  315.95599365    1.03999996    2.53999996
   14.63638878  324.35900879    1.03999996    2.53999996
   14.63972187  321.15600586    1.05999994    2.53999996
   14.64305496  301.85101318    1.05999994    2.53999996
   14.64611053  302.85501099    1.01999998    2.53999996
   14.64944458  288.07501221    1.00000000    2.53999996
   14.65277767  308.78500366    1.00000000    2.53999996
   14.65583324  288.15399170    0.94000000    2.53999996
   14.65916634  322.44000244    0.95999998    2.55999994
   14.66249943  313.05999756    0.98000002    2.53999996
   14.66833401  313.05999756    1.01999998    2.53999996
   14.67250061  280.81100464    0.92000002    2.53999996
   14.67555618  301.20901489    0.92000002    2.53999996
   14.67888927  253.47599792    0.98000002    2.53999996
   14.68222237  284.16101074    1.01999998    2.53999996
   14.68555546  259.61199951    1.07000005    2.53999996
   14.68888855  256.22399902    1.05999994    2.53999996
   14.69194412  269.19799805    1.09000003    2.53999996
   14.69527817  251.22200012    1.09000003    2.53999996
   14.69833374  268.20401001    1.11000001    2.53999996
   14.70111084  249.67100525    1.13000000    2.55999994
   14.70194435  291.27801514    1.13000000    2.55999994
   14.70527744  262.53298950    1.09000003    2.55999994
   14.71111107  262.53298950    0.94000000    2.55999994
   14.71527767  276.57101440    0.95999998    2.53999996
   14.71861076  264.07501221    0.95999998    2.53999996
   14.72166634  286.60299683    0.95999998    2.55999994
   14.72499943  270.60000610    0.98000002    2.55999994
   14.72833252  261.39599609    1.07000005    2.55999994
   14.73166656  284.35299683    1.09000003    2.55999994
   14.73444462  296.46701050    1.07000005    2.53999996
   14.73555565  284.88500977    1.07000005    2.53999996
   14.73861122  298.10800171    1.03999996    2.55999994
   14.74194431  305.53799438    1.03999996    2.55999994
   14.74499989  280.84500122    0.98000002    2.55999994
   14.74833393  290.92498779    0.95999998    2.55999994
   14.75416660  290.92498779    1.03999996    2.55999994
   14.75805569  303.49099731    1.03999996    2.55999994
   14.76138878  309.55499268    1.05999994    2.55999994
   14.76472187  275.90899658    1.19000006    2.55999994
   14.76777744  302.44400024    1.07000005    2.55999994
   14.76833344  283.79800415    1.07000005    2.55999994
   14.77138901  292.49499512    1.07000005    2.55999994
   14.77472210  294.99700928    1.11000001    2.55999994
   14.77777767  274.91900635    1.11000001    2.55999994
   14.78111076  287.68600464    1.21000004    2.55999994
   14.78444481  275.19900513    1.36000001    2.53999996
   14.78750038  271.23699951    1.36000001    2.53999996
   14.79083347  268.34698486    1.26999998    2.55999994
   14.79694462  268.34698486    1.19000006    2.55999994
   14.80111122  293.82101440    1.13000000    2.55999994
   14.80166721  292.39401245    1.13000000    2.55999994
   14.80472279  285.63400269    1.16999996    2.55999994
   14.80805588  270.41299438    1.09000003    2.55999994
   14.81111145  281.74200439    1.13000000    2.55999994
   14.81444454  283.96600342    1.14999998    2.55999994
   14.81777763  253.21099854    1.14999998    2.55999994
   14.82083321  261.52999878    1.09000003    2.55999994
   14.82416630  268.88198853    1.09000003    2.55999994
   14.82750034  283.70800781    1.14999998    2.55999994
   14.83055592  264.00201416    0.92000002    2.55999994
   14.83388901  261.12600708    0.88000000    2.55999994
   14.83444405  264.62899780    0.88000000    2.55999994
   14.83972168  264.62899780    0.89999998    2.55999994
   14.84388828  261.40301514    0.88000000    2.55999994
   14.84722233  246.19999695    0.89999998    2.55999994
   14.85027790  280.12100220    0.92000002    2.55999994
   14.85361195  269.65499878    0.94000000    2.55999994
   14.85666752  244.38400269    0.98000002    2.55999994
   14.86000061  253.36799622    0.98000002    2.55999994
   14.86333370  257.21701050    0.98000002    2.55999994
   14.86638927  260.66299438    1.00000000    2.55999994
   14.86777782  238.19400024    1.01999998    2.55999994
   14.87027836  247.77099609    1.01999998    2.55999994
   14.87333393  250.91000366    1.13000000    2.55999994
   14.87666702  254.69999695    1.09000003    2.55999994
   14.88249969  254.69999695    1.03999996    2.55999994
   14.88666630  256.92098999    1.14999998    2.55999994
   14.89000034  244.14700317    1.11000001    2.55999994
   14.89305496  257.46701050    1.19000006    2.55999994
   14.89638901  243.59300232    1.36000001    2.55999994
   14.89972210  243.92399597    1.36000001    2.55999994
   14.90111065  222.14799500    1.36000001    2.55999994
   14.90333271  238.21400452    1.16999996    2.55999994
   14.90638828  219.10499573    1.16999996    2.55999994
   14.90972137  222.13099670    1.21000004    2.55999994
   14.91277695  231.80799866    1.26999998    2.55999994
   14.91611099  251.38299561    1.21000004    2.55999994
   14.91944504  236.26100159    1.11000001    2.55999994
   14.92527771  236.26100159    1.53999996    2.55999994
   14.92944431  240.03799438    1.66999996    2.55999994
   14.93277836  244.21800232    1.66999996    2.55999994
   14.93444443  217.79899597    1.73000002    2.55999994
   14.93638897  225.10899353    1.83000004    2.55999994
   14.93944454  194.72900391    1.91999996    2.55999994
   14.94277763  218.54600525    1.89999998    2.55999994
   14.94611073  238.44799805    1.91999996    2.55999994
   14.94916630  215.19799805    2.11999989    2.55999994
   14.95249939  224.82800293    2.13000011    2.55999994
   14.95555496  242.57800293    2.15000010    2.55999994
   14.95888901  228.28500366    1.88000000    2.57999992
   14.96222210  223.43299866    2.30999994    2.55999994
   14.96833324  223.43299866    2.11999989    2.55999994
   14.97222137  193.99400330    2.21000004    2.55999994
   14.97555542  227.18800354    2.00000000    2.55999994
   14.97888851  194.52299500    1.75000000    2.55999994
   14.98194408  192.94200134    1.60000002    2.55999994
   14.98527813  203.81599426    1.38000000    2.55999994
   14.98861122  220.10000610    1.36000001    2.57999992
   14.99166679  233.60000610    1.00000000    2.57999992
   14.99499989  219.29299927    1.00000000    2.57999992
   14.99833393  223.60800171    1.09000003    2.57999992
   15.00111103  219.01300049    1.03999996    2.57999992
   15.00194454  209.01899719    1.03999996    2.57999992
   15.00500011  222.30999756    0.88000000    2.57999992
   15.01111126  222.30999756    0.86000001    2.57999992
   15.01527786  164.41600037    1.00000000    2.57999992
   15.01833344  192.10299683    1.09000003    2.55999994
   15.02166653  175.23800659    1.09000003    2.57999992
   15.02499962  183.94299316    1.14999998    2.57999992
   15.02805519  184.17199707    1.07000005    2.57999992
   15.03138828  181.71299744    1.13000000    2.57999992
   15.03444481  195.71200562    1.09000003    2.57999992
   15.03500080  198.56700134    1.13000000    2.55999994
   15.03805637  199.00999451    1.16999996    2.57999992
   15.04138947  186.08999634    1.11000001    2.57999992
   15.04444504  176.23599243    1.16999996    2.57999992
   15.04777813  191.14799500    1.16999996    2.55999994
   15.05388927  191.14799500    1.00000000    2.57999992
   15.05805588  168.11900330    1.11000001    2.57999992
   15.06138897  205.78700256    1.33000004    2.57999992
   15.06444454  194.07499695    1.05999994    2.59999990
   15.06777763  195.64700317    1.03999996    2.57999992
   15.06833363  188.95799255    1.03999996    2.57999992
   15.07138920  186.69700623    1.03999996    2.57999992
   15.07472229  170.68499756    0.89999998    2.57999992
   15.07777786  194.54600525    0.95999998    2.57999992
   15.08111095  191.00000000    1.00000000    2.57999992
   15.08444405  188.21099854    1.03999996    2.57999992
   15.08749962  177.16900635    1.03999996    2.57999992
   15.09083271  175.71600342    1.13000000    2.57999992
   15.09666634  175.71600342    1.09000003    2.57999992
   15.10083389  165.86199951    0.95999998    2.57999992
   15.10138893  166.69099426    0.95999998    2.57999992
   15.10472298  178.46299744    1.07000005    2.57999992
   15.10777855  161.98599243    0.89999998    2.57999992
   15.11111164  171.10499573    0.89999998    2.57999992
   15.11444473  163.57600403    1.00000000    2.59999990
   15.11750031  174.94900513    1.03999996    2.57999992
   15.12083340  160.77900696    1.01999998    2.59999990
   15.12416649  170.19000244    1.03999996    2.57999992
   15.12722206  170.47200012    0.81999999    2.57999992
   15.13055611  162.03999329    0.81999999    2.57999992
   15.13361073  163.18899536    0.98000002    2.57999992
   15.13472176  172.69900513    0.98000002    2.57999992
   15.13972187  172.69900513    1.23000002    2.57999992
   15.14361095  156.16200256    1.25000000    2.59999990
   15.14694405  175.57600403    1.14999998    2.57999992
   15.15027714  153.13200378    1.00000000    2.57999992
   15.15333271  166.55599976    0.98000002    2.57999992
   15.15666676  164.26499939    1.14999998    2.57999992
   15.15999985  175.12699890    1.14999998    2.57999992
   15.16305542  162.67100525    1.01999998    2.57999992
   15.16638851  159.75799561    0.83999997    2.59999990
   15.16805553  147.78799438    0.83999997    2.59999990
   15.17000008  174.83500671    0.86000001    2.57999992
   15.17333412  161.28399658    0.92000002    2.59999990
   15.17638874  170.01899719    1.13000000    2.59999990
   15.18249989  170.01899719    1.34000003    2.57999992
   15.18666649  160.33299255    1.03999996    2.59999990
   15.18972206  162.04899597    1.03999996    2.57999992
   15.19305515  157.80900574    1.01999998    2.59999990
   15.19638920  164.55400085    1.16999996    2.57999992
   15.19972229  143.24600220    1.07000005    2.59999990
   15.20138836  151.05599976    1.07000005    2.59999990
   15.20333290  159.40299988    1.19000006    2.57999992
   15.20638847  153.99699402    1.19000006    2.57999992
   15.20972157  146.34100342    1.16999996    2.57999992
   15.21305561  156.16999817    1.21000004    2.57999992
   15.21611118  148.94099426    1.11000001    2.59999990
   15.21944427  147.93800354    0.80000001    2.59999990
   15.22527695  147.93800354    0.89999998    2.59999990
   15.22944355  151.44900513    0.81999999    2.59999990
   15.23249912  139.83099365    0.80000001    2.59999990
   15.23472214  143.37600708    0.73000002    2.59999990
   15.23638916  140.20700073    0.73000002    2.59999990
   15.23972225  141.08200073    0.70999998    2.59999990
   15.24277782  145.26800537    0.76999998    2.57999992
   15.24611092  139.96000671    0.76999998    2.57999992
   15.24916649  165.01400757    0.70999998    2.59999990
   15.25249958  153.96400452    0.69000000    2.59999990
   15.25583363  162.21000671    0.75000000    2.59999990
   15.25888920  165.38000488    0.75000000    2.59999990
   15.26222229  161.62199402    0.69000000    2.59999990
   15.26805496  161.62199402    0.70999998    2.61999989
   15.27222157  185.78399658    0.76999998    2.59999990
   15.27555561  160.02900696    0.73000002    2.59999990
   15.27861118  162.33399963    0.76999998    2.59999990
   15.28194427  152.31599426    0.76999998    2.59999990
   15.28527832  182.07899475    0.67000002    2.59999990
   15.28833389  148.10699463    0.63000000    2.59999990
   15.29166698  139.79600525    0.64999998    2.57999992
   15.29500008  160.03799438    0.69000000    2.57999992
   15.29805565  148.03900146    0.67000002    2.59999990
   15.30138874  143.47000122    0.67000002    2.59999990
   15.30194473  145.91999817    0.69000000    2.59999990
   15.30500031  168.32400513    0.69000000    2.59999990
   15.31083393  168.32400513    0.63000000    2.59999990
   15.31500053  153.19599915    0.51999998    2.59999990
   15.31833363  145.60800171    0.56999999    2.59999990
   15.32166672  152.02699280    0.55000001    2.59999990
   15.32472229  144.83799744    0.55000001    2.59999990
   15.32805538  142.51300049    0.55000001    2.59999990
   15.33138847  164.71499634    0.55000001    2.59999990
   15.33444405  146.61500549    0.52999997    2.59999990
   15.33527756  153.32600403    0.52999997    2.59999990
   15.33805561  143.58000183    0.55000001    2.59999990
   15.34138870  149.39599609    0.52999997    2.61999989
   15.34472179  153.53700256    0.55000001    2.61999989
   15.34777737  151.83700562    0.55000001    2.61999989
   15.35388947  151.83700562    0.63000000    2.59999990
   15.35805607  151.91000366    0.61000001    2.59999990
   15.36111164  156.31599426    0.63000000    2.59999990
   15.36444473  148.67900085    0.58999997    2.59999990
   15.36750031  173.32499695    0.70999998    2.61999989
   15.36861134  167.80700684    0.70999998    2.61999989
   15.37138939  159.01100159    0.70999998    2.61999989
   15.37444496  163.29100037    0.63000000    2.59999990
   15.37777805  175.51199341    0.63000000    2.59999990
   15.38083363  178.31500244    0.63000000    2.59999990
   15.38416672  168.83799744    0.61000001    2.59999990
   15.38749981  162.81100464    0.67000002    2.59999990
   15.39055538  156.78300476    0.56999999    2.59999990
   15.39666653  156.78300476    0.61000001    2.59999990
   15.40083313  180.20500183    0.61000001    2.61999989
   15.40194416  158.48599243    0.61000001    2.61999989
   15.40444374  147.98100281    0.61000001    2.59999990
   15.40749931  169.76800537    0.61000001    2.59999990
   15.41083336  163.33999634    0.61000001    2.59999990
   15.41388893  145.18800354    0.61000001    2.59999990
   15.41722298  146.98100281    0.67000002    2.59999990
   15.42055607  149.38000488    0.64999998    2.59999990
   15.42361164  149.03900146    0.61000001    2.59999990
   15.42694473  156.31700134    0.61000001    2.59999990
   15.43000031  139.23699951    0.56999999    2.59999990
   15.43333340  149.77400208    0.56999999    2.59999990
   15.43527794  147.99000549    0.63000000    2.59999990
   15.43944454  147.99000549    0.63000000    2.59999990
   15.44361115  158.90299988    0.63000000    2.61999989
   15.44694424  143.80000305    0.69000000    2.59999990
   15.45027733  144.44999695    0.73000002    2.61999989
   15.45333290  139.94700623    0.73000002    2.59999990
   15.45666695  141.24000549    0.73000002    2.59999990
   15.45972157  138.08799744    0.67000002    2.59999990
   15.46305561  150.01800537    0.67000002    2.59999990
   15.46638870  152.33500671    0.69000000    2.61999989
   15.46861076  146.67199707    0.67000002    2.61999989
   15.46999931  145.25799561    0.67000002    2.61999989
   15.47305489  144.87600708    0.67000002    2.59999990
   15.47638798  154.97700500    0.67000002    2.59999990
   15.48249912  154.97700500    0.83999997    2.59999990
   15.48638916  143.36000061    0.70999998    2.61999989
   15.48972225  149.54800415    0.80000001    2.59999990
   15.49305534  155.74299622    0.81999999    2.59999990
   15.49611092  150.03100586    0.79000002    2.61999989
   15.49944496  139.13000488    0.63000000    2.59999990
   15.50194454  145.91799927    0.64999998    2.61999989
   15.50305557  141.84399414    0.64999998    2.61999989
   15.50638866  140.51400757    0.61000001    2.61999989
   15.50972176  139.25700378    0.56999999    2.61999989
   15.51277733  133.76899719    0.56999999    2.59999990
   15.51611137  144.68099976    0.52999997    2.61999989
   15.51944447  140.19200134    0.55000001    2.61999989
   15.52527714  140.19200134    0.56999999    2.59999990
   15.52944374  134.86700439    0.56999999    2.61999989
   15.53249931  151.58200073    0.51999998    2.61999989
   15.53527832  144.10699463    0.51999998    2.61999989
   15.53638935  137.02400208    0.51999998    2.61999989
   15.53944492  143.33799744    0.52999997    2.61999989
   15.54277802  147.72799683    0.52999997    2.59999990
   15.54583359  141.85400391    0.52999997    2.59999990
   15.54916668  138.17700195    0.52999997    2.61999989
   15.55249977  152.22200012    0.56999999    2.61999989
   15.55555534  146.54600525    0.56999999    2.61999989
   15.55888939  157.32299805    0.58999997    2.61999989
   15.56222248  151.43200684    0.63000000    2.61999989
   15.56805515  151.43200684    0.61000001    2.59999990
   15.58638859  155.56900024    0.89999998    2.61999989
   15.58972168  150.45599365    0.83999997    2.59999990
   15.59277725  144.43200684    0.89999998    2.61999989
   15.59611034  142.92700195    0.86000001    2.59999990
   15.59944439  150.47999573    0.92000002    2.59999990
   15.60249996  148.05700684    1.30999994    2.61999989
   15.60583401  140.93299866    1.25000000    2.59999990
   15.61111164  140.93299866    1.23000002    2.61999989
   15.61527824  139.93099976    1.28999996    2.59999990
   15.61861134  138.10400391    1.25000000    2.61999989
   15.61944485  143.24499512    1.25000000    2.61999989
   15.62222195  140.33700562    1.25000000    2.61999989
   15.62527752  164.86500549    1.38000000    2.59999990
   15.62861156  155.87500000    1.41999996    2.61999989
   15.63194466  146.76499939    1.41999996    2.61999989
   15.63500023  158.24400330    1.41999996    2.59999990
   15.63833332  149.51400757    1.44000006    2.59999990
   15.64166641  151.63699341    1.33000004    2.59999990
   15.64472198  141.71200562    1.16999996    2.61999989
   15.64805508  147.03700256    0.98000002    2.61999989
   15.65388870  147.03700256    1.13000000    2.61999989
   15.65805531  147.06700134    1.33000004    2.59999990
   15.66138840  145.79200745    2.25000000    2.59999990
   15.66472149  141.73399353    2.44000006    2.59999990
   15.66777802  142.44599915    2.36999989    2.59999990
   15.67111111  142.53199768    2.17000008    2.59999990
   15.67444515  138.55599976    2.40000010    2.59999990
   15.67750072  151.63999939    2.53999996    2.59999990
   15.68083382  150.28500366    2.34999990    2.59999990
   15.68416691  153.56500244    2.48000002    2.59999990
   15.68611145  160.76699829    2.15000010    2.59999990
   15.68777752  159.72900391    2.19000006    2.59999990
   15.69111156  187.92999268    2.21000004    2.59999990
   15.69694424  187.92999268    2.48000002    2.59999990
   15.70083332  199.42300415    2.66000009    2.59999990
   15.70416641  198.34199524    2.57999992    2.59999990
   15.70749950  188.91299438    2.39000010    2.57999992
   15.71055508  165.74200439    1.63000000    2.59999990
   15.71388912  177.85800171    1.55999994    2.59999990
   15.71722221  162.08700562    1.36000001    2.59999990
   15.71944427  170.75100708    1.33000004    2.59999990
   15.72083282  172.38400269    1.01999998    2.61999989
   15.72416592  158.16799927    0.76999998    2.61999989
   15.72722149  159.56900024    0.79000002    2.61999989
   15.73055553  162.90600586    0.92000002    2.61999989
   15.73361111  157.95599365    0.92000002    2.61999989
   15.73972225  157.95599365    0.92000002    2.61999989
   15.74388885  150.86599731    0.92000002    2.61999989
   15.74694443  157.01400757    0.92000002    2.61999989
   15.75027752  151.99699402    0.92000002    2.61999989
   15.75277805  152.57000732    0.83999997    2.61999989
   15.75388908  141.36300659    0.83999997    2.61999989
   15.75722218  160.48300171    0.81999999    2.61999989
   15.76027775  154.79299927    0.83999997    2.61999989
   15.76361084  163.59700012    1.07000005    2.59999990
   15.76694393  144.77999878    1.07000005    2.59999990
   15.76999950  151.59599304    1.14999998    2.61999989
   15.77333355  155.79899597    1.21000004    2.61999989
   15.77666664  153.65499878    1.21000004    2.61999989
   15.78249931  153.65499878    1.16999996    2.61999989
   15.78666687  144.72799683    1.80999994    2.59999990
   15.79000092  156.51300049    1.78999996    2.61999989
   15.79305553  149.44400024    1.91999996    2.59999990
   15.79638958  149.84199524    2.15000010    2.59999990
   15.79944515  149.46200562    2.50000000    2.59999990
   15.80277824  147.14500427    2.55999994    2.59999990
   15.80611134  151.97500610    2.55999994    2.59999990
   15.80916691  145.80200195    2.76999998    2.59999990
   15.81250000  149.46899414    3.20000005    2.59999990
   15.81583309  143.00900269    2.76999998    2.59999990
   15.81888866  146.26300049    2.73000002    2.59999990
   15.81944466  137.20599365    2.61999989    2.59999990
   15.82527733  137.20599365    3.14000010    2.59999990
   15.82944393  144.54499817    2.59999990    2.59999990
   15.83277798  139.13200378    2.75000000    2.59999990
   15.83583260  141.52699280    2.89000010    2.59999990
   15.83916664  147.52200317    2.28999996    2.59999990
   15.84249973  134.29499817    2.09999990    2.61999989
   15.84555531  141.25700378    1.88000000    2.61999989
   15.84888840  139.98699951    2.84999990    2.59999990
   15.85222244  138.24600220    3.48000002    2.57999992
   15.85277843  135.18899536    3.45000005    2.57999992
   15.85583401  135.74299622    3.41000009    2.57999992
   15.85916710  141.71800232    2.34999990    2.57999992
   15.86222267  140.86900330    1.98000002    2.59999990
   15.86833382  140.86900330    2.00000000    2.61999989
   15.87222195  139.19700623    2.96000004    2.55999994
   15.87555599  134.05700684    2.91000009    2.59999990
   15.87888908  139.41999817    2.91000009    2.57999992
   15.88194466  138.60200500    3.46000004    2.57999992
   15.88527775  134.62899780    4.09999990    2.57999992
   15.88611126  141.24099731    4.15999985    2.57999992
   15.88888836  141.57200623    4.30999994    2.57999992
   15.89222240  143.70199585    4.61999989    2.55999994
   15.89527798  143.53300476    4.90999985    2.55999994
   15.89861107  140.01800537    4.90999985    2.55999994
   15.90166664  146.14199829    4.90999985    2.53999996
   15.90499973  142.31700134    4.90999985    2.51999998
   15.91111088  142.31700134    4.90999985    2.48000002
   15.91527748  142.71099854    4.90999985    2.46000004
   15.91833401  132.72999573    4.90999985    2.51999998
   15.91944504  138.98699951    4.90999985    2.53999996
   15.92194462  136.45100403    4.90999985    2.55999994
   15.92527771  135.00000000    4.90999985    2.55999994
   15.92833328  142.87699890    4.82999992    2.55999994
   15.93166733  138.33799744    4.46999979    2.57999992
   15.93500042  139.53900146    4.53999996    2.55999994
   15.93805599  139.74000549    4.90999985    2.55999994
   15.94138908  143.95500183    4.90999985    2.55999994
   15.94444466  139.92300415    4.90999985    2.53999996
   15.94777775  132.22099304    4.90999985    2.55999994
   15.95388889  132.22099304    4.90999985    2.53999996
   15.95805550  143.01499939    4.73999977    2.55999994
   15.96111107  133.55099487    3.59999990    2.59999990
   15.96444416  138.16700745    4.90999985    2.55999994
   15.96777725  134.47500610    4.90999985    2.55999994
   15.97083282  137.86300659    4.36999989    2.57999992
   15.97416592  143.10000610    4.63999987    2.55999994
   15.97722149  165.42599487    4.90999985    2.55999994
   15.98055553  181.74699402    4.69999981    2.57999992
   15.98388958  178.63400269    4.90999985    2.57999992
   15.98611164  177.85400391    4.90999985    2.55999994
   15.98750019  192.30099487    4.90999985    2.55999994
   15.99055576  163.57000732    4.90999985    2.55999994
   15.99666691  163.57000732    4.65999985    2.55999994
   16.00083351  154.69500732    4.90999985    2.55999994
   16.00416756  140.17399597    4.90999985    2.57999992
   16.00722313  152.69099426    4.90999985    2.55999994
   16.01194382  164.18600464    4.86999989    2.55999994
   16.01499939  172.27900696    4.32999992    2.57999992
   16.01833344  190.47999573    3.91000009    2.57999992
   16.01944351  180.18899536    3.89000010    2.57999992
   16.02194405  186.35299683    3.89000010    2.57999992
   16.02499962  181.71800232    4.90999985    2.55999994
   16.02833366  169.30400085    4.90999985    2.55999994
   16.03166580  192.27099609    4.90999985    2.55999994
   16.03472137  184.38600159    4.90999985    2.53999996
   16.03972244  184.38600159    4.90999985    2.53999996
   16.04361153  178.41099548    4.90999985    2.53999996
   16.04694366  165.07400513    4.90999985    2.53999996
   16.05027771  175.25599670    4.90999985    2.53999996
   16.05277634  174.65499878    4.90999985    2.53999996
   16.05388832  174.34300232    4.90999985    2.55999994
   16.05722237  178.44700623    4.90999985    2.55999994
   16.06027794  172.83700562    4.90999985    2.55999994
   16.06361008  162.68099976    4.90999985    2.55999994
   16.06694603  176.17999268    4.90999985    2.57999992
   16.07027817  162.99800110    4.90999985    2.55999994
   16.07333374  156.41099548    4.61999989    2.59999990
   16.07666779  158.90199280    4.42999983    2.55999994
   16.08250046  158.90199280    4.69999981    2.57999992
   16.08666801  147.47999573    4.57999992    2.57999992
   16.08972359  147.49699402    4.53000021    2.57999992
   16.09305573  145.49899292    4.09999990    2.57999992
   16.09611130  150.81900024    3.86999989    2.57999992
   16.09944534  144.20300293    3.57999992    2.59999990
   16.10277748  142.32600403    3.30999994    2.57999992
   16.10583305  143.77699280    3.28999996    2.59999990
   16.10916710  142.37300110    3.28999996    2.59999990
   16.11222267  141.85699463    3.73000002    2.57999992
   16.11666679  141.04299927    4.07999992    2.57999992
   16.11944389  142.67999268    4.57999992    2.57999992
   16.12027740  138.60600281    4.57999992    2.57999992
   16.12527847  138.60600281    4.90999985    2.55999994
   16.12944412  138.14100647    4.90999985    2.55999994
   16.13249969  146.55400085    4.90999985    2.55999994
   16.13583374  143.57400513    4.90999985    2.55999994
   16.13916588  137.48699951    4.90999985    2.55999994
   16.14222145  139.17900085    4.90999985    2.55999994
   16.14555550  141.00500488    4.90999985    2.55999994
   16.14861107  141.22700500    4.90999985    2.55999994
   16.15194321  145.98599243    4.90999985    2.55999994
   16.15277672  139.92900085    4.90999985    2.55999994
   16.15555573  141.57400513    4.90999985    2.55999994
   16.15888786  141.72000122    4.90999985    2.55999994
   16.16194344  136.63299561    4.90999985    2.55999994
   16.16805458  136.63299561    4.90999985    2.55999994
   16.17222214  137.87399292    4.73999977    2.55999994
   16.17555428  141.78700256    4.63999987    2.57999992
   16.17860985  136.60299683    4.63999987    2.57999992
   16.18194389  137.70700073    4.80999994    2.55999994
   16.18499947  134.91099548    4.90999985    2.55999994
   16.18610954  139.47799683    4.90999985    2.55999994
   16.18861008  135.04699707    4.90999985    2.55999994
   16.19194412  141.12300110    4.90999985    2.55999994
   16.19499969  138.78700256    4.90999985    2.55999994
   16.19833183  136.32699585    4.90999985    2.55999994
   16.20138931  141.85600281    3.99000001    2.59999990
   16.20472336  139.73100281    4.53999996    2.55999994
   16.21083450  139.73100281    4.90999985    2.55999994
   16.21500015  143.16000366    4.90999985    2.53999996
   16.21833420  135.06700134    4.90999985    2.55999994
   16.21944427  138.70399475    4.90999985    2.55999994
   16.22194481  140.88299561    4.80000019    2.57999992
   16.22527885  143.95599365    4.90999985    2.55999994
   16.22833443  136.90100098    4.90999985    2.55999994
   16.23166656  146.25000000    4.90999985    2.53999996
   16.23472214  139.90400696    4.90999985    2.51999998
   16.23805618  141.98699951    4.90999985    2.53999996
   16.24138832  140.36199951    4.90999985    2.55999994
   16.24444389  136.09500122    4.90999985    2.57999992
   16.24777794  133.86000061    4.84999990    2.55999994
   16.25388908  133.86000061    4.30999994    2.59999990
   16.25805473  139.82800293    4.90999985    2.55999994
   16.26111031  133.32699585    4.88999987    2.57999992
   16.26444435  137.02600098    4.90999985    2.57999992
   16.26749992  142.64700317    4.90999985    2.55999994
   16.27083397  137.12600708    4.90999985    2.53999996
   16.27388954  140.76899719    4.90999985    2.53999996
   16.27722168  136.51100159    4.90999985    2.55999994
   16.28055573  144.60600281    4.90999985    2.55999994
   16.28361130  139.18099976    4.90999985    2.55999994
   16.28638840  137.86300659    4.90999985    2.57999992
   16.28722191  144.94099426    4.90999985    2.55999994
   16.29055595  133.90199280    4.90999985    2.53999996
   16.29666710  133.90199280    4.90999985    2.55999994
   16.30083275  133.57899475    4.90999985    2.55999994
   16.30388832  139.08000183    4.90999985    2.53999996
   16.30722237  147.97599792    4.90999985    2.53999996
   16.31055450  135.50599670    4.90999985    2.53999996
   16.31361008  139.83299255    4.90999985    2.53999996
   16.31694603  135.47599792    4.90999985    2.55999994
   16.31972313  153.93499756    4.90999985    2.53999996
   16.32055664  159.50399780    4.90999985    2.53999996
   16.32389069  151.57299805    4.90999985    2.55999994
   16.32694626  157.82600403    4.90999985    2.55999994
   16.33027840  145.16600037    4.90999985    2.55999994
   16.33361244  146.88099670    4.90999985    2.55999994
   16.33944511  146.88099670    4.90999985    2.55999994
   16.34361267  137.04499817    4.90999985    2.51999998
   16.34694481  153.31900024    4.90999985    2.50000000
   16.35000038  157.72999573    4.90999985    2.51999998
   16.35305595  152.80400085    4.90999985    2.53999996
   16.35361099  150.90499878    4.90999985    2.55999994
   16.35694504  139.15800476    4.90999985    2.55999994
   16.36000061  153.42399597    4.82999992    2.57999992
   16.36333466  164.75599670    4.51000023    2.57999992
   16.36666679  137.24400330    3.39000010    2.57999992
   16.36972237  131.31500244    2.42000008    2.59999990
   16.37305641  153.96499634    2.36999989    2.61999989
   16.37611198  138.65600586    2.23000002    2.61999989
   16.38222313  138.65600586    1.64999998    2.61999989
   16.38638878  147.02299500    1.60000002    2.59999990
   16.38972282  164.82499695    1.50000000    2.61999989
   16.39305496  156.05099487    1.63000000    2.61999989
   16.39611053  164.87899780    1.53999996    2.61999989
   16.39944458  147.65199280    1.55999994    2.61999989
   16.40250015  135.41499329    1.50000000    2.61999989
   16.40583229  137.57499695    1.48000002    2.61999989
   16.40888786  144.45300293    1.71000004    2.61999989
   16.41222191  137.63699341    1.51999998    2.61999989
   16.41555595  136.59700012    1.55999994    2.61999989
   16.41860962  144.44200134    1.53999996    2.61999989
   16.41972160  135.05599976    1.53999996    2.61999989
   16.42527771  135.05599976    1.71000004    2.59999990
   16.42944336  135.33299255    1.71000004    2.61999989
   16.43249893  133.25999451    1.88000000    2.61999989
   16.43583298  153.19000244    1.73000002    2.61999989
   16.43888855  148.94700623    2.01999998    2.61999989
   16.44222069  138.59899902    2.00000000    2.61999989
   16.44555473  146.69000244    1.98000002    2.61999989
   16.44861031  133.29800415    1.63000000    2.61999989
   16.45194435  141.32099915    1.51999998    2.61999989
   16.45305634  139.36199951    1.51999998    2.61999989
   16.45555687  136.62399292    1.41999996    2.61999989
   16.45888901  148.21499634    1.26999998    2.64000010
   16.46222305  155.83399963    1.28999996    2.61999989
   16.46805573  155.83399963    1.16999996    2.61999989
   16.47222328  138.06900024    1.44000006    2.59999990
   16.47527885  149.65299988    1.63000000    2.61999989
   16.47861099  133.62600708    1.85000002    2.61999989
   16.48194504  138.37300110    2.32999992    2.59999990
   16.48500061  136.68299866    2.50000000    2.59999990
   16.48638916  142.31799316    2.51999998    2.59999990
   16.48861122  152.98399353    2.30999994    2.59999990
   16.49194527  139.88499451    2.01999998    2.61999989
   16.49500084  139.26699829    1.61000001    2.61999989
   16.49833298  147.66900635    1.76999998    2.61999989
   16.50166702  145.05099487    1.69000006    2.61999989
   16.50472260  138.83700562    1.73000002    2.61999989
   16.51083374  138.83700562    1.60000002    2.61999989
   16.51499939  135.53300476    1.80999994    2.61999989
   16.51833344  141.31300354    2.96000004    2.59999990
   16.51972198  142.53199768    3.75000000    2.57999992
   16.52166557  138.22700500    4.65999985    2.57999992
   16.52499962  141.97599792    4.57999992    2.57999992
   16.52833366  141.23300171    4.90999985    2.57999992
   16.53138924  138.08399963    4.84999990    2.55999994
   16.53472137  135.91400146    3.75000000    2.59999990
   16.53777695  137.42500305    3.01999998    2.59999990
   16.54111099  137.07600403    3.73000002    2.59999990
   16.54444313  135.38900757    3.91000009    2.59999990
   16.54749870  134.40299988    3.21000004    2.59999990
   16.55360985  134.40299988    2.51999998    2.61999989
   16.55777740  133.05599976    2.40000010    2.61999989
   16.56110954  129.67199707    2.11999989    2.61999989
   16.56416512  130.75799561    1.96000004    2.61999989
   16.56750107  136.14100647    1.30999994    2.61999989
   16.57083511  137.17700195    1.38000000    2.61999989
   16.57389069  133.50199890    1.50000000    2.59999990
   16.57722282  137.94500732    1.38000000    2.61999989
   16.58027840  137.78599548    1.39999998    2.61999989
   16.58361244  134.24400330    1.58000004    2.61999989
   16.58638954  133.89999390    1.50000000    2.61999989
   16.60694504  133.89999390    1.30999994    2.61999989
   16.61111069  133.76100159    1.16999996    2.64000010
   16.61416626  132.66000366    1.46000004    2.61999989
   16.61750031  135.86399841    1.46000004    2.61999989
   16.61972237  135.39799500    1.76999998    2.61999989
   16.62138939  131.04899597    2.05999994    2.61999989
   16.62444496  136.91499329    2.44000006    2.59999990
   16.62777710  134.26800537    2.59999990    2.61999989
   16.63083267  136.59199524    2.71000004    2.59999990
   16.63416672  132.44599915    3.23000002    2.59999990
   16.63750076  138.08200073    2.82999992    2.59999990
   16.64055634  129.30000305    2.80999994    2.59999990
   16.64388847  133.80099487    2.28999996    2.61999989
   16.64972115  133.80099487    2.07999992    2.61999989
   16.65388870  138.70300293    2.09999990    2.61999989
   16.65694427  134.87500000    2.15000010    2.61999989
   16.66027832  136.74000549    2.25000000    2.61999989
   16.66333389  132.66499329    2.07999992    2.61999989
   16.66666603  130.70500183    1.71000004    2.61999989
   16.67000008  137.37800598    1.44000006    2.61999989
   16.67305565  130.62100220    1.23000002    2.61999989
   16.67638779  133.52999878    1.26999998    2.59999990
   16.67944336  133.35299683    1.39999998    2.59999990
   16.68277740  135.01300049    1.36000001    2.61999989
   16.68610954  138.29800415    1.26999998    2.61999989
   16.68666649  132.02499390    1.26999998    2.61999989
   16.69249916  132.02499390    1.26999998    2.61999989
   16.69666672  133.01199341    1.26999998    2.61999989
   16.70000076  137.44999695    1.48000002    2.61999989
   16.70305634  144.24400330    1.48000002    2.61999989
   16.70639038  137.12899780    1.48000002    2.61999989
   16.70944595  138.30700684    1.46000004    2.61999989
   16.71277809  137.01199341    1.69000006    2.61999989
   16.71611214  140.76199341    1.86000001    2.61999989
   16.71916771  137.10299683    2.03999996    2.61999989
   16.72000122  134.68899536    2.03999996    2.61999989
   16.72277832  135.35400391    2.40000010    2.61999989
   16.72611237  133.51100159    2.19000006    2.61999989
   16.72916794  132.67100525    2.03999996    2.61999989
   16.73527718  132.67100525    1.66999996    2.61999989
   16.73944473  131.85899353    1.80999994    2.61999989
   16.74277878  129.08099365    1.86000001    2.61999989
   16.74583435  130.98100281    1.66999996    2.61999989
   16.74916649  132.33399963    1.39999998    2.61999989
   16.75250053  129.76499939    1.39999998    2.61999989
   16.75333405  132.97999573    1.39999998    2.61999989
   16.75583267  134.49499512    1.64999998    2.61999989
   16.75916672  131.38999939    1.64999998    2.61999989
   16.76222229  135.59399414    1.85000002    2.61999989
   16.76555634  129.35400391    2.26999998    2.61999989
   16.76888847  130.77799988    2.07999992    2.61999989
   16.77194405  133.33299255    1.96000004    2.61999989
   16.77833366  133.33299255    2.61999989    2.59999990
   16.78222275  133.57899475    2.42000008    2.61999989
   16.78555489  137.25900269    2.21000004    2.61999989
   16.78666687  132.57899475    2.11999989    2.61999989
   16.78916550  133.52200317    1.89999998    2.61999989
   16.79249954  133.42100525    1.71000004    2.61999989
   16.79555511  130.91600037    1.96000004    2.61999989
   16.79888916  133.61399841    2.17000008    2.59999990
   16.80222130  129.57699585    2.39000010    2.59999990
   16.80527687  131.45599365    2.44000006    2.59999990
   16.80861092  132.60899353    2.17000008    2.61999989
   16.81166649  132.06100464    1.80999994    2.61999989
   16.81499863  129.82499695    1.39999998    2.61999989
   16.82111168  129.82499695    1.38000000    2.61999989
   16.82527924  135.84800720    1.39999998    2.61999989
   16.82833481  133.05099487    1.39999998    2.61999989
   16.83166695  132.26899719    1.38000000    2.61999989
   16.83472252  130.53700256    1.39999998    2.61999989
   16.83805656  132.04600525    1.41999996    2.61999989
   16.84138870  134.85400391    1.44000006    2.61999989
   16.84444427  134.39100647    1.41999996    2.61999989
   16.84805679  132.72500610    1.41999996    2.61999989
   16.85138893  134.80700684    1.61000001    2.59999990
   16.85333443  131.83299255    1.51999998    2.61999989
   16.85499954  128.95399475    1.51999998    2.61999989
   16.85833359  130.16900635    1.44000006    2.61999989
   16.86388969  130.16900635    1.28999996    2.61999989
   16.86805534  136.56900024    1.26999998    2.61999989
   16.87138939  132.15299988    1.23000002    2.61999989
   16.87444496  126.65200043    1.16999996    2.61999989
   16.87777710  125.23500061    1.11000001    2.61999989
   16.88083267  127.60800171    1.05999994    2.64000010
   16.88416672  131.44400024    1.26999998    2.61999989
   16.88666725  126.24500275    1.26999998    2.61999989
   16.88777733  129.34800720    1.28999996    2.61999989
   16.89111137  134.02699280    1.28999996    2.61999989
   16.89444351  133.14100647    1.58000004    2.61999989
   16.89749908  128.99200439    1.48000002    2.61999989
   16.90083313  127.01599884    1.53999996    2.61999989
   16.90666580  127.01599884    1.58000004    2.61999989
   16.91083336  126.75900269    1.58000004    2.61999989
   16.91416550  127.30899811    1.71000004    2.61999989
   16.91722107  129.07899475    1.71000004    2.61999989
   16.92000008  130.48599243    1.85000002    2.61999989
   16.92083359  125.91899872    1.85000002    2.61999989
   16.92416573  129.52000427    1.80999994    2.61999989
   16.92749977  127.14099884    1.33000004    2.61999989
   16.93055534  129.70799255    1.50000000    2.61999989
   16.93388748  129.52200317    1.44000006    2.61999989
   16.93694305  128.04200745    1.51999998    2.61999989
   16.94027710  129.67700195    1.71000004    2.61999989
   16.94361115  126.31600189    2.01999998    2.61999989
   16.94972038  126.31600189    1.73000002    2.61999989
   16.95361137  125.00700378    1.73000002    2.61999989
   16.95694542  131.40699768    1.73000002    2.61999989
   16.96027946  126.91600037    1.96000004    2.61999989
   16.96333504  130.49400330    1.89999998    2.61999989
   16.96666718  128.11399841    1.85000002    2.61999989
   16.96972275  127.58200073    1.96000004    2.61999989
   16.97305679  128.56100464    2.17000008    2.61999989
   16.97638893  127.67199707    2.64000010    2.61999989
   16.97944450  128.98699951    2.71000004    2.61999989
   16.98277855  134.39100647    2.73000002    2.61999989
   16.98583412  122.78099823    3.11999989    2.61999989
   16.98666763  123.94300079    3.21000004    2.61999989
   16.99250031  123.94300079    3.39000010    2.59999990
   16.99666786  131.69299316    3.00000000    2.61999989
   16.99972153  136.37199402    2.21000004    2.61999989
   17.00305557  132.48699951    2.61999989    2.61999989
   17.00666618  127.73400116    2.82999992    2.61999989
   17.00972176  130.14300537    2.40000010    2.61999989
   17.01305580  131.20599365    2.01999998    2.61999989
   17.01611137  128.79800415    1.50000000    2.61999989
   17.01944351  125.71299744    1.16999996    2.61999989
   17.02000046  128.97999573    1.16999996    2.61999989
   17.02305603  133.35299683    1.69000006    2.59999990
   17.02611160  127.88300323    1.73000002    2.59999990
   17.02944374  127.12799835    1.63000000    2.61999989
   17.03527641  127.12799835    2.13000011    2.61999989
   17.03944397  132.63099670    2.00000000    2.61999989
   17.04249954  130.68299866    2.15000010    2.61999989
   17.04583359  133.91400146    2.32999992    2.59999990
   17.04916573  133.64300537    2.23000002    2.61999989
   17.05222130  133.53500366    2.32999992    2.61999989
   17.05333328  136.34100342    2.32999992    2.61999989
   17.05611038  125.78700256    2.57999992    2.59999990
   17.05916595  129.95500183    2.26999998    2.61999989
   17.06250000  135.04899597    2.39000010    2.61999989
   17.06555557  131.83999634    2.44000006    2.61999989
   17.06888962  132.95199585    2.50000000    2.61999989
   17.07222366  130.30000305    2.19000006    2.61999989
   17.07805634  130.30000305    2.89000010    2.59999990
   17.08222389  137.02499390    3.43000007    2.61999989
   17.08555603  132.35600281    3.25000000    2.59999990
   17.08666801  135.63400269    3.43000007    2.59999990
   17.08916664  130.61500549    3.59999990    2.59999990
   17.09222221  131.02000427    3.51999998    2.59999990
   17.09555626  132.56900024    3.61999989    2.59999990
   17.09861183  127.23200226    3.45000005    2.59999990
   17.10194397  129.69599915    3.00000000    2.61999989
   17.10527802  127.53299713    3.45000005    2.59999990
   17.10833359  130.39300537    3.39000010    2.59999990
   17.11166763  132.12300110    3.73000002    2.59999990
   17.11472321  131.12500000    3.66000009    2.59999990
   17.12083435  131.12500000    4.11999989    2.59999990
   17.12500000  134.49200439    3.95000005    2.59999990
   17.12833405  134.09899902    4.19999981    2.59999990
   17.13166618  137.22300720    4.36999989    2.57999992
   17.13472176  134.08700562    4.28999996    2.59999990
   17.13805580  136.18800354    4.44999981    2.59999990
   17.14111137  131.62500000    4.90999985    2.57999992
   17.14444351  132.25700378    4.90999985    2.57999992
   17.14777756  126.86699677    4.90999985    2.57999992
   17.15083313  123.75599670    4.90999985    2.59999990
   17.15333366  131.05200195    4.90999985    2.57999992
   17.15472221  130.48399353    4.90999985    2.57999992
   17.15777779  133.09899902    4.90999985    2.57999992
   17.16388893  133.09899902    4.40999985    2.59999990
   17.16805458  131.48300171    4.73999977    2.57999992
   17.17111015  131.15600586    4.90999985    2.57999992
   17.17444420  135.73899841    4.90999985    2.57999992
   17.17749977  133.52499390    4.90999985    2.57999992
   17.18083191  133.50000000    4.90999985    2.57999992
   17.18416595  133.62399292    4.90999985    2.55999994
   17.18666649  132.62100220    4.90999985    2.55999994
   17.18777657  136.22900391    4.90999985    2.57999992
   17.19083214  132.94400024    4.90999985    2.55999994
   17.19416618  138.61399841    4.90999985    2.57999992
   17.19722176  130.13600159    4.90999985    2.57999992
   17.20055580  132.72799683    4.90999985    2.57999992
   17.20666695  132.72799683    4.90999985    2.57999992
   17.21083450  121.74800110    4.90999985    2.57999992
   17.21389008  129.19700623    4.90999985    2.57999992
   17.21722221  129.28799438    4.90999985    2.55999994
   17.22000122  136.26800537    4.90999985    2.55999994
   17.22083473  130.79200745    4.90999985    2.55999994
   17.22389030  133.92500305    4.90999985    2.53999996
   17.22722244  124.61599731    4.90999985    2.53999996
   17.23055649  139.78599548    4.90999985    2.51999998
   17.23361206  136.53900146    4.90999985    2.51999998
   17.23694420  133.95199585    4.90999985    2.51999998
   17.23999977  138.95599365    4.90999985    2.51999998
   17.24333382  135.78300476    4.90999985    2.51999998
   17.24944496  135.78300476    4.90999985    2.51999998
   17.25361061  138.58299255    4.90999985    2.50000000
   17.25694466  146.21400452    4.90999985    2.48000002
   17.26000023  140.45799255    4.90999985    2.51999998
   17.26333427  137.34800720    4.90999985    2.51999998
   17.26638794  136.82200623    4.90999985    2.53999996
   17.26972198  133.06100464    4.90999985    2.53999996
   17.27305603  134.13699341    4.90999985    2.51999998
   17.27611160  134.06199646    4.90999985    2.53999996
   17.27944374  140.35499573    4.90999985    2.53999996
   17.28249931  131.91299438    4.90999985    2.53999996
   17.28583336  143.79100037    4.90999985    2.53999996
   17.28666687  144.21200562    4.90999985    2.53999996
   17.29222107  144.21200562    4.90999985    2.53999996
   17.29638863  137.94200134    4.90999985    2.53999996
   17.29972076  135.05000305    4.90999985    2.53999996
   17.30277634  132.57000732    4.90999985    2.55999994
   17.30611038  130.63200378    4.90999985    2.57999992
   17.30944443  135.70199585    4.90999985    2.59999990
   17.31250000  131.25599670    4.80000019    2.57999992
   17.31583214  131.44400024    4.90999985    2.57999992
   17.31916809  134.11399841    4.90999985    2.57999992
   17.32000160  129.24899292    4.90999985    2.57999992
   17.32277870  133.90400696    4.90999985    2.55999994
   17.32583427  132.05200195    4.90999985    2.55999994
   17.32916832  132.11700439    4.90999985    2.57999992
   17.33527756  132.11700439    4.90999985    2.59999990
   17.33916664  140.02799988    4.90999985    2.57999992
   17.34250069  140.37899780    4.90999985    2.57999992
   17.34583473  140.05700684    4.90999985    2.57999992
   17.34889030  142.98199463    4.90999985    2.59999990
   17.35222244  140.44900513    4.90999985    2.59999990
   17.35333443  142.45199585    4.90999985    2.57999992
   17.35583305  136.66400146    4.90999985    2.59999990
   17.35888863  134.13699341    4.88999987    2.57999992
   17.36222267  131.83099365    4.88999987    2.57999992
   17.36555672  131.60899353    4.36999989    2.59999990
   17.36861038  133.88600159    4.28999996    2.57999992
   17.37194443  133.83099365    4.46999979    2.59999990
   17.37805557  133.83099365    4.78000021    2.57999992
   17.38222313  127.48699951    4.90999985    2.57999992
   17.38527679  135.59199524    4.90999985    2.57999992
   17.38666725  134.23699951    4.90999985    2.57999992
   17.38916588  138.49600220    4.90999985    2.59999990
   17.39222145  133.25199890    4.90999985    2.57999992
   17.39555550  134.24800110    4.90999985    2.57999992
   17.39888954  132.21600342    4.90999985    2.55999994
   17.40194321  131.86599731    4.90999985    2.59999990
   17.40527725  131.63600159    4.90999985    2.57999992
   17.40833282  135.05499268    4.90999985    2.57999992
   17.41166687  133.90199280    4.90999985    2.57999992
   17.41472244  129.46699524    4.90999985    2.57999992
   17.42083359  129.46699524    4.90999985    2.57999992
   17.42499924  133.84800720    4.90999985    2.55999994
   17.42833328  140.35200500    4.90999985    2.55999994
   17.43138885  133.09599304    4.90999985    2.55999994
   17.43472099  136.60600281    4.90999985    2.57999992
   17.43777657  132.53700256    4.90999985    2.55999994
   17.44111061  131.10000610    4.90999985    2.55999994
   17.44444275  133.28599548    4.90999985    2.55999994
   17.44749832  135.25100708    4.90999985    2.55999994
   17.45083427  135.56199646    4.90999985    2.53999996
   17.45333481  137.46699524    4.90999985    2.55999994
   17.45444489  136.45700073    4.90999985    2.55999994
   17.45750046  136.97000122    4.90999985    2.53999996
   17.46361160  136.97000122    4.90999985    2.48000002
   17.46777916  137.99800110    4.90999985    2.46000004
   17.47111130  136.92300415    4.90999985    2.51999998
   17.47416687  138.73899841    4.90999985    2.51999998
   17.47750092  138.14599609    4.90999985    2.51999998
   17.48083305  136.83599854    4.90999985    2.53999996
   17.48388863  138.22099304    4.90999985    2.51999998
   17.48666763  137.31300354    4.90999985    2.53999996
   17.48750114  133.40199280    4.90999985    2.53999996
   17.49083328  135.61799622    4.90999985    2.53999996
   17.49388885  136.57000732    4.90999985    2.51999998
   17.49722290  140.28700256    4.90999985    2.44000006
   17.50027847  140.59300232    4.90999985    2.32999992
   17.50666618  140.59300232    4.90999985    2.28999996
   17.51083374  145.62100220    4.90999985    1.73000002
   17.51388931   -1.00000000    4.90999985    1.30999994
   17.51722145   -1.00000000    4.90999985    1.07000005
   17.52083397   -1.00000000    4.90999985    0.94000000
   17.52388954   -1.00000000    4.90999985    1.00000000
   17.52722168   -1.00000000    4.90999985    1.03999996
   17.53027725   23.57019997    4.90999985    1.21000004
   17.53361130   -1.00000000    4.90999985    1.66999996
   17.53694344  129.48199463    4.90999985    1.30999994
   17.53999901  165.52400208    4.90999985    1.89999998
   17.54333305  163.09800720    4.90999985    2.21000004
   17.54944420  163.09800720    4.90999985    2.26999998
   17.55360985  141.11700439    4.90999985    2.30999994
   17.55666542  144.20899963    4.90999985    2.42000008
   17.55999947  144.78900146    4.90999985    2.42000008
   17.56333351  140.53799438    4.90999985    2.40000010
   17.56638718  136.80299377    4.90999985    2.40000010
   17.56972313  135.36300659    4.90999985    2.40000010
   17.57277870  143.76699829    4.90999985    2.40000010
   17.57611275  139.18899536    4.90999985    2.39000010
   17.57944489  135.29600525    4.90999985    2.42000008
   17.58250046  143.50900269    4.90999985    2.40000010
   17.58583450  142.08999634    4.90999985    2.42000008
   17.58666801  147.52299500    4.90999985    2.40000010
   17.59222221  147.52299500    4.90999985    2.23000002
   17.59638977  168.08299255    4.90999985    2.26999998
   17.59972191  152.46400452    4.90999985    2.23000002
   17.60277748  148.59599304    4.90999985    2.39000010
   17.62055588  151.62500000    4.90999985    2.36999989
   17.62277794  145.20300293    4.90999985    2.36999989
   17.62611198  147.57000732    4.90999985    2.36999989
   17.62916756  154.15699768    4.90999985    2.32999992
   17.63527679  154.15699768    4.90999985    2.32999992
   17.63944435  153.67399597    4.90999985    2.36999989
   17.64277840  148.85899353    4.90999985    2.36999989
   17.64583397  152.03100586    4.90999985    2.36999989
   17.64916611  150.16400146    4.90999985    2.36999989
   17.65222168  153.13600159    4.90999985    2.40000010
   17.65361023  145.79899597    4.90999985    2.42000008
   17.65611076  146.59800720    4.90999985    2.44000006
   17.65944481  146.15800476    4.90999985    2.42000008
   17.66250038  140.40899658    4.90999985    2.40000010
   17.66583252  141.17199707    4.90999985    2.42000008
   17.66888809  143.10600281    4.90999985    2.44000006
   17.67222214  143.31799316    4.90999985    2.42000008
   17.67805481  143.31799316    4.90999985    2.42000008
   17.68222237  142.63200378    4.90999985    2.44000006
   17.68555450  146.36199951    4.90999985    2.46000004
   17.68694305  147.04699707    4.90999985    2.44000006
   17.68916512  143.65299988    4.90999985    2.44000006
   17.69222069  138.88800049    4.90999985    2.44000006
   17.69555473  139.83599854    4.90999985    2.46000004
   17.69888878  142.94299316    4.90999985    2.46000004
   17.70194435  141.07000732    4.90999985    2.44000006
   17.70527840  132.47799683    4.90999985    2.46000004
   17.70833397  139.91099548    4.90999985    2.46000004
   17.71166801  141.99000549    4.90999985    2.46000004
   17.71500015  146.14199829    4.90999985    2.46000004
   17.72111130  146.14199829    4.90999985    2.44000006
   17.72500038  148.47000122    4.90999985    2.40000010
   17.72833443  140.62600708    4.90999985    2.40000010
   17.73166656  138.39199829    4.90999985    2.40000010
   17.73472214  139.32200623    4.90999985    2.44000006
   17.73805618  142.87500000    4.90999985    2.42000008
   17.74111176  136.13000488    4.90999985    2.42000008
   17.74444389  138.66700745    4.90999985    2.46000004
   17.74777794  135.93600464    4.90999985    2.48000002
   17.75083351  131.72700500    4.90999985    2.46000004
   17.75361061  131.16400146    4.90999985    2.46000004
   17.75444412  137.05400085    4.90999985    2.46000004
   17.75749969  133.54400635    4.90999985    2.46000004
   17.76388931  133.54400635    4.90999985    2.42000008
   17.76805496  131.75799561    4.90999985    2.40000010
   17.77111053  141.87199402    4.90999985    2.44000006
   17.77444458  137.86900330    4.90999985    2.46000004
   17.77750015  128.03700256    4.90999985    2.48000002
   17.78083229  129.33700562    4.90999985    2.48000002
   17.78416634  135.50700378    4.90999985    2.48000002
   17.78694344  125.23100281    4.90999985    2.48000002
   17.78777695  130.31100464    4.90999985    2.48000002
   17.79083252  141.60099792    4.90999985    2.48000002
   17.79416656  133.19599915    4.90999985    2.46000004
   17.79749870  132.07800293    4.90999985    2.46000004
   17.80055428  143.09700012    4.90999985    2.42000008
   17.80666542  143.09700012    4.90999985    2.39000010
   17.81083298  144.89700317    4.90999985    2.40000010
   17.81416512  145.88299561    4.90999985    2.42000008
   17.81722260  146.60899353    4.90999985    2.40000010
   17.82027817  153.32299805    4.90999985    2.40000010
   17.82083511  155.30299377    4.90999985    2.40000010
   17.82416725  150.91700745    4.90999985    2.36999989
   17.82722282  152.32699585    4.90999985    2.36999989
   17.83055687  146.81100464    4.90999985    2.36999989
   17.83388901  151.17500305    4.90999985    2.40000010
   17.83694458  143.45300293    4.90999985    2.42000008
   17.84027863  139.72300720    4.90999985    2.40000010
   17.84333420  145.64999390    4.90999985    2.44000006
   17.84944534  145.64999390    4.90999985    2.48000002
   17.85361099  140.15199280    4.90999985    2.48000002
   17.85694504  142.78599548    4.90999985    2.51999998
   17.86000061  141.59399414    4.90999985    2.51999998
   17.86333466  140.27400208    4.90999985    2.51999998
   17.86666679  136.98399353    4.90999985    2.51999998
   17.86972237  135.44700623    4.90999985    2.53999996
   17.87305641  136.43099976    4.90999985    2.53999996
   17.87611198  127.65399933    4.90999985    2.51999998
   17.87944412  142.28199768    4.90999985    2.50000000
   17.88277817  137.66299438    4.90999985    2.51999998
   17.88583374  132.23399353    4.90999985    2.50000000
   17.88694382  133.49499512    4.90999985    2.50000000
   17.89249992  133.49499512    4.90999985    2.50000000
   17.89638901  133.44299316    4.90999985    2.50000000
   17.89972115  130.38800049    4.90999985    2.51999998
   17.90305519  145.83000183    4.90999985    2.50000000
   17.90611076  136.79600525    4.90999985    2.50000000
   17.90944481  139.92700195    4.90999985    2.50000000
   17.91250038  147.58200073    4.90999985    2.48000002
   17.91583252  134.29699707    4.90999985    2.50000000
   17.91916656  143.53199768    4.90999985    2.50000000
   17.92027664  139.22999573    4.90999985    2.50000000
   17.92277718  136.71899414    4.90999985    2.50000000
   17.92611122  143.90199280    4.90999985    2.50000000
   17.92916679  144.19299316    4.90999985    2.50000000
   17.93527603  144.19299316    4.90999985    2.48000002
   17.93944359  140.05299377    4.90999985    2.48000002
   17.94249916  142.03900146    4.90999985    2.50000000
   17.94583321  137.82099915    4.90999985    2.50000000
   17.94888878  141.93400574    4.90999985    2.50000000
   17.95222282  139.55499268    4.90999985    2.51999998
   17.95361137  133.60699463    4.90999985    2.51999998
   17.95583344  140.20300293    4.90999985    2.51999998
   17.95916748  144.61300659    4.90999985    2.51999998
   17.96222305  140.37199402    4.90999985    2.51999998
   17.96555710  148.28199768    4.90999985    2.53999996
   17.96861076  141.12100220    4.90999985    2.51999998
   17.97194481  147.77600098    4.90999985    2.51999998
   17.97805595  147.77600098    4.90999985    2.51999998
   17.98222351  150.02900696    4.90999985    2.50000000
   17.98555565  148.87500000    4.90999985    2.50000000
   17.98694420  145.58999634    4.90999985    2.51999998
   17.98916626  150.37100220    4.90999985    2.51999998
   17.99250031  144.87899780    4.90999985    2.51999998
   17.99555588  147.22099304    4.90999985    2.51999998
   17.99888992  142.94400024    4.90999985    2.51999998
   18.00222206  152.17799377    4.90999985    2.50000000
   18.00527763  147.76100159    4.90999985    2.50000000
   18.00861168  147.43099976    4.90999985    2.48000002
   18.01166725  148.40800476    4.90999985    2.48000002
   18.01499939  146.93600464    4.90999985    2.48000002
   18.02083397  146.93600464    4.90999985    2.48000002
   18.02499962  152.01400757    4.90999985    2.46000004
   18.02833366  147.99400330    4.90999985    2.46000004
   18.03138924  152.60699463    4.90999985    2.46000004
   18.03472137  148.16499329    4.90999985    2.46000004
   18.03805542  154.21299744    4.90999985    2.44000006
   18.04111099  166.33999634    4.90999985    2.44000006
   18.04444313  152.22099304    4.90999985    2.44000006
   18.04777718  157.79800415    4.90999985    2.46000004
   18.05083275  164.52200317    4.90999985    2.46000004
   18.05360985  139.98599243    4.90999985    2.46000004
   18.05444336  148.98599243    4.90999985    2.46000004
   18.05777740  148.38200378    4.90999985    2.46000004
   18.06388855  148.38200378    4.90999985    2.44000006
   18.06805611  149.19000244    4.90999985    2.46000004
   18.07111168  161.84800720    4.90999985    2.44000006
   18.07444572  162.53399658    4.90999985    2.44000006
   18.07750130  164.56700134    4.90999985    2.46000004
   18.08083344  179.86999512    4.90999985    2.46000004
   18.08416748  169.11700439    4.90999985    2.48000002
   18.08694458  160.25500488    4.90999985    2.48000002
   18.08777809  163.78900146    4.90999985    2.48000002
   18.09111214  164.05099487    4.90999985    2.50000000
   18.09416771  160.32000732    4.90999985    2.48000002
   18.09749985  159.13600159    4.90999985    2.46000004
   18.10055542  143.81399536    4.90999985    2.46000004
   18.10666656  143.81399536    4.90999985    2.48000002
   18.11083412  142.85099792    4.90999985    2.46000004
   18.11388969  145.13699341    4.90999985    2.48000002
   18.11722183  155.02999878    4.90999985    2.50000000
   18.12027740  152.67599487    4.90999985    2.50000000
   18.12083435  156.69799805    4.90999985    2.50000000
   18.12416649  156.66900635    4.90999985    2.48000002
   18.12722206  154.69200134    4.90999985    2.46000004
   18.13055611  153.46899414    4.90999985    2.42000008
   18.13361168  155.78500366    4.90999985    2.46000004
   18.13694382  150.91000366    4.90999985    2.46000004
   18.14027786  152.22200012    4.90999985    2.48000002
   18.14333344  152.50100708    4.90999985    2.48000002
   18.14944458  152.50100708    4.90999985    2.48000002
   18.15361023  152.44599915    4.90999985    2.50000000
   18.15416718  152.02699280    4.90999985    2.50000000
   18.15749931  151.95700073    4.90999985    2.51999998
   18.16055489  142.86099243    4.90999985    2.50000000
   18.16388893  141.65600586    4.90999985    2.51999998
   18.16722107  146.94400024    4.90999985    2.50000000
   18.17027664  141.11099243    4.90999985    2.51999998
   18.17361069  142.12699890    4.90999985    2.51999998
   18.17666626  143.97799683    4.90999985    2.53999996
   18.18000031  138.92500305    4.90999985    2.51999998
   18.18333244  147.52699280    4.90999985    2.53999996
   18.18638802  147.19099426    4.90999985    2.53999996
   18.18750000  147.21699524    4.90999985    2.53999996
   18.19222069  147.21699524    4.90999985    2.51999998
   18.19638824  143.81500244    4.90999985    2.51999998
   18.19972038  144.80099487    4.90999985    2.51999998
   18.20277786  139.32299805    4.90999985    2.51999998
   18.20611191  139.29200745    4.90999985    2.50000000
   18.20944595  140.96200562    4.90999985    2.48000002
   18.21250153  142.34599304    4.90999985    2.50000000
   18.21583366  145.96699524    4.90999985    2.50000000
   18.21888924  140.92199707    4.90999985    2.50000000
   18.22083473  142.96899414    4.90999985    2.50000000
   18.22277832  151.25000000    4.90999985    2.48000002
   18.22583389  148.05200195    4.90999985    2.48000002
   18.22916794  143.76499939    4.90999985    2.48000002
   18.23527718  143.76499939    4.90999985    2.48000002
   18.23916626  147.62899780    4.90999985    2.48000002
   18.24250031  135.28599548    4.90999985    2.50000000
   18.24583435  140.36700439    4.90999985    2.50000000
   18.24888992  134.66499329    4.90999985    2.51999998
   18.25222206  141.15199280    4.90999985    2.57999992
   18.25416756  137.48199463    4.90999985    2.55999994
   18.25583267  134.19400024    4.90999985    2.55999994
   18.25888824  142.35400391    4.90999985    2.55999994
   18.26222229  142.01800537    4.90999985    2.53999996
   18.26527786  137.31399536    4.90999985    2.55999994
   18.26861000  147.50500488    4.90999985    2.53999996
   18.27194405  144.76100159    4.90999985    2.53999996
   18.27805519  144.76100159    4.90999985    2.55999994
   18.28222275  141.70100403    4.90999985    2.53999996
   18.28527641  140.46000671    4.90999985    2.55999994
   18.28750038  138.36500549    4.80000019    2.55999994
   18.28916550  145.16799927    4.53999996    2.57999992
   18.29222107  149.02999878    4.00000000    2.57999992
   18.29555511  143.11900330    4.42999983    2.57999992
   18.29861069  142.69700623    4.63999987    2.55999994
   18.30194283  145.01699829    4.82999992    2.55999994
   18.30527687  145.11599731    4.61999989    2.57999992
   18.30833244  149.62399292    4.57999992    2.55999994
   18.31166649  142.93400574    4.73999977    2.55999994
   18.31472206  144.13800049    4.84999990    2.55999994
   18.32083511  144.13800049    4.63999987    2.57999992
   18.32500076  138.96099854    4.36999989    2.55999994
   18.32833481  145.94299316    4.36999989    2.57999992
   18.33139038  139.80999756    4.28999996    2.55999994
   18.33472252  142.05799866    4.11999989    2.57999992
   18.33777809  137.94599915    3.64000010    2.55999994
   18.34111214  143.14399719    3.53999996    2.59999990
   18.34444427  140.79800415    3.55999994    2.57999992
   18.34749985  142.90199280    3.76999998    2.55999994
   18.35083389  142.22900391    3.66000009    2.55999994
   18.35388947  141.69400024    2.64000010    2.59999990
   18.35444450  138.36999512    2.64000010    2.59999990
   18.35777855  137.28300476    2.80999994    2.59999990
   18.36361122  137.28300476    2.76999998    2.57999992
   18.36777878  143.06300354    2.67000008    2.59999990
   18.37111092  148.71400452    2.36999989    2.59999990
   18.37416649  142.73899841    2.36999989    2.57999992
   18.37750053  148.38499451    2.28999996    2.57999992
   18.38083267  138.23699951    2.13000011    2.59999990
   18.38388824  139.74200439    1.55999994    2.59999990
   18.38722229  142.25999451    1.38000000    2.57999992
   18.38777733  142.49200439    1.38000000    2.57999992
   18.39083290  136.71800232    1.48000002    2.61999989
   18.39416695  134.96800232    1.91999996    2.57999992
   18.39722252  131.39599609    2.26999998    2.57999992
   18.40055466  133.09399414    2.30999994    2.57999992
   18.40666580  133.09399414    3.14000010    2.55999994
   18.41055489  136.63099670    2.80999994    2.55999994
   18.41388893  139.21600342    2.82999992    2.55999994
   18.41722107  142.30400085    3.14000010    2.55999994
   18.42027664  127.70600128    3.21000004    2.55999994
   18.42111015  135.43400574    3.16000009    2.55999994
   18.42388916  134.74400330    3.23000002    2.57999992
   18.42722130  137.27099609    3.26999998    2.55999994
   18.43027687  145.86799622    3.11999989    2.55999994
   18.43361092  144.34700012    2.94000006    2.57999992
   18.43666649  136.93400574    2.64000010    2.57999992
   18.43999863  133.07499695    2.51999998    2.57999992
   18.44333267  136.82899475    2.01999998    2.57999992
   18.44944382  136.82899475    2.03999996    2.57999992
   18.45361137  136.39799500    2.23000002    2.57999992
   18.45444489  133.69900513    2.42000008    2.55999994
   18.45722389  139.34300232    2.61999989    2.57999992
   18.46055603  136.48199463    3.00000000    2.55999994
   18.46361160  130.38699341    3.03999996    2.55999994
   18.46694565  136.75599670    3.16000009    2.55999994
   18.47000122  126.01100159    3.26999998    2.55999994
   18.47333336  139.96699524    3.16000009    2.55999994
   18.47666740  138.13900757    2.84999990    2.55999994
   18.47972298  141.08500671    2.84999990    2.55999994
   18.48305511  141.31799316    2.80999994    2.57999992
   18.48611069  140.56700134    2.91000009    2.55999994
   18.48777771  134.30200195    3.11999989    2.57999992
   18.49222183  134.30200195    3.26999998    2.55999994
   18.49638939  138.59100342    3.72000003    2.53999996
   18.49944496  134.91299438    3.75000000    2.55999994
   18.50277710  143.98199463    3.36999989    2.55999994
   18.50611115  143.52099609    3.20000005    2.55999994
   18.50916672  137.42700195    2.82999992    2.55999994
   18.51250076  136.09599304    2.82999992    2.55999994
   18.51555634  137.48599243    3.03999996    2.55999994
   18.51888847  133.62699890    2.96000004    2.55999994
   18.52111053  136.61199951    2.86999989    2.55999994
   18.52249908  139.19299316    2.94000006    2.57999992
   18.52583313  136.39900208    3.32999992    2.55999994
   18.52888870  131.10800171    3.43000007    2.55999994
   18.53499985  131.10800171    3.16000009    2.55999994
   18.53916550  135.50599670    3.01999998    2.55999994
   18.54249954  129.41200256    3.00000000    2.55999994
   18.54555511  140.14900208    3.25000000    2.53999996
   18.54888916  135.41700745    3.34999990    2.55999994
   18.55222130  136.84500122    3.36999989    2.53999996
   18.55444336  136.24600220    3.46000004    2.53999996
   18.55583191  137.17300415    3.48000002    2.53999996
   18.55916595  140.54100037    3.97000003    2.53999996
   18.56222153  138.82000732    4.28999996    2.53999996
   18.56555557  137.44500732    4.21999979    2.53999996
   18.56861115  136.62399292    3.91000009    2.53999996
   18.57194519  137.02900696    4.11999989    2.53999996
   18.57805634  137.02900696    4.11999989    2.53999996
   18.58194542  136.11199951    3.61999989    2.55999994
   18.58527756  139.66000366    4.32999992    2.53999996
   18.58777809  135.75399780    4.80999994    2.53999996
   18.58889008  136.15299988    4.80999994    2.53999996
   18.59222221  135.49400330    4.48999977    2.53999996
   18.59527779  139.86300659    3.64000010    2.55999994
   18.59861183  138.76100159    3.43000007    2.55999994
   18.60166740  143.48300171    2.64000010    2.55999994
   18.60499954  135.83200073    2.64000010    2.57999992
   18.60833359  134.50500488    2.48000002    2.55999994
   18.61138916  138.66600037    2.84999990    2.55999994
   18.61472321  138.07400513    3.11999989    2.55999994
   18.62083435  138.07400513    4.30999994    2.53999996
   18.63916588  131.62100220    3.39000010    2.55999994
   18.64249992  143.11999512    3.50000000    2.53999996
   18.64555550  140.96600342    3.68000007    2.53999996
   18.64888954  140.51300049    3.26999998    2.55999994
   18.65194321  140.71600342    3.34999990    2.53999996
   18.65527725  135.66400146    3.34999990    2.55999994
   18.65861130  136.43600464    3.53999996    2.53999996
   18.66388893  136.43600464    3.72000003    2.53999996
   18.66805458  139.01699829    4.11999989    2.53999996
   18.67111015  140.11799622    4.90999985    2.53999996
   18.67222214  137.32699585    4.90999985    2.53999996
   18.67499924  144.17999268    4.90999985    2.48000002
   18.67805481  142.68800354    4.90999985    2.46000004
   18.68138885  135.37699890    4.90999985    2.40000010
   18.68444443  139.77200317    4.90999985    2.40000010
   18.68777657  141.37699890    4.90999985    2.48000002
   18.69111061  144.37600708    4.90999985    2.42000008
   18.69416618  151.69999695    4.90999985    2.36999989
   18.69749832  145.87399292    4.90999985    2.34999990
   18.70055580  138.09399414    4.90999985    2.53999996
   18.70666695  138.09399414    4.90999985    2.50000000
   18.71083450  130.03199768    4.90999985    2.50000000
   18.71416664  135.82200623    4.90999985    2.50000000
   18.71722221  130.58299255    4.80999994    2.53999996
   18.72055626  140.02299500    4.90999985    2.50000000
   18.72361183  148.87399292    4.90999985    2.51999998
   18.72694588  142.98800659    4.90999985    2.51999998
   18.73027802  146.33500671    4.90999985    2.50000000
   18.73333359  136.69799805    4.90999985    2.50000000
   18.73666763  146.20700073    4.90999985    2.48000002
   18.73888969  144.32200623    4.90999985    2.48000002
   18.74027824  144.22999573    4.90999985    2.48000002
   18.74333382  147.46000671    4.90999985    2.46000004
   18.74944496  147.46000671    4.90999985    2.50000000
   18.75361061  138.72399902    4.90999985    2.51999998
   18.75694466  141.90400696    4.90999985    2.51999998
   18.76027870  135.33500671    4.90999985    2.51999998
   18.76333427  144.38000488    4.90999985    2.51999998
   18.76666641  143.53199768    4.90999985    2.50000000
   18.76972198  138.03199768    4.90999985    2.50000000
   18.77222252  142.55700684    4.90999985    2.51999998
   18.77361107  135.70599365    4.90999985    2.51999998
   18.77666664  138.79100037    4.90999985    2.50000000
   18.78000069  138.26199341    4.90999985    2.48000002
   18.78305435  147.79499817    4.90999985    2.48000002
   18.78638840  137.66000366    4.90999985    2.48000002
   18.79249954  137.66000366    4.90999985    2.46000004
   18.79666710  147.81399536    4.90999985    2.44000006
   18.79972076  154.14399719    4.90999985    2.42000008
   18.80305481  145.94200134    4.90999985    2.44000006
   18.80555534  150.11199951    4.90999985    2.42000008
   18.80666542  158.80900574    4.90999985    2.42000008
   18.80972099  144.32899475    4.90999985    2.42000008
   18.81305504  145.19700623    4.90999985    2.44000006
   18.81611061  151.87500000    4.90999985    2.46000004
   18.81944466  166.43400574    4.90999985    2.44000006
   18.82277870  157.91900635    4.90999985    2.40000010
   18.82583427  160.76699829    4.90999985    2.34999990
   18.82916832  162.30299377    4.90999985    2.32999992
   18.83527756  162.30299377    4.90999985    2.40000010
   18.83944511  153.51199341    4.90999985    2.46000004
   18.84277916  151.58599854    4.90999985    2.39000010
   18.84583473  145.39100647    4.90999985    2.42000008
   18.84916687  150.86900330    4.90999985    2.40000010
   18.85222244  154.24800110    4.90999985    2.36999989
   18.85555649  159.64799500    4.90999985    2.32999992
   18.85888863  166.46400452    4.90999985    2.32999992
   18.86194420  178.43899536    4.90999985    2.15000010
   18.86527824  187.33299255    4.90999985    2.09999990
   18.86833382  162.12300110    4.90999985    2.19000006
   18.87166595  149.11900330    4.90999985    2.40000010
   18.87222290  151.56500244    4.90999985    2.40000010
   18.87805557  151.56500244    4.90999985    2.30999994
   18.88222313  147.37899780    4.90999985    2.32999992
   18.88555527  160.94700623    4.90999985    2.36999989
   18.88861084  144.86000061    4.90999985    2.30999994
   18.89194489  148.10600281    4.90999985    2.36999989
   18.89527702  149.70799255    4.90999985    2.44000006
   18.89861107  152.24400330    4.90999985    2.39000010
   18.90194321  150.65699768    4.90999985    2.34999990
   18.90527725  143.86399841    4.90999985    2.39000010
   18.90555573  150.31700134    4.90999985    2.39000010
   18.90861130  149.26899719    4.90999985    2.36999989
   18.91194344  155.97300720    4.90999985    2.34999990
   18.91499901  156.88600159    4.90999985    2.36999989
   18.92111015  156.88600159    4.90999985    2.34999990
   18.92499924  154.84800720    4.90999985    2.30999994
   18.92833328  149.59100342    4.90999985    2.32999992
   18.93166542  144.63099670    4.90999985    2.32999992
   18.93472099  144.25300598    4.90999985    2.36999989
   18.93805504  151.64599609    4.90999985    2.40000010
   18.93916512  144.84800720    4.90999985    2.40000010
   18.94166565  150.08999634    4.90999985    2.46000004
   18.94499969  145.59800720    4.90999985    2.46000004
   18.94805527  147.13800049    4.90999985    2.40000010
   18.95138931  140.76100159    4.90999985    2.42000008
   18.95472336  140.63999939    4.90999985    2.46000004
   18.95777893  140.50900269    4.90999985    2.46000004
   18.96389008  140.50900269    4.90999985    2.46000004
   18.96805573  144.52000427    4.90999985    2.44000006
   18.97111130  144.57800293    4.90999985    2.46000004
   18.97249985  142.82600403    4.90999985    2.46000004
   18.97472191  142.83500671    4.90999985    2.46000004
   18.97805595  135.30099487    4.90999985    2.44000006
   18.98111153  147.57899475    4.90999985    2.44000006
   18.98444557  149.25599670    4.90999985    2.42000008
   18.98777771  151.27099609    4.90999985    2.40000010
   18.99083328  147.27299500    4.90999985    2.39000010
   18.99416733  154.44299316    4.90999985    2.39000010
   18.99722290  152.12199402    4.90999985    2.39000010
   19.00055504  155.19500732    4.90999985    2.34999990
   19.00666618  155.19500732    4.90999985    2.44000006
   19.01083374  142.03399658    4.90999985    2.46000004
   19.01416588  156.21899414    4.90999985    2.30999994
   19.01722145  200.63699341    4.90999985    2.23000002
   19.02055550  185.20199585    4.90999985    2.01999998
   19.02361107  215.99499512    4.90999985    1.94000006
   19.02694511  190.00500488    4.90999985    1.88000000
   19.03027725  180.08799744    4.90999985    1.94000006
   19.03333282  153.19799805    4.90999985    2.01999998
   19.03666687  144.00799561    4.90999985    2.36999989
   19.03916550  154.32200623    4.90999985    2.42000008
   19.04027748  174.06700134    4.90999985    2.32999992
   19.04361153  192.70799255    4.90999985    2.05999994
   19.04944420  192.70799255    4.90999985    2.01999998
   19.05360985  154.82699585    4.90999985    2.30999994
   19.05694389  157.49499512    4.90999985    2.21000004
   19.05999947  154.23300171    4.90999985    2.19000006
   19.06333351  137.99400330    4.90999985    2.30999994
   19.06666756  154.93699646    4.90999985    2.40000010
   19.06972313  144.49200439    4.90999985    2.30999994
   19.07250023  141.68299866    4.90999985    2.34999990
   19.07333374  142.73300171    4.90999985    2.34999990
   19.07666779  142.04800415    4.90999985    2.40000010
   19.07972336  140.99499512    4.90999985    2.46000004
   19.08305550  140.96099854    4.90999985    2.46000004
   19.08638954  140.00500488    4.90999985    2.48000002
   19.09250069  140.00500488    4.90999985    2.48000002
   19.09638977  141.18800354    4.90999985    2.46000004
   19.09972191  137.71200562    4.90999985    2.44000006
   19.10305595  135.48100281    4.90999985    2.46000004
   19.10583305  141.74000549    4.90999985    2.46000004
   19.10666656  140.46099854    4.90999985    2.46000004
   19.11000061  151.43200684    4.90999985    2.46000004
   19.11305618  141.98399353    4.90999985    2.39000010
   19.11638832  144.47399902    4.90999985    2.32999992
   19.11972237  143.48699951    4.90999985    2.39000010
   19.12277794  147.26600647    4.90999985    2.36999989
   19.12611198  154.67500305    4.90999985    2.34999990
   19.12916756  152.35400391    4.90999985    2.30999994
   19.13527679  152.35400391    4.90999985    2.40000010
   19.13944435  159.34899902    4.90999985    2.40000010
   19.14249992  157.70899963    4.90999985    2.39000010
   19.14583397  157.53900146    4.90999985    2.39000010
   19.14916611  151.93800354    4.90999985    2.44000006
   19.15222168  146.05799866    4.90999985    2.46000004
   19.15555573  150.66099548    4.90999985    2.46000004
   19.15861130  141.63900757    4.90999985    2.46000004
   19.16194344  143.20399475    4.90999985    2.46000004
   19.16499901  145.30499268    4.90999985    2.46000004
   19.16833305  143.02400208    4.90999985    2.48000002
   19.17166519  141.73199463    4.90999985    2.48000002
   19.17249870  138.46899414    4.90999985    2.46000004
   19.17805481  138.46899414    4.90999985    2.46000004
   19.18222237  145.88099670    4.90999985    2.46000004
   19.18555450  145.54699707    4.90999985    2.46000004
   19.18861008  141.52000427    4.90999985    2.44000006
   19.19194412  145.58700562    4.90999985    2.48000002
   19.19527626  142.93699646    4.90999985    2.48000002
   19.19833183  144.68699646    4.90999985    2.48000002
   19.20166779  143.38000488    4.90999985    2.48000002
   19.20472336  141.04699707    4.90999985    2.48000002
   19.20583344  145.47200012    4.90999985    2.48000002
   19.20833397  149.32699585    4.90999985    2.48000002
   19.21166801  144.52299500    4.90999985    2.46000004
   19.21472359  147.89700317    4.90999985    2.46000004
   19.22083473  147.89700317    4.90999985    2.46000004
   19.22500038  150.92999268    4.90999985    2.46000004
   19.22833443  144.38299561    4.90999985    2.44000006
   19.23139000  148.50599670    4.90999985    2.44000006
   19.23472214  149.16299438    4.90999985    2.42000008
   19.23805618  153.52200317    4.90999985    2.42000008
   19.23916626  158.07800293    4.90999985    2.40000010
   19.24138832  154.67999268    4.90999985    2.39000010
   19.24472237  152.02600098    4.90999985    2.28999996
   19.24777794  158.30499268    4.90999985    2.36999989
   19.25111198  156.33599854    4.90999985    2.32999992
   19.25444412  164.73300171    4.90999985    2.32999992
   19.25749969  168.54200745    4.90999985    2.26999998
   19.26388931  168.54200745    4.90999985    2.17000008
   19.26777840  170.76800537    4.90999985    2.25000000
   19.27111053  154.93600464    4.90999985    2.36999989
   19.27249908  164.28199768    4.90999985    2.39000010
   19.27472115  161.98199463    4.90999985    2.36999989
   19.27805519  164.66900635    4.90999985    2.36999989
   19.28111076  148.52000427    4.90999985    2.39000010
   19.28444481  151.31399536    4.90999985    2.42000008
   19.28777695  164.04299927    4.90999985    2.40000010
   19.29083252  174.31100464    4.90999985    2.42000008
   19.29416656  174.80599976    4.90999985    2.42000008
   19.29722214  166.21099854    4.90999985    2.46000004
   19.30055428  167.40400696    4.90999985    2.46000004
   19.30666542  167.40400696    4.90999985    2.44000006
   19.31083298  163.74299622    4.90999985    2.44000006
   19.31388855  154.53500366    4.90999985    2.44000006
   19.31722260  151.69200134    4.90999985    2.42000008
   19.32027817  158.66200256    4.90999985    2.42000008
   19.32361221  148.90100098    4.90999985    2.44000006
   19.32694626  151.64900208    4.90999985    2.46000004
   19.33000183  153.82800293    4.90999985    2.46000004
   19.33333397  154.05999756    4.90999985    2.46000004
   19.33638954  155.13800049    4.90999985    2.46000004
   19.33916664  153.52499390    4.90999985    2.46000004
   19.34000015  156.35000610    4.90999985    2.46000004
   19.34333420  167.75199890    4.90999985    2.44000006
   19.34944534  167.75199890    4.90999985    2.44000006
   19.35361099  150.76100159    4.90999985    2.44000006
   19.35666656  165.84700012    4.90999985    2.44000006
   19.36000061  160.24699402    4.90999985    2.46000004
   19.36333466  162.07400513    4.90999985    2.44000006
   19.36638832  163.09199524    4.90999985    2.44000006
   19.36972237  153.56900024    4.90999985    2.44000006
   19.37249947  165.34300232    4.90999985    2.44000006
   19.37333298  169.80299377    4.90999985    2.44000006
   19.37666702  163.20599365    4.90999985    2.42000008
   19.37972260  159.26100159    4.90999985    2.44000006
   19.38305473  164.25100708    4.90999985    2.40000010
   19.38638878  159.88600159    4.90999985    2.44000006
   19.39222145  159.88600159    4.90999985    2.42000008
   19.39638901  144.02299500    4.90999985    2.44000006
   19.39972115  150.07699585    4.90999985    2.44000006
   19.40277672  152.08299255    4.90999985    2.44000006
   19.40583229  146.04699707    4.90999985    2.44000006
   19.40638924  153.43099976    4.90999985    2.44000006
   19.40972137  146.56700134    4.90999985    2.44000006
   19.41305542  149.66799927    4.90999985    2.44000006
   19.41611099  141.18800354    4.90999985    2.44000006
   19.41944313  162.19500732    4.90999985    2.44000006
   19.42249870  144.15800476    4.90999985    2.42000008
   19.42583275  145.36199951    4.90999985    2.42000008
   19.42916679  143.57299805    4.90999985    2.42000008
   19.43499947  143.57299805    4.90999985    2.44000006
   19.43916512  147.13800049    4.90999985    2.44000006
   19.44249916  149.01600647    4.90999985    2.44000006
   19.44583321  151.15499878    4.69999981    2.44000006
   19.44888878  151.54299927    4.55999994    2.44000006
   19.45222282  143.47799683    4.42999983    2.44000006
   19.45527840  145.65800476    4.26999998    2.44000006
   19.45861244  150.08700562    4.48999977    2.44000006
   19.46166801  145.47700500    4.61999989    2.44000006
   19.46500015  142.90400696    4.80999994    2.44000006
   19.46833420  150.46000671    4.90999985    2.42000008
   19.47138977  146.77099609    4.90999985    2.44000006
   19.47249985  147.08500671    4.90999985    2.44000006
   19.47805595  147.08500671    4.80999994    2.42000008
   19.48222351  140.88600159    4.82999992    2.44000006
   19.48527718  148.13600159    4.80000019    2.44000006
   19.48861122  152.12600708    4.84999990    2.44000006
   19.49166679  145.63900757    4.88999987    2.42000008
   19.49500084  155.27699280    4.90999985    2.42000008
   19.49833298  153.07899475    4.90999985    2.42000008
   19.50138855  153.18400574    4.90999985    2.42000008
   19.50472260  151.80200195    4.90999985    2.42000008
   19.50583267  144.76600647    4.90999985    2.42000008
   19.50805473  149.66600037    4.90999985    2.42000008
   19.51138878  146.35299683    4.88999987    2.42000008
   19.51472282  156.78799438    4.84999990    2.44000006
   19.52083397  156.78799438    4.90999985    2.44000006
   19.52499962  141.30499268    4.80000019    2.44000006
   19.52833366  148.63299561    4.88999987    2.44000006
   19.53138924  147.87800598    4.88999987    2.44000006
   19.53472137  144.03300476    4.88999987    2.44000006
   19.53777695  145.28100586    4.90999985    2.42000008
   19.53916550  145.73599243    4.90999985    2.42000008
   19.54138756  151.09700012    4.90999985    2.44000006
   19.54472160  143.77400208    4.88999987    2.44000006
   19.54805565  148.19700623    4.76000023    2.44000006
   19.55111122  145.89399719    4.69999981    2.42000008
   19.55444336  148.35000610    4.71999979    2.42000008
   19.55749893  152.68200684    4.90999985    2.42000008
   19.56361008  152.68200684    4.90999985    2.40000010
   19.56777954  159.84300232    4.90999985    2.42000008
   19.57111168  169.69099426    4.90999985    2.40000010
   19.57250023  158.47700500    4.90999985    2.40000010
   19.57444572  146.84300232    4.90999985    2.40000010
   19.57777786  147.18499756    4.80999994    2.42000008
   19.58111191  141.03199768    4.76000023    2.42000008
   19.58416748  145.61000061    4.90999985    2.42000008
   19.58750153  146.54499817    4.90999985    2.42000008
   19.59055710  139.69200134    4.90999985    2.40000010
   19.59388924  150.87100220    4.90999985    2.40000010
   19.59722328  142.84300232    4.90999985    2.40000010
   19.60027885  159.73300171    4.88999987    2.42000008
   19.60639000  159.73300171    4.76000023    2.42000008
   19.61055565  147.74000549    4.59999990    2.42000008
   19.61388969  149.47500610    4.53999996    2.42000008
   19.61694527  157.67700195    4.53000021    2.42000008
   19.62027740  152.69400024    4.53999996    2.42000008
   19.62361145  163.19999695    4.51000023    2.42000008
   19.62666702  167.22999573    4.53999996    2.42000008
   19.63000107  157.23800659    4.69999981    2.40000010
   19.63305473  154.42599487    4.78000021    2.40000010
   19.63638878  149.92700195    4.78000021    2.40000010
   19.63916588  148.43400574    4.76000023    2.40000010
   19.65972137  148.43400574    4.88999987    2.40000010
   19.66388893  149.52600098    4.90999985    2.40000010
   19.66722107  155.22700500    4.90999985    2.40000010
   19.67027664  148.19000244    4.90999985    2.40000010
   19.67249870  157.89599609    4.90999985    2.40000010
   19.67388916  152.19599915    4.90999985    2.40000010
   19.67722130  147.89999390    4.90999985    2.39000010
   19.68055534  146.11199951    4.90999985    2.40000010
   19.68361092  149.32000732    4.90999985    2.39000010
   19.68694305  146.03999329    4.90999985    2.40000010
   19.68999863  143.50000000    4.90999985    2.39000010
   19.69333267  145.85499573    4.90999985    2.40000010
   19.69666672  149.09899902    4.90999985    2.40000010
   19.70250130  149.09899902    4.90999985    2.40000010
   19.70666695  145.36199951    4.90999985    2.39000010
   19.71000099  140.05200195    4.90999985    2.39000010
   19.71305656  138.88499451    4.90999985    2.39000010
   19.71638870  146.51699829    4.90999985    2.39000010
   19.71944427  145.66499329    4.90999985    2.39000010
   19.72277832  147.49600220    4.90999985    2.39000010
   19.72583389  145.54299927    4.90999985    2.39000010
   19.72916794  147.38400269    4.90999985    2.40000010
   19.73250008  157.13099670    4.90999985    2.40000010
   19.73555565  163.22599792    4.71999979    2.39000010
   19.73888969  178.96499634    4.53000021    2.40000010
   19.73944473  175.18899536    4.53000021    2.40000010
   19.74527740  175.18899536    4.61999989    2.40000010
   19.74944496  221.15299988    4.38999987    2.40000010
   19.75277710  189.59199524    4.40999985    2.40000010
   19.75583267  120.91300201    4.44999981    2.40000010
   19.75916672  143.06100464    4.53000021    2.40000010
   19.76250076  180.97900391    4.36999989    2.40000010
   19.76555634   -1.00000000    4.32999992    2.40000010
   19.76888847   -1.00000000    4.32999992    2.40000010
   19.77194405   -1.00000000    4.38999987    2.40000010
