    HOUR (UT)   FLARE FACTOR    SKY TESTER    SUN TESTER
   11.20888901   -1.00000000   -1.00000000   -1.00000000
   11.23222160  125.22799683    0.79000002    2.30999994
   11.23555565  133.03599548    0.79000002    2.30999994
   11.23861122  138.38800049    0.79000002    2.30999994
   11.24194431  140.53100586    0.79000002    2.30999994
   11.24527836  134.14599609    0.79000002    2.30999994
   11.24833393  144.88000488    0.79000002    2.30999994
   11.25277805  144.88000488    0.79000002    2.32999992
   11.25722218  134.15100098    0.79000002    2.32999992
   11.26027775  128.08500671    0.79000002    2.30999994
   11.26361084  127.85900116    0.79000002    2.30999994
   11.26527786  126.75900269    0.79000002    2.30999994
   11.26694393  120.58799744    0.80000001    2.30999994
   11.27027798  126.47899628    0.80000001    2.30999994
   11.27361107  121.26599884    0.80000001    2.32999992
   11.27666664  123.62899780    0.79000002    2.32999992
   11.27999973  124.32299805    0.80000001    2.30999994
   11.28333378  123.02500153    0.80000001    2.30999994
   11.28638935  123.12400055    0.80000001    2.32999992
   11.28972244  122.47299957    0.80000001    2.32999992
   11.29527855  122.47299957    0.80000001    2.32999992
   11.29944515  127.99299622    0.81999999    2.32999992
   11.30277824  127.72100067    0.80000001    2.32999992
   11.30583382  132.85699463    0.80000001    2.32999992
   11.30916691  128.03900146    0.79000002    2.32999992
   11.31250000  128.19999695    0.79000002    2.32999992
   11.31583309  127.83699799    0.79000002    2.32999992
   11.31916618  131.36099243    0.79000002    2.32999992
   11.32250023  132.25599670    0.80000001    2.32999992
   11.32583332  136.21000671    0.79000002    2.32999992
   11.32888889  137.05099487    0.79000002    2.32999992
   11.33194447  133.84100342    0.79000002    2.34999990
   11.33277798  130.05099487    0.79000002    2.34999990
   11.33833313  130.05099487    0.79000002    2.34999990
   11.34249973  131.41200256    0.76999998    2.34999990
   11.34555531  133.14799500    0.79000002    2.34999990
   11.34888840  132.50700378    0.76999998    2.34999990
   11.35194492  130.61700439    0.76999998    2.34999990
   11.35527802  130.05999756    0.76999998    2.34999990
   11.35861111  128.73699951    0.76999998    2.34999990
   11.36166668  126.86900330    0.76999998    2.34999990
   11.36500072  128.65600586    0.79000002    2.34999990
   11.36555576  131.09399414    0.79000002    2.34999990
   11.36861134  131.20399475    0.79000002    2.34999990
   11.37194443  131.48599243    0.79000002    2.34999990
   11.37527752  123.72000122    0.79000002    2.34999990
   11.38111115  123.72000122    0.80000001    2.36999989
   11.38527775  116.51499939    0.80000001    2.36999989
   11.38833332  118.43900299    0.80000001    2.34999990
   11.39166641  119.47399902    0.80000001    2.34999990
   11.39499950  120.02200317    0.79000002    2.34999990
   11.39805508  123.51300049    0.76999998    2.36999989
   11.39888859  118.75499725    0.76999998    2.36999989
   11.40166664  124.54799652    0.76999998    2.34999990
   11.40499973  122.08599854    0.76999998    2.36999989
   11.40833282  133.47099304    0.76999998    2.36999989
   11.41138840  123.39900208    0.75000000    2.36999989
   11.41472149  130.73100281    0.76999998    2.36999989
   11.41805553  123.93399811    0.75000000    2.36999989
   11.42388916  123.93399811    0.75000000    2.36999989
   11.42805576  128.93499756    0.75000000    2.36999989
   11.43138885  124.87500000    0.75000000    2.36999989
   11.43222237  130.11199951    0.75000000    2.36999989
   11.43472195  128.55799866    0.73000002    2.36999989
   11.43805599  125.55699921    0.73000002    2.36999989
   11.44138908  126.43499756    0.73000002    2.36999989
   11.44444466  128.01800537    0.73000002    2.36999989
   11.44777775  124.80799866    0.73000002    2.39000010
   11.45111084  129.33799744    0.73000002    2.36999989
   11.45416641  128.37699890    0.73000002    2.39000010
   11.45749950  131.01499939    0.73000002    2.39000010
   11.46083355  129.31900024    0.73000002    2.39000010
   11.46694374  129.31900024    0.70999998    2.39000010
   11.47111034  118.89099884    0.70999998    2.39000010
   11.47444439  117.84700012    0.70999998    2.39000010
   11.47749996  118.56300354    0.70999998    2.39000010
   11.48083305  118.66400146    0.73000002    2.39000010
   11.48416710  123.03900146    0.70999998    2.39000010
   11.48722267  115.67400360    0.70999998    2.39000010
   11.49055576  116.87200165    0.70999998    2.39000010
   11.49388885  124.02300262    0.70999998    2.39000010
   11.49694443  126.41500092    0.70999998    2.39000010
   11.49888897  124.76100159    0.70999998    2.39000010
   11.50055599  124.30899811    0.70999998    2.39000010
   11.50388908  120.41100311    0.70999998    2.39000010
   11.50972176  120.41100311    0.73000002    2.39000010
   11.51388931  124.84300232    0.73000002    2.39000010
   11.51694393  124.92800140    0.73000002    2.39000010
   11.52027798  121.33499908    0.73000002    2.39000010
   11.52333355  126.01399994    0.73000002    2.39000010
   11.52666664  121.75900269    0.73000002    2.39000010
   11.52999973  125.16899872    0.70999998    2.40000010
   11.53222179  124.16899872    0.70999998    2.40000010
   11.53333378  129.96099854    0.70999998    2.39000010
   11.53666687  121.33300018    0.70999998    2.39000010
   11.54000092  121.54699707    0.69000000    2.40000010
   11.54305553  123.40299988    0.69000000    2.39000010
   11.54638958  116.87400055    0.69000000    2.40000010
   11.55249977  116.87400055    0.69000000    2.40000010
   11.55666733  115.30200195    0.69000000    2.40000010
   11.56000042  116.88200378    0.67000002    2.40000010
   11.56305599  116.47399902    0.67000002    2.40000010
   11.56555557  114.55999756    0.67000002    2.40000010
   11.56666660  114.57299805    0.67000002    2.40000010
   11.56999969  116.13800049    0.67000002    2.40000010
   11.57333374  119.18800354    0.67000002    2.40000010
   11.57638836  119.72499847    0.67000002    2.40000010
   11.57972240  118.43900299    0.67000002    2.40000010
   11.58305550  117.25700378    0.67000002    2.40000010
   11.58611107  114.31199646    0.64999998    2.40000010
   11.58944416  120.27999878    0.64999998    2.40000010
   11.59638882  120.27999878    0.67000002    2.40000010
   11.60055637  124.78900146    0.67000002    2.40000010
   11.60388947  123.12500000    0.64999998    2.40000010
   11.60694504  117.54799652    0.64999998    2.40000010
   11.61027813  119.75199890    0.64999998    2.40000010
   11.61361122  120.57399750    0.67000002    2.40000010
   11.61666679  119.03900146    0.67000002    2.40000010
   11.61999989  117.68399811    0.64999998    2.42000008
   11.62305546  117.16200256    0.64999998    2.42000008
   11.62638855  126.56800079    0.64999998    2.42000008
   11.62972260  129.22500610    0.64999998    2.42000008
   11.63222218  123.00499725    0.64999998    2.42000008
   11.63305569  126.20400238    0.64999998    2.42000008
   11.63944435  126.20400238    0.64999998    2.42000008
   11.64361095  113.75700378    0.64999998    2.42000008
   11.64666653  116.96399689    0.64999998    2.42000008
   11.64999962  113.56199646    0.64999998    2.42000008
   11.65305519  114.18900299    0.64999998    2.44000006
   11.65638828  111.50800323    0.64999998    2.42000008
   11.65972137  109.57199860    0.64999998    2.42000008
   11.66277695  112.27200317    0.64999998    2.42000008
   11.66555500  117.97100067    0.63000000    2.42000008
   11.66638851  118.80899811    0.63000000    2.42000008
   11.66972256  112.81900024    0.63000000    2.42000008
   11.67305565  116.55400085    0.63000000    2.42000008
   11.67638874  121.19999695    0.63000000    2.44000006
   11.68222237  121.19999695    0.64999998    2.42000008
   11.68611145  117.29299927    0.64999998    2.44000006
   11.68944454  118.58399963    0.64999998    2.44000006
   11.69277763  122.10900116    0.64999998    2.44000006
   11.69583321  121.88500214    0.64999998    2.44000006
   11.69888878  120.36900330    0.63000000    2.44000006
   11.69972229  120.15200043    0.63000000    2.44000006
   11.70277786  120.13500214    0.63000000    2.44000006
   11.70611095  126.44300079    0.63000000    2.44000006
   11.70944405  126.33899689    0.63000000    2.44000006
   11.71249962  113.74400330    0.63000000    2.46000004
   11.71583271  115.42600250    0.63000000    2.44000006
   11.71888828  115.97599792    0.63000000    2.44000006
   11.72499943  115.97599792    0.63000000    2.44000006
   11.72916603  114.07399750    0.64999998    2.44000006
   11.73222160  110.54900360    0.64999998    2.46000004
   11.73277760  115.40499878    0.64999998    2.46000004
   11.73611164  115.91799927    0.64999998    2.46000004
   11.73916721  111.62899780    0.64999998    2.46000004
   11.74250031  119.24800110    0.64999998    2.46000004
   11.74555588  117.83599854    0.64999998    2.46000004
   11.74888897  114.56400299    0.63000000    2.46000004
   11.75222206  116.48600006    0.63000000    2.46000004
   11.75527763  114.62000275    0.63000000    2.46000004
   11.75861073  116.80999756    0.63000000    2.46000004
   11.76166630  114.60800171    0.63000000    2.46000004
   11.76777744  114.60800171    0.64999998    2.46000004
   11.77194405  115.06800079    0.63000000    2.46000004
   11.77527714  117.25099945    0.63000000    2.46000004
   11.77833271  114.54900360    0.63000000    2.46000004
   11.78166676  117.08499908    0.63000000    2.46000004
   11.78500080  118.46700287    0.63000000    2.46000004
   11.78805637  118.95400238    0.63000000    2.46000004
   11.79138947  118.55300140    0.63000000    2.46000004
   11.79472256  106.95899963    0.63000000    2.46000004
   11.79777813  111.29699707    0.63000000    2.46000004
   11.79888916  110.19200134    0.63000000    2.46000004
   11.80138874  110.79900360    0.63000000    2.46000004
   11.80472279  108.80699921    0.63000000    2.46000004
   11.81055546  108.80699921    0.63000000    2.46000004
   11.81472206  111.87999725    0.64999998    2.46000004
   11.81805515  114.58899689    0.64999998    2.46000004
   11.82138920  115.82599640    0.64999998    2.46000004
   11.82444477  115.99199677    0.64999998    2.46000004
   11.82777786  115.21399689    0.63000000    2.46000004
   11.83111095  116.54499817    0.63000000    2.48000002
   11.83222198  121.22799683    0.63000000    2.48000002
   11.83472157  120.30300140    0.63000000    2.48000002
   11.83805561  115.05599976    0.63000000    2.48000002
   11.84111118  115.05400085    0.64999998    2.48000002
   11.84444427  118.26599884    0.64999998    2.48000002
   11.84777737  118.02400208    0.64999998    2.48000002
   11.85361195  118.02400208    0.64999998    2.48000002
   11.85777855  114.21299744    0.63000000    2.48000002
   11.86083412  120.06900024    0.63000000    2.48000002
   11.86416721  114.74700165    0.63000000    2.48000002
   11.86555576  108.07900238    0.63000000    2.48000002
   11.86777782  110.19799805    0.63000000    2.48000002
   11.87111092  107.05200195    0.61000001    2.48000002
   11.87416649  109.25099945    0.63000000    2.48000002
   11.87750053  113.14700317    0.61000001    2.48000002
   11.88083363  112.69000244    0.63000000    2.48000002
   11.88416672  111.86699677    0.63000000    2.48000002
   11.88722229  113.54199982    0.63000000    2.48000002
   11.89055538  117.01999664    0.63000000    2.48000002
   11.89638901  117.01999664    0.63000000    2.48000002
   11.90055561  118.40899658    0.63000000    2.48000002
   11.90361118  116.95800018    0.63000000    2.48000002
   11.90694427  121.85700226    0.61000001    2.48000002
   11.91027737  120.94799805    0.63000000    2.48000002
   11.91361046  124.07399750    0.61000001    2.48000002
   11.91666698  118.11399841    0.61000001    2.48000002
   11.92000008  121.28099823    0.61000001    2.48000002
   11.92333412  118.95700073    0.61000001    2.48000002
   11.92638874  120.48400116    0.63000000    2.48000002
   11.92972279  123.62300110    0.63000000    2.48000002
   11.93249989  122.89600372    0.61000001    2.48000002
   11.93333340  122.87799835    0.61000001    2.48000002
   11.93916702  122.87799835    0.63000000    2.48000002
   11.94333363  112.17500305    0.61000001    2.50000000
   11.94666672  111.26300049    0.58999997    2.48000002
   11.94972229  111.88600159    0.61000001    2.50000000
   11.95305538  111.79799652    0.58999997    2.48000002
   11.95638847  112.04900360    0.58999997    2.48000002
   11.95944405  117.14499664    0.61000001    2.50000000
   11.96277714  113.41699982    0.58999997    2.50000000
   11.96583271  114.81800079    0.61000001    2.50000000
   11.96638870  117.67500305    0.61000001    2.50000000
   11.96972179  111.20300293    0.58999997    2.50000000
   11.97277737  116.09600067    0.61000001    2.50000000
   11.97611046  116.03600311    0.61000001    2.50000000
   11.98194408  116.03600311    0.61000001    2.50000000
   11.98611164  117.16100311    0.61000001    2.50000000
   11.98944473  124.50900269    0.61000001    2.50000000
   11.99250031  121.62100220    0.61000001    2.50000000
   11.99583340  116.50800323    0.61000001    2.50000000
   11.99916649  117.64399719    0.61000001    2.50000000
   11.99972248  116.33399963    0.61000001    2.50000000
   12.00277805  119.50299835    0.63000000    2.50000000
   12.00611115  109.86499786    0.63000000    2.50000000
   12.00944424  105.95300293    0.63000000    2.50000000
   12.01249981  110.62500000    0.63000000    2.51999998
   12.01583290  115.92500305    0.63000000    2.48000002
   12.01888847  112.08100128    0.63000000    2.50000000
   12.02499962  112.08100128    0.61000001    2.50000000
   12.02916622  110.18900299    0.58999997    2.51999998
   12.03222179  109.78399658    0.61000001    2.50000000
   12.03277779  108.76300049    0.61000001    2.50000000
   12.03611183  109.98999786    0.58999997    2.50000000
   12.03916740  107.25399780    0.58999997    2.50000000
   12.04250050  108.52899933    0.61000001    2.50000000
   12.04583359  111.98699951    0.61000001    2.50000000
   12.04888916  112.29799652    0.61000001    2.51999998
   12.05222225  117.85500336    0.61000001    2.50000000
   12.05527782  112.21299744    0.61000001    2.50000000
   12.05861092  113.22299957    0.58999997    2.51999998
   12.06194496  114.23400116    0.58999997    2.51999998
   12.06777763  114.23400116    0.61000001    2.50000000
   12.07194424  114.81800079    0.61000001    2.51999998
   12.07527733  119.98300171    0.61000001    2.51999998
   12.07861137  118.69200134    0.61000001    2.51999998
   12.08194447  121.44200134    0.63000000    2.51999998
   12.08500004  108.37999725    0.63000000    2.50000000
   12.08833313  112.77300262    0.63000000    2.50000000
   12.09138870  108.36000061    0.63000000    2.51999998
   12.09472179  112.91100311    0.61000001    2.51999998
   12.09805489  109.86100006    0.61000001    2.51999998
   12.09944439  111.66799927    0.61000001    2.51999998
   12.10166740  106.94999695    0.58999997    2.51999998
   12.10472298  103.40799713    0.61000001    2.51999998
   12.11055565  103.40799713    0.61000001    2.50000000
   12.11472225  112.07800293    0.58999997    2.51999998
   12.11805534  105.73999786    0.61000001    2.51999998
   12.12111092  107.72200012    0.61000001    2.51999998
   12.12444496  112.70700073    0.61000001    2.51999998
   12.12750053  111.74199677    0.61000001    2.51999998
   12.13083363  111.50000000    0.61000001    2.51999998
   12.13277817  114.01000214    0.61000001    2.51999998
   12.13444424  110.65799713    0.58999997    2.51999998
   12.13749981  113.43000031    0.58999997    2.51999998
   12.14083290  116.74700165    0.58999997    2.51999998
   12.14416695  116.69999695    0.61000001    2.51999998
   12.14722252  118.04199982    0.63000000    2.53999996
   12.15333271  118.04199982    0.58999997    2.51999998
   12.15749931  117.47599792    0.58999997    2.51999998
   12.16083336  105.14399719    0.58999997    2.53999996
   12.16388893  106.84300232    0.58999997    2.53999996
   12.16611099  107.84799957    0.58999997    2.53999996
   12.16777802  107.08300018    0.58999997    2.53999996
   12.17111111  111.22799683    0.58999997    2.53999996
   12.17416668  107.58899689    0.58999997    2.53999996
   12.17750072  114.03199768    0.58999997    2.53999996
   12.18055630  109.77600098    0.58999997    2.53999996
   12.18388939  110.24700165    0.61000001    2.53999996
   12.18722248  110.48300171    0.58999997    2.53999996
   12.19027805  109.81900024    0.56999999    2.53999996
   12.19638920  109.81900024    0.58999997    2.53999996
   12.20055580  115.61100006    0.56999999    2.53999996
   12.20361137  119.08699799    0.56999999    2.53999996
   12.20694447  114.77899933    0.56999999    2.53999996
   12.21000004  112.61900330    0.58999997    2.53999996
   12.21333313  115.05799866    0.58999997    2.53999996
   12.21666622  121.36599731    0.58999997    2.53999996
   12.21999931  112.41799927    0.58999997    2.53999996
   12.22333336  113.81700134    0.58999997    2.53999996
   12.22666645  114.55699921    0.61000001    2.53999996
   12.22999954  101.33100128    0.61000001    2.53999996
   12.25333309  109.40200043    0.58999997    2.53999996
   12.25777817  109.40200043    0.58999997    2.53999996
   12.26194477  110.47599792    0.58999997    2.53999996
   12.26500034  107.89399719    0.58999997    2.53999996
   12.26833344  110.69499969    0.58999997    2.53999996
   12.27138901  111.69100189    0.58999997    2.55999994
   12.27472210  113.74800110    0.58999997    2.53999996
   12.27805519  114.25099945    0.58999997    2.55999994
   12.28111076  115.76200104    0.61000001    2.55999994
   12.28444481  114.40100098    0.58999997    2.55999994
   12.28611183  113.97499847    0.58999997    2.55999994
   12.28805637  114.61599731    0.58999997    2.53999996
   12.29138947  114.55899811    0.58999997    2.53999996
   12.29472256  116.58799744    0.61000001    2.53999996
   12.30055618  116.58799744    0.61000001    2.55999994
   12.30472279  111.31999969    0.58999997    2.55999994
   12.30805588  109.12500000    0.58999997    2.55999994
   12.31111145  106.91300201    0.58999997    2.55999994
   12.31444454  108.86100006    0.58999997    2.53999996
   12.31777763  110.28299713    0.61000001    2.55999994
   12.31944466  110.86499786    0.61000001    2.55999994
   12.32111073  111.34100342    0.61000001    2.55999994
   12.32444477  108.14199829    0.61000001    2.55999994
   12.32777786  111.44499969    0.61000001    2.55999994
   12.33083344  117.94499969    0.61000001    2.55999994
   12.33416653  110.08899689    0.63000000    2.55999994
   12.33749962  116.61499786    0.61000001    2.55999994
   12.34333324  116.61499786    0.63000000    2.55999994
   12.34749985  116.02400208    0.64999998    2.55999994
   12.35083389  119.50399780    0.64999998    2.55999994
   12.35277843  117.92199707    0.61000001    2.55999994
   12.35416698  114.18900299    0.61000001    2.55999994
   12.35750008  124.81999969    0.58999997    2.55999994
   12.36083412  124.67400360    0.61000001    2.55999994
   12.36388969  119.48500061    0.63000000    2.55999994
   12.36750031  111.15299988    0.56999999    2.55999994
   12.37055588  109.01999664    0.61000001    2.55999994
   12.37388897  110.74400330    0.61000001    2.55999994
   12.37694454  110.86199951    0.61000001    2.55999994
   12.38027763  112.21199799    0.63000000    2.55999994
   12.38611126  112.21199799    0.64999998    2.55999994
   12.39027786  113.31099701    0.64999998    2.55999994
   12.39361095  114.49900055    0.64999998    2.55999994
   12.39694405  121.36100006    0.61000001    2.55999994
   12.39999962  115.94999695    0.58999997    2.55999994
   12.40333271  117.86100006    0.58999997    2.55999994
   12.40638828  123.18900299    0.61000001    2.57999992
   12.40972137  116.47000122    0.61000001    2.57999992
   12.41305542  115.56999969    0.61000001    2.57999992
   12.41611099  120.42299652    0.58999997    2.55999994
   12.41944504  119.97000122    0.56999999    2.55999994
   12.41972256  118.98000336    0.56999999    2.55999994
   12.42305565  120.60500336    0.56999999    2.57999992
   12.42916679  120.60500336    0.56999999    2.55999994
   12.43333340  109.44100189    0.58999997    2.57999992
   12.43666649  104.73999786    0.56999999    2.57999992
   12.43972206  111.11799622    0.55000001    2.57999992
   12.44305515  106.87000275    0.56999999    2.59999990
   12.44638920  111.86599731    0.56999999    2.57999992
   12.44944477  107.79199982    0.56999999    2.57999992
   12.45277786  115.03299713    0.56999999    2.57999992
   12.45305538  110.34200287    0.56999999    2.57999992
   12.45666695  114.78199768    0.56999999    2.59999990
   12.45972157  113.68199921    0.56999999    2.59999990
   12.46305561  117.46199799    0.56999999    2.57999992
   12.46611118  116.64900208    0.58999997    2.57999992
   12.47194386  116.64900208    0.58999997    2.57999992
   12.47611046  118.46700287    0.58999997    2.57999992
   12.47916603  117.49299622    0.58999997    2.57999992
   12.48249912  124.20099640    0.58999997    2.57999992
   12.48583317  105.04000092    0.58999997    2.57999992
   12.48638916  104.56600189    0.56999999    2.59999990
   12.48944473  106.98899841    0.56999999    2.59999990
   12.49277782  103.97599792    0.55000001    2.57999992
   12.49583340  106.60399628    0.55000001    2.57999992
   12.49916649  105.94100189    0.55000001    2.59999990
   12.50249958  104.34700012    0.55000001    2.59999990
   12.50555515  107.82900238    0.55000001    2.59999990
   12.50888920  106.72599792    0.55000001    2.57999992
   12.51500034  106.72599792    0.55000001    2.59999990
   12.51916599  108.04599762    0.55000001    2.59999990
   12.51972198  103.90000153    0.55000001    2.59999990
   12.52250004  108.77400208    0.55000001    2.57999992
   12.52583313  110.04199982    0.56999999    2.59999990
   12.52916622  110.22599792    0.56999999    2.59999990
   12.53222179  111.55500031    0.55000001    2.59999990
   12.53555584  112.43499756    0.55000001    2.59999990
   12.53861141  111.44200134    0.56999999    2.59999990
   12.54194450  114.08799744    0.55000001    2.59999990
   12.54527855  114.72100067    0.56999999    2.57999992
   12.54833412  117.28199768    0.56999999    2.59999990
   12.55166721  116.05999756    0.56999999    2.59999990
   12.55277824  113.66600037    0.56999999    2.59999990
   12.55749989  113.66600037    0.56999999    2.59999990
   12.56166649  107.22200012    0.56999999    2.59999990
   12.56500053  102.55699921    0.56999999    2.59999990
   12.56833363  113.59100342    0.55000001    2.59999990
   12.57138920  108.28800201    0.55000001    2.59999990
   12.57472229  106.45999908    0.56999999    2.59999990
   12.57777786  109.42700195    0.56999999    2.59999990
   12.58111095  107.20800018    0.56999999    2.59999990
   12.58444405  106.76100159    0.56999999    2.59999990
   12.58638859  103.88300323    0.56999999    2.59999990
   12.58777714  106.68599701    0.56999999    2.59999990
   12.59111118  110.23699951    0.56999999    2.59999990
   12.59444427  112.24400330    0.55000001    2.59999990
   12.60055637  112.24400330    0.55000001    2.59999990
   12.60472298  111.05100250    0.56999999    2.59999990
   12.60777855  113.43699646    0.56999999    2.59999990
   12.61111164  115.32199860    0.56999999    2.59999990
   12.61444473  114.85199738    0.56999999    2.59999990
   12.61750031  117.34200287    0.56999999    2.59999990
   12.61972237  111.17400360    0.55000001    2.61999989
   12.62111092  111.62500000    0.55000001    2.61999989
   12.62444496  109.27899933    0.55000001    2.59999990
   12.62777805  114.69499969    0.55000001    2.61999989
   12.63083363  109.80100250    0.55000001    2.61999989
   12.63416672  105.09500122    0.56999999    2.61999989
   12.63722229  109.30799866    0.56999999    2.61999989
   12.64333344  109.30799866    0.56999999    2.61999989
   12.64750004  108.54599762    0.56999999    2.59999990
   12.65055561  103.80400085    0.56999999    2.61999989
   12.65305519  108.18499756    0.56999999    2.59999990
   12.65416622  108.27899933    0.56999999    2.59999990
   12.65749931  105.24600220    0.56999999    2.59999990
   12.66083336  159.77999878    0.56999999    2.59999990
   12.66388893  109.89800262    0.56999999    2.61999989
   12.66722298  110.53700256    0.56999999    2.61999989
   12.67055607  111.09400177    0.56999999    2.61999989
   12.67361164  111.22299957    0.56999999    2.61999989
   12.67694473  111.03399658    0.58999997    2.59999990
   12.68027782  112.77200317    0.56999999    2.61999989
   12.68611145  112.77200317    0.56999999    2.61999989
   12.69027805  103.76699829    0.55000001    2.64000010
   12.69361115  110.97200012    0.56999999    2.61999989
   12.69666672  102.90699768    0.56999999    2.61999989
   12.69999981  104.37400055    0.56999999    2.61999989
   12.70333290  106.65899658    1.46000004    2.61999989
   12.70638847  108.75800323    0.52999997    2.64000010
   12.70972157  105.47000122    0.55000001    2.61999989
   12.71305561  106.39499664    0.55000001    2.61999989
   12.71638870  107.96700287    0.52999997    2.61999989
   12.71944427  108.96099854    0.52999997    2.61999989
   12.72111034  108.35299683    0.52999997    2.61999989
   12.72305489  110.34799957    0.52999997    2.61999989
   12.72888851  110.34799957    0.55000001    2.61999989
   12.73305511  106.99700165    0.55000001    2.64000010
   12.73638916  111.30200195    0.55000001    2.64000010
   12.73944473  113.50700378    0.56999999    2.61999989
   12.74305534  118.19899750    0.56999999    2.61999989
   12.74611092  120.49099731    0.56999999    2.61999989
   12.74944496  116.54599762    0.56999999    2.61999989
   12.75249958  106.17900085    0.55000001    2.64000010
   12.75444412  106.28199768    0.55000001    2.64000010
   12.75638866  108.39399719    0.55000001    2.64000010
   12.75972176  105.91799927    0.55000001    2.64000010
   12.76277733  106.13999939    0.52999997    2.64000010
   12.76611137  106.58899689    0.55000001    2.64000010
   12.77194405  106.58899689    0.55000001    2.64000010
   12.77583313  108.01300049    0.55000001    2.64000010
   12.77916622  121.52100372    0.55000001    2.61999989
   12.78249931  124.04799652    0.56999999    2.64000010
   12.78555584  111.13400269    0.55000001    2.64000010
   12.78805637  118.15599823    0.55000001    2.64000010
   12.78916740  116.07599640    0.55000001    2.64000010
   12.79250050  111.12400055    0.56999999    2.64000010
   12.79583359  129.94700623    0.55000001    2.64000010
   12.79888916  123.11900330    0.55000001    2.64000010
   12.80222225  134.58200073    0.55000001    2.64000010
   12.80555534  120.61199951    0.55000001    2.64000010
   12.80861092  135.72399902    0.55000001    2.64000010
   12.81472206  135.72399902    0.55000001    2.64000010
   12.81888866  127.13200378    0.52999997    2.64000010
   12.82138920  123.58100128    0.52999997    2.64000010
   12.82250023  108.25599670    0.55000001    2.64000010
   12.82555580  116.95099640    0.51999998    2.64000010
   12.82888889  115.26699829    0.51999998    2.64000010
   12.83194447  110.11900330    0.52999997    2.64000010
   12.83527756  111.77400208    0.55000001    2.64000010
   12.83861065  105.80999756    0.55000001    2.64000010
   12.84166622  110.11199951    0.55000001    2.64000010
   12.84499931  110.87000275    0.55000001    2.64000010
   12.84805489  104.20400238    0.55000001    2.64000010
   12.85138893  108.97200012    0.55000001    2.66000009
   12.85750008  108.97200012    0.55000001    2.66000009
   12.86166668  106.39900208    0.55000001    2.64000010
   12.86500072  115.06900024    0.56999999    2.66000009
   12.86805534  111.16000366    0.56999999    2.64000010
   12.87138939  114.64900208    0.56999999    2.64000010
   12.87444496  114.98300171    0.56999999    2.64000010
   12.87777805  108.01799774    0.55000001    2.66000009
   12.88111115  106.81400299    0.55000001    2.66000009
   12.88416672  103.68399811    0.55000001    2.66000009
   12.88749981  102.80500031    0.55000001    2.66000009
   12.88833332  107.80799866    0.55000001    2.66000009
   12.89111137  103.51399994    0.55000001    2.66000009
   12.89444447  109.79900360    0.56999999    2.66000009
   12.90027714  109.79900360    0.55000001    2.66000009
   12.90444374  111.55000305    0.55000001    2.66000009
   12.90777779  108.80500031    0.55000001    2.66000009
   12.91111088  107.36199951    0.55000001    2.66000009
   12.91416645  110.81199646    0.55000001    2.66000009
   12.91750050  111.06099701    0.56999999    2.66000009
   12.92055607  112.82900238    0.56999999    2.66000009
   12.92194462  110.70099640    0.56999999    2.66000009
   12.92444515  115.47100067    0.56999999    2.66000009
   12.92750072  115.34300232    0.56999999    2.66000009
   12.93083382  118.37300110    0.55000001    2.66000009
   12.93416691  120.06900024    0.56999999    2.66000009
   12.93722248  119.50099945    0.56999999    2.66000009
   12.94333363  119.50099945    0.56999999    2.67000008
   12.94722271  104.98200226    0.56999999    2.66000009
   12.95055580  109.11000061    0.55000001    2.66000009
   12.95388889  104.65399933    0.52999997    2.66000009
   12.95527744  101.41400146    0.52999997    2.66000009
   12.95749950  107.00900269    0.52999997    2.66000009
   12.96055508  105.76599884    0.52999997    2.66000009
   12.96388912  102.83899689    0.52999997    2.66000009
   12.96722221  106.23500061    0.52999997    2.66000009
   12.97027779  106.80899811    0.52999997    2.66000009
   12.97361088  106.17500305    0.56999999    2.67000008
   12.97666645  109.77500153    0.58999997    2.66000009
   12.97999954  110.56400299    0.56999999    2.66000009
   12.98611164  110.56400299    0.55000001    2.66000009
   12.99027824  111.50000000    0.55000001    2.66000009
   12.99333382  113.37799835    0.55000001    2.66000009
   12.99666691  110.46600342    0.55000001    2.66000009
   13.00000000  114.10800171    0.56999999    2.66000009
   13.00305557  117.47399902    0.56999999    2.66000009
   13.00638866  108.10399628    0.56999999    2.66000009
   13.00944424  105.76999664    0.56999999    2.67000008
   13.01277733  106.26799774    0.56999999    2.67000008
   13.01611137  114.91100311    0.56999999    2.66000009
   13.01916599  107.23000336    0.56999999    2.67000008
   13.02194405  108.33000183    0.56999999    2.66000009
   13.02305508  108.76599884    0.56999999    2.66000009
   13.02888870  108.76599884    0.56999999    2.66000009
   13.03305531  105.85800171    0.56999999    2.67000008
   13.03638935  110.19499969    0.56999999    2.67000008
   13.03944492  110.22299957    0.56999999    2.67000008
   13.04277802  108.72200012    0.56999999    2.67000008
   13.04583359  108.04900360    0.56999999    2.67000008
   13.04916668  107.16500092    0.55000001    2.67000008
   13.05249977  111.71700287    0.56999999    2.67000008
   13.05527782  112.55699921    0.56999999    2.67000008
   13.05611134  115.30100250    0.55000001    2.66000009
   13.05916691  114.46399689    0.55000001    2.66000009
   13.06250000  113.12200165    0.55000001    2.67000008
   13.06555557  110.28399658    0.55000001    2.66000009
   13.07166672  110.28399658    0.55000001    2.67000008
   13.07583332  109.90899658    0.55000001    2.67000008
   13.07916641  107.47599792    0.55000001    2.67000008
   13.08249950  105.52400208    0.56999999    2.67000008
   13.08555508  107.94100189    0.55000001    2.67000008
   13.08861065  109.00800323    0.55000001    2.67000008
   13.08916664  105.92400360    0.55000001    2.67000008
   13.09222221  105.51699829    0.55000001    2.67000008
   13.09555531  108.07099915    0.55000001    2.67000008
   13.09888840  104.32299805    0.55000001    2.67000008
   13.10194492  108.49700165    0.52999997    2.67000008
   13.10527802  106.29599762    0.55000001    2.66000009
   13.10861111  115.18900299    0.55000001    2.66000009
   13.11472225  115.18900299    0.55000001    2.67000008
   13.11861134  115.10700226    0.56999999    2.67000008
   13.12194443  114.47899628    0.58999997    2.67000008
   13.12250042  110.83300018    0.58999997    2.67000008
   13.12555599  111.28600311    0.58999997    2.67000008
   13.12888908  114.09200287    0.58999997    2.67000008
   13.13194466  115.31900024    0.56999999    2.67000008
   13.13527775  114.83799744    0.56999999    2.67000008
   13.13861084  105.09999847    0.55000001    2.67000008
   13.14166641  111.68099976    0.55000001    2.67000008
   13.14499950  109.57399750    0.55000001    2.67000008
   13.14805508  109.05899811    0.55000001    2.67000008
   13.15138817  110.47499847    0.56999999    2.67000008
   13.15749931  110.47499847    0.56999999    2.67000008
   13.16166592  111.56900024    0.56999999    2.67000008
   13.16499996  109.54599762    0.56999999    2.67000008
   13.16805553  105.61000061    0.56999999    2.67000008
   13.17138958  113.06800079    0.56999999    2.67000008
   13.17444515  111.77799988    0.56999999    2.67000008
   13.17777824  111.70899963    0.56999999    2.67000008
   13.18111134  115.62300110    0.56999999    2.67000008
   13.18416691  117.01599884    0.56999999    2.67000008
   13.18750000  118.34200287    0.58999997    2.67000008
   13.18861103  115.91500092    0.58999997    2.67000008
   13.19111156  122.10199738    0.58999997    2.67000008
   13.19416714  119.19799805    0.58999997    2.67000008
   13.20027733  119.19799805    0.56999999    2.67000008
   13.20444393  107.80000305    0.56999999    2.67000008
   13.20777798  109.74700165    0.56999999    2.67000008
   13.21083355  105.91699982    0.56999999    2.67000008
   13.21416664  108.71099854    0.56999999    2.67000008
   13.21722221  106.86499786    0.56999999    2.69000006
   13.22055531  113.54499817    0.56999999    2.69000006
   13.22194386  104.51699829    0.56999999    2.69000006
   13.22444439  109.24099731    0.56999999    2.69000006
   13.22749996  111.04100037    0.55000001    2.69000006
   13.23083305  104.86599731    0.55000001    2.69000006
   13.23416710  109.44699860    0.55000001    2.69000006
   13.23722267  109.94699860    0.55000001    2.69000006
   13.24305534  109.94699860    0.55000001    2.69000006
   13.24722290  113.68000031    0.56999999    2.67000008
   13.26638889  111.88200378    0.58999997    2.69000006
   13.26722240  105.76899719    0.58999997    2.69000006
   13.27055550  112.27999878    0.58999997    2.69000006
   13.27361107  115.92700195    0.58999997    2.69000006
   13.27722168  106.45500183    0.58999997    2.69000006
   13.28027725  106.39900208    0.56999999    2.69000006
   13.28638935  106.39900208    0.55000001    2.69000006
   13.29027843  107.07399750    0.55000001    2.69000006
   13.29361153  106.63700104    0.55000001    2.69000006
   13.29694462  111.16999817    0.55000001    2.69000006
   13.29972267  109.46900177    0.55000001    2.69000006
   13.30055618  109.66200256    0.55000001    2.69000006
   13.30361176  110.12000275    0.55000001    2.69000006
   13.30694485  110.39900208    0.55000001    2.69000006
   13.31000042  109.75099945    0.55000001    2.69000006
   13.31333351  108.49400330    0.55000001    2.69000006
   13.31638908  115.39099884    0.55000001    2.69000006
   13.31972218  110.67900085    0.55000001    2.69000006
   13.32305527  115.88899994    0.55000001    2.69000006
   13.32916641  115.88899994    0.55000001    2.69000006
   13.33333302  108.92199707    0.55000001    2.69000006
   13.33638859  110.82800293    0.56999999    2.71000004
   13.33972168  108.75000000    0.55000001    2.69000006
   13.34305477  106.47100067    0.55000001    2.69000006
   13.34611034  104.22799683    0.55000001    2.69000006
   13.34944439  106.62599945    0.56999999    2.69000006
   13.35249996  104.58000183    0.56999999    2.71000004
   13.35583401  105.72000122    0.56999999    2.69000006
   13.35916710  103.98200226    0.55000001    2.71000004
   13.36222267  113.03900146    0.55000001    2.71000004
   13.36555576  109.81700134    0.55000001    2.71000004
   13.36638927  109.67199707    0.55000001    2.71000004
   13.37194443  109.67199707    0.55000001    2.69000006
   13.37611103  108.75800323    0.55000001    2.71000004
   13.37944412  105.88600159    0.55000001    2.69000006
   13.38249969  107.63300323    0.55000001    2.69000006
   13.38583279  110.77700043    0.55000001    2.69000006
   13.38888836  113.97299957    0.55000001    2.69000006
   13.39222240  114.24700165    0.55000001    2.71000004
   13.39527798  113.88600159    0.52999997    2.71000004
   13.39861107  115.45899963    0.52999997    2.69000006
   13.39972210  112.33699799    0.52999997    2.69000006
   13.40222168  109.65799713    0.52999997    2.71000004
   13.40527725  106.53199768    0.55000001    2.71000004
   13.40861034  111.30799866    0.55000001    2.69000006
   13.41472149  111.30799866    0.55000001    2.71000004
   13.41888905  110.11399841    0.55000001    2.71000004
   13.42222214  102.80500031    0.56999999    2.71000004
   13.42527771  101.77100372    0.56999999    2.71000004
   13.42861176  105.04599762    0.56999999    2.71000004
   13.43166733  104.89800262    0.56999999    2.71000004
   13.43305588  105.56700134    0.56999999    2.71000004
   13.43555546  106.58899689    0.56999999    2.71000004
   13.43861103  108.73200226    0.58999997    2.69000006
   13.44194412  106.61000061    0.58999997    2.69000006
   13.44499969  108.87500000    0.58999997    2.71000004
   13.44833374  108.23000336    0.58999997    2.71000004
   13.45166683  105.03299713    0.58999997    2.71000004
   13.45777798  105.03299713    0.56999999    2.71000004
   13.46194458  109.54699707    0.56999999    2.71000004
   13.46500015  111.76899719    0.56999999    2.71000004
   13.46666622  113.03399658    0.55000001    2.71000004
   13.46861076  109.76100159    0.55000001    2.71000004
   13.47194386  101.66500092    0.56999999    2.71000004
   13.47499943  103.18499756    0.58999997    2.71000004
   13.47833252  104.98699951    0.56999999    2.71000004
   13.48166656  102.77799988    0.58999997    2.71000004
   13.48472214  105.19300079    0.63000000    2.71000004
   13.48805618  104.96399689    0.63000000    2.71000004
   13.49111176  103.78199768    0.63000000    2.71000004
   13.49444485  104.69300079    0.63000000    2.71000004
   13.50055599  104.69300079    0.63000000    2.71000004
   13.50472260  110.27400208    0.63000000    2.71000004
   13.50833321  104.29199982    0.64999998    2.71000004
   13.51138878  101.79499817    0.64999998    2.71000004
   13.51472187  108.58499908    0.64999998    2.71000004
   13.51805496  107.78600311    0.64999998    2.71000004
   13.52111053  109.98699951    0.63000000    2.71000004
   13.52444458  106.26899719    0.64999998    2.71000004
   13.52750015  110.83899689    0.64999998    2.71000004
   13.53083324  112.78500366    0.64999998    2.71000004
   13.53305531  108.60800171    0.67000002    2.71000004
   13.53444481  110.12999725    0.67000002    2.71000004
   13.53750038  114.68399811    0.64999998    2.71000004
   13.54333401  114.68399811    0.63000000    2.71000004
   13.54750061  106.71600342    0.63000000    2.73000002
   13.55083370  108.93000031    0.64999998    2.73000002
   13.55388927  107.19999695    0.64999998    2.73000002
   13.55722237  111.39499664    0.64999998    2.71000004
   13.56055546  107.20400238    0.64999998    2.71000004
   13.56361103  105.58200073    0.64999998    2.71000004
   13.56638908  103.42700195    0.67000002    2.73000002
   13.56722260  108.01499939    0.67000002    2.73000002
   13.57055569  106.86599731    0.67000002    2.71000004
   13.57388878  114.05000305    0.64999998    2.73000002
   13.57694435  104.53800201    0.64999998    2.73000002
   13.58027744  108.87400055    0.64999998    2.71000004
   13.58611107  108.87400055    0.63000000    2.71000004
   13.59027767  105.84600067    0.58999997    2.73000002
   13.59361076  105.06800079    0.58999997    2.71000004
   13.59694386  107.15699768    0.56999999    2.73000002
   13.59972191  107.86799622    0.56999999    2.73000002
   13.60055637  109.62500000    0.56999999    2.73000002
   13.60388947  109.27999878    0.56999999    2.73000002
   13.60694504  110.62899780    0.58999997    2.73000002
   13.61027813  105.53099823    0.58999997    2.73000002
   13.61333370  104.44999695    0.61000001    2.73000002
   13.61666679  110.35900116    0.58999997    2.75000000
   13.61999989  107.59600067    0.58999997    2.73000002
   13.62305546  103.16100311    0.58999997    2.73000002
   13.62916660  103.16100311    0.61000001    2.73000002
   13.63333321  108.39199829    0.61000001    2.73000002
   13.63638878  109.38999939    0.61000001    2.73000002
   13.63972187  109.05400085    0.63000000    2.73000002
   13.64277744   99.39990234    0.64999998    2.73000002
   13.64611053  109.10299683    0.64999998    2.73000002
   13.64944458  103.19400024    0.64999998    2.73000002
   13.65249920  103.99700165    0.63000000    2.73000002
   13.65583324  102.92600250    0.64999998    2.73000002
   13.65916634  103.60199738    0.64999998    2.73000002
   13.66249943  105.32800293    0.64999998    2.73000002
   13.66555500  103.32700348    0.64999998    2.73000002
   13.66638851  101.66899872    0.63000000    2.73000002
   13.67194462  101.66899872    0.63000000    2.75000000
   13.67611122  100.90399933    0.63000000    2.73000002
   13.67916679  104.45700073    0.63000000    2.73000002
   13.68249989  101.84899902    0.61000001    2.73000002
   13.68583298  101.02200317    0.61000001    2.73000002
   13.68916702  105.10900116    0.63000000    2.73000002
   13.69222260  105.27999878    0.63000000    2.73000002
   13.69555569  104.25299835    0.63000000    2.73000002
   13.69861126  106.16400146    0.63000000    2.73000002
   13.69972229  105.72799683    0.63000000    2.73000002
   13.70249939  105.90899658    0.63000000    2.75000000
   13.70555496  110.14800262    0.63000000    2.73000002
   13.70888901  108.29900360    0.63000000    2.75000000
   13.71472168  108.29900360    0.63000000    2.75000000
   13.71888828  106.74199677    0.63000000    2.73000002
   13.72222137  111.70700073    0.63000000    2.73000002
   13.72527695  107.96399689    0.63000000    2.73000002
   13.72861099  114.00299835    0.63000000    2.73000002
   13.73166656  105.68699646    0.63000000    2.73000002
   13.73305511  107.01899719    0.64999998    2.73000002
   13.73527813  107.25900269    0.64999998    2.73000002
   13.73833370  102.13999939    0.64999998    2.73000002
   13.74166679  100.66799927    0.64999998    2.75000000
   13.74499989  101.03199768    0.67000002    2.73000002
   13.74805546  100.83899689    0.67000002    2.75000000
   13.75138855  102.25299835    0.67000002    2.73000002
   13.75749969  102.25299835    0.67000002    2.73000002
   13.76166630   99.59320068    0.69000000    2.73000002
   13.76500034  105.38300323    0.67000002    2.73000002
   13.76638889  104.21600342    0.67000002    2.73000002
   13.76861095  104.95500183    0.67000002    2.73000002
   13.77166653  105.27100372    0.67000002    2.73000002
   13.77499962  102.79299927    0.67000002    2.73000002
   13.77833271  102.17500305    0.64999998    2.73000002
   13.78138828  106.68000031    0.64999998    2.75000000
   13.78472233  104.69799805    0.64999998    2.75000000
   13.78777790  106.41000366    0.63000000    2.73000002
   13.79111195  105.19300079    0.63000000    2.75000000
   13.79416752  105.29900360    0.63000000    2.75000000
   13.80055618  105.29900360    0.64999998    2.73000002
   13.80472279   97.19609833    0.64999998    2.75000000
   13.80777836   99.67720032    0.64999998    2.73000002
   13.81111145  103.00000000    0.63000000    2.75000000
   13.81416702  101.05000305    0.63000000    2.73000002
   13.81750011  100.86699677    0.63000000    2.75000000
   13.82055569  102.40499878    0.63000000    2.75000000
   13.82388878  100.33999634    0.67000002    2.73000002
   13.82722187  102.92500305    0.67000002    2.73000002
   13.83027744  105.64700317    0.67000002    2.73000002
   13.83305550  104.52899933    0.69000000    2.73000002
   13.83388901  102.00499725    0.69000000    2.73000002
   13.83694458  106.28500366    0.69000000    2.73000002
   13.84333324  106.28500366    0.69000000    2.73000002
   13.84749985  108.30000305    0.69000000    2.75000000
   13.85055637  103.79799652    0.69000000    2.75000000
   13.85388947  106.54499817    0.70999998    2.75000000
   13.85722256  104.62999725    0.67000002    2.75000000
   13.86055565  101.26100159    0.67000002    2.75000000
   13.86361122  109.39199829    0.69000000    2.73000002
   13.86638927  105.34799957    0.69000000    2.75000000
   13.86722279  102.92600250    0.69000000    2.75000000
   13.87055588  106.29499817    0.67000002    2.73000002
   13.87361145  106.65399933    0.67000002    2.73000002
   13.87694454  106.50399780    0.69000000    2.73000002
   13.88000011  106.13400269    0.67000002    2.73000002
   13.88611126  106.13400269    0.64999998    2.75000000
   13.89027786  110.17099762    0.63000000    2.73000002
   13.89361095  105.98699951    0.63000000    2.73000002
   13.89666653  110.82800293    0.64999998    2.75000000
   13.89972210  114.89099884    0.64999998    2.73000002
   13.90027714  110.19899750    0.64999998    2.73000002
   13.90361118  111.37000275    0.69000000    2.73000002
   13.90666676  105.62200165    0.70999998    2.73000002
   13.90999985  117.98300171    0.70999998    2.73000002
   13.91305542  111.10199738    0.70999998    2.73000002
   13.91638851  114.74600220    0.70999998    2.75000000
   13.91972256  112.45400238    0.70999998    2.73000002
   13.92277813  112.00599670    0.70999998    2.73000002
   13.92888927  112.00599670    0.70999998    2.73000002
   13.93305588  104.79900360    0.75000000    2.73000002
   13.93361092  105.99299622    0.75000000    2.73000002
   13.93694496  116.04000092    0.73000002    2.73000002
   13.94000053  113.87599945    0.73000002    2.73000002
   13.94333363  120.25199890    0.75000000    2.73000002
   13.94666672  116.19000244    0.73000002    2.73000002
   13.94972229  117.00499725    0.73000002    2.75000000
   13.95305538  113.63500214    0.75000000    2.75000000
   13.95611095  104.70899963    0.73000002    2.73000002
   13.95944405  114.81300354    0.70999998    2.75000000
   13.96277714  114.83499908    0.70999998    2.75000000
   13.96583271  113.11699677    0.69000000    2.75000000
   13.96638870  110.40699768    0.69000000    2.75000000
   13.97194386  110.40699768    0.67000002    2.73000002
   13.97611046  106.47699738    0.64999998    2.75000000
   13.97916603  108.89700317    0.64999998    2.75000000
   13.98249912  106.97299957    0.64999998    2.75000000
   13.98555565  111.74400330    0.64999998    2.75000000
   13.98888874  105.56800079    0.64999998    2.75000000
   13.99222279  106.51399994    0.64999998    2.75000000
   13.99527836  102.82299805    0.64999998    2.75000000
   13.99861145  111.82399750    0.69000000    2.73000002
   13.99972248  106.25700378    0.67000002    2.73000002
   14.00222206  103.24500275    0.67000002    2.73000002
   14.00555515  105.86599731    0.69000000    2.75000000
   14.00861073  103.14700317    0.67000002    2.73000002
   14.01472187  103.14700317    0.67000002    2.73000002
   14.01888847  104.18499756    0.69000000    2.73000002
   14.02222157  100.04299927    0.67000002    2.73000002
   14.02527714  104.15899658    0.64999998    2.73000002
   14.02861118  103.20800018    0.63000000    2.75000000
   14.03194427  100.11599731    0.63000000    2.73000002
   14.03305531  108.13200378    0.63000000    2.73000002
   14.03555584  101.34799957    0.63000000    2.75000000
   14.03888893  103.93199921    0.64999998    2.73000002
   14.04194450  100.30300140    0.67000002    2.73000002
   14.04527855  103.58000183    0.67000002    2.73000002
   14.04861164  103.97399902    0.67000002    2.75000000
   14.05166721  103.45700073    0.67000002    2.75000000
   14.05749989  103.45700073    0.69000000    2.75000000
   14.06166649  108.08699799    0.67000002    2.75000000
   14.06500053  102.58000183    0.67000002    2.75000000
   14.06638908  106.42400360    0.67000002    2.75000000
   14.06861115  103.84200287    0.67000002    2.75000000
   14.07194424  104.07099915    0.67000002    2.73000002
   14.07499981  106.62899780    0.63000000    2.75000000
   14.07833290  105.48200226    0.61000001    2.73000002
   14.08166695  106.17500305    0.61000001    2.73000002
   14.08472157  106.70099640    0.61000001    2.73000002
   14.08805561  106.72399902    0.61000001    2.75000000
   14.09138870  105.08200073    0.61000001    2.75000000
   14.09444427   98.09619904    0.63000000    2.73000002
   14.10027790   98.09619904    0.63000000    2.75000000
   14.10444450  101.18099976    0.63000000    2.73000002
   14.10777855  107.91699982    0.63000000    2.73000002
   14.11111164  101.73500061    0.63000000    2.75000000
   14.11416721  109.62799835    0.61000001    2.75000000
   14.11750031  105.87400055    0.58999997    2.75000000
   14.12083340  104.07800293    0.58999997    2.75000000
   14.12388897  105.05799866    0.58999997    2.75000000
   14.12722206  100.43199921    0.58999997    2.75000000
   14.13055611  104.00399780    0.56999999    2.73000002
   14.13305569  107.19999695    0.58999997    2.73000002
   14.13388920  106.65499878    0.58999997    2.73000002
   14.13722229  101.99900055    0.56999999    2.73000002
   14.14333344  101.99900055    0.55000001    2.73000002
   14.14750004  106.56800079    0.52999997    2.73000002
   14.15055561  107.88200378    0.52999997    2.75000000
   14.15388870  108.02400208    0.52999997    2.75000000
   14.15694427  106.75499725    0.52999997    2.73000002
   14.16027737  103.99500275    0.52999997    2.73000002
   14.16361046  100.61799622    0.52999997    2.75000000
   14.16638851  108.96099854    0.52999997    2.73000002
   14.16722298  104.75199890    0.52999997    2.73000002
   14.17055607  104.09600067    0.52999997    2.73000002
   14.17361164  102.38300323    0.51999998    2.73000002
   14.17694473  100.68499756    0.51999998    2.73000002
   14.18027782  104.35099792    0.50000000    2.73000002
   14.18611145  104.35099792    0.51999998    2.73000002
   14.19027805  102.35099792    0.50000000    2.75000000
   14.19333363  104.59400177    0.50000000    2.73000002
   14.19666672  102.24900055    0.47999999    2.75000000
   14.19972229  105.89499664    0.50000000    2.73000002
   14.20027733  105.61900330    0.50000000    2.73000002
   14.20361137   99.60700226    0.51999998    2.73000002
   14.20666695  102.93199921    0.51999998    2.73000002
   14.21000004  103.87200165    0.51999998    2.73000002
   14.21333313  101.67400360    0.52999997    2.75000000
   14.21638870  103.96199799    0.55000001    2.73000002
   14.21972179  101.48400116    0.52999997    2.73000002
   14.22277737  103.92800140    0.51999998    2.75000000
   14.22888851  103.92800140    0.55000001    2.75000000
   14.23305511  103.07800293    0.52999997    2.75000000
   14.23361111   99.68379974    0.52999997    2.75000000
   14.23694515   98.77330017    0.52999997    2.75000000
   14.24000072  100.53700256    0.52999997    2.73000002
   14.24333382  104.77400208    0.52999997    2.73000002
   14.24666691  100.04299927    0.52999997    2.73000002
   14.24972248   98.80159760    0.52999997    2.73000002
   14.25305557  102.39399719    0.52999997    2.73000002
   14.25611115  101.96099854    0.55000001    2.75000000
   14.25944424  104.52799988    0.55000001    2.75000000
   14.26277733  102.03700256    0.52999997    2.75000000
   14.26611137  103.35700226    0.51999998    2.73000002
   14.26694393  103.52600098    0.51999998    2.73000002
   14.28750038  103.52600098    0.44000000    2.75000000
   14.29166698  102.44200134    0.44000000    2.75000000
   14.29500008  105.63500214    0.44000000    2.75000000
   14.29833412  100.22599792    0.44000000    2.75000000
   14.30027771   98.04329681    0.44000000    2.75000000
   14.30194473   99.87429810    0.44000000    2.75000000
   14.30500031  103.09500122    0.44000000    2.75000000
   14.30833340   99.11589813    0.44000000    2.75000000
   14.31166649  101.64499664    0.46000001    2.75000000
   14.31472206   98.83940125    0.44000000    2.75000000
   14.31805515  102.27600098    0.44000000    2.75000000
   14.32111073  105.37500000    0.44000000    2.75000000
   14.32444477  103.27999878    0.41999999    2.75000000
   14.33027744  103.27999878    0.40000001    2.75000000
   14.33444405  102.12000275    0.40000001    2.75000000
   14.33777714  101.31300354    0.41999999    2.75000000
   14.34083271  106.81300354    0.40000001    2.75000000
   14.34444427  103.53299713    0.40000001    2.75000000
   14.34777737  105.26399994    0.40000001    2.75000000
   14.35138893  104.23000336    0.40000001    2.75000000
   14.35444450  107.21399689    0.40000001    2.75000000
   14.35777855  103.85199738    0.38000000    2.75000000
   14.36111164   97.61350250    0.38000000    2.75000000
   14.36416721   98.27369690    0.38000000    2.75000000
   14.36694431  104.10900116    0.38000000    2.75000000
   14.36777782  100.66999817    0.38000000    2.75000000
   14.37333393  100.66999817    0.38000000    2.75000000
   14.37722206  100.50000000    0.40000001    2.75000000
   14.38055611  104.84200287    0.40000001    2.75000000
   14.38388920  102.10700226    0.40000001    2.75000000
   14.38694477  108.64800262    0.41999999    2.75000000
   14.39027786  103.05500031    0.40000001    2.75000000
   14.39361095  110.94699860    0.41999999    2.75000000
   14.39666653   99.99919891    0.41999999    2.75000000
   14.39999962  104.86299896    0.41999999    2.75000000
   14.40055561  103.98100281    0.41999999    2.75000000
   14.40333271  104.28900146    0.41999999    2.75000000
   14.40666676  102.65699768    0.41999999    2.75000000
   14.40972137  104.44899750    0.44000000    2.75000000
   14.41611099  104.44899750    0.46000001    2.75000000
   14.42027855  106.32700348    0.46000001    2.75000000
   14.42333412  101.43000031    0.46000001    2.75000000
   14.42666721  118.32700348    0.44000000    2.75000000
   14.43000031  114.27400208    0.46000001    2.75000000
   14.43305588  102.63099670    0.47999999    2.75000000
   14.43388939  109.37699890    0.47999999    2.75000000
   14.43666649  101.26699829    0.47999999    2.75000000
   14.44000053  100.60700226    0.47999999    2.75000000
   14.44333363  106.14199829    0.52999997    2.75000000
   14.44638920  105.76399994    0.51999998    2.75000000
   14.44972229  102.43000031    0.51999998    2.75000000
   14.45305538  105.24099731    0.51999998    2.75000000
   14.45888901  105.24099731    0.52999997    2.75000000
   14.46305561  102.38800049    0.55000001    2.73000002
   14.46638870  102.34999847    0.55000001    2.75000000
   14.46722221  104.80300140    0.55000001    2.75000000
   14.46972179  108.55699921    0.56999999    2.75000000
   14.47305489  104.78900146    0.56999999    2.75000000
   14.47638798  106.24600220    0.61000001    2.73000002
   14.47944355  104.36699677    0.63000000    2.73000002
   14.48277760  104.37899780    0.63000000    2.73000002
   14.48583317  104.53299713    0.64999998    2.73000002
   14.48916721  104.52999878    0.58999997    2.75000000
   14.49250031  112.29000092    0.58999997    2.73000002
   14.49555588  109.63899994    0.58999997    2.73000002
   14.50166702  109.63899994    0.50000000    2.75000000
   14.50583363   99.40319824    0.50000000    2.75000000
   14.50916672  106.91999817    0.50000000    2.75000000
   14.51222229   99.93750000    0.47999999    2.75000000
   14.51555538  101.10399628    0.51999998    2.75000000
   14.51888847  100.09400177    0.50000000    2.73000002
   14.52194405  101.66100311    0.50000000    2.73000002
   14.52527714  104.99199677    0.50000000    2.75000000
   14.52861118  105.38999939    0.47999999    2.75000000
   14.53166676  104.69799805    0.47999999    2.75000000
   14.53388977  104.49800110    0.47999999    2.75000000
   14.53527832  105.04000092    0.47999999    2.75000000
   14.53861141  102.00900269    0.50000000    2.75000000
   14.54472256  102.00900269    0.51999998    2.75000000
   14.54861164  100.74299622    0.51999998    2.75000000
   14.55194473  100.04799652    0.52999997    2.75000000
   14.55527782   99.59339905    0.56999999    2.75000000
   14.55833340   99.72560120    0.55000001    2.75000000
   14.56166649  100.31500244    0.55000001    2.73000002
   14.56500053  101.11699677    0.52999997    2.75000000
   14.56722260   97.00990295    0.52999997    2.75000000
   14.56833363   97.03119659    0.52999997    2.75000000
   14.57166672   97.09519958    0.52999997    2.75000000
   14.57499981   99.39969635    0.52999997    2.75000000
   14.57805538  101.44000244    0.51999998    2.75000000
   14.58138847   98.52950287    0.50000000    2.75000000
   14.58749962   98.52950287    0.51999998    2.73000002
   14.59166622  102.91000366    0.51999998    2.75000000
   14.59472179   97.60579681    0.51999998    2.75000000
   14.59805489   99.99500275    0.51999998    2.75000000
   14.60055637  100.99400330    0.51999998    2.75000000
   14.60166740  102.70300293    0.51999998    2.75000000
   14.60500050  104.22899628    0.51999998    2.75000000
   14.60805607  103.21900177    0.51999998    2.75000000
   14.61138916  108.25800323    0.52999997    2.73000002
   14.61472225  107.85900116    0.51999998    2.75000000
   14.61777782  103.25000000    0.51999998    2.75000000
   14.62111092  101.04000092    0.51999998    2.75000000
   14.62444496  107.05000305    0.51999998    2.73000002
   14.63027763  107.05000305    0.51999998    2.75000000
   14.63444424  100.00299835    0.51999998    2.75000000
   14.63777733   96.86049652    0.52999997    2.73000002
   14.64083290  104.19699860    0.52999997    2.73000002
   14.64416695   97.06860352    0.51999998    2.75000000
   14.64750004  102.62000275    0.52999997    2.73000002
   14.65055561  101.65599823    0.52999997    2.73000002
   14.65388870  102.10600281    0.52999997    2.73000002
   14.65694427  105.81700134    0.51999998    2.73000002
   14.66027737  104.55799866    0.52999997    2.73000002
   14.66361046  105.83399963    0.52999997    2.75000000
   14.66666698  105.94799805    0.52999997    2.75000000
   14.66722298  103.05000305    0.52999997    2.75000000
   14.67305565  103.05000305    0.52999997    2.73000002
   14.67722225  103.83000183    0.52999997    2.75000000
   14.68055630  103.54799652    0.52999997    2.75000000
   14.68361092   99.47180176    0.55000001    2.75000000
   14.68694496   97.35669708    0.55000001    2.73000002
   14.69027805  100.44799805    0.55000001    2.73000002
   14.69333363   96.18730164    0.55000001    2.73000002
   14.69666672   96.36119843    0.56999999    2.73000002
   14.69999981   97.87640381    0.56999999    2.73000002
   14.70055580   96.75669861    0.56999999    2.75000000
   14.70361137  101.94999695    0.56999999    2.75000000
   14.70666695   96.09400177    0.56999999    2.73000002
   14.71000004   98.55310059    0.55000001    2.73000002
   14.71611118   98.55310059    0.55000001    2.73000002
   14.72027779  119.91799927    0.52999997    2.75000000
   14.72333336  111.72499847    0.52999997    2.75000000
   14.72666645  122.62699890    0.55000001    2.73000002
   14.72999954  113.89199829    0.55000001    2.75000000
   14.73333359  108.48200226    0.52999997    2.73000002
   14.73388958  127.77899933    0.52999997    2.73000002
   14.73694515  114.42400360    0.52999997    2.73000002
   14.74027824  112.56500244    0.52999997    2.73000002
   14.74333382  128.41099548    0.51999998    2.75000000
   14.74666691  119.05799866    0.51999998    2.73000002
   14.74972248  106.60700226    0.51999998    2.73000002
   14.75305557  106.39199829    0.51999998    2.75000000
   14.75888920  106.39199829    0.51999998    2.75000000
   14.76305580  115.18299866    0.51999998    2.75000000
   14.76611137  102.86599731    0.51999998    2.75000000
   14.76722240   98.78109741    0.51999998    2.75000000
   14.76972198  114.76300049    0.50000000    2.75000000
   14.77305508  103.01699829    0.50000000    2.75000000
   14.77611065  108.55999756    0.50000000    2.75000000
   14.77944374  116.65200043    0.47999999    2.75000000
   14.78249931  104.96800232    0.47999999    2.75000000
   14.78583336  109.43399811    0.50000000    2.75000000
   14.78916740  104.65000153    0.47999999    2.75000000
   14.79222298  102.62100220    0.47999999    2.75000000
   14.79555607  103.39800262    0.50000000    2.75000000
   14.80166721  103.39800262    0.50000000    2.75000000
   14.80583382  105.62699890    0.50000000    2.75000000
   14.80916691  107.23999786    0.50000000    2.75000000
   14.81250000  102.09899902    0.50000000    2.75000000
   14.81583309  101.32800293    0.50000000    2.75000000
   14.81888866  103.22599792    0.50000000    2.75000000
   14.82222176   98.27050018    0.51999998    2.75000000
   14.82527733   97.48770142    0.51999998    2.75000000
   14.82861137  101.42199707    0.51999998    2.75000000
   14.83194447  100.21399689    0.51999998    2.75000000
   14.83388901  101.66000366    0.51999998    2.75000000
   14.83555508  102.65499878    0.51999998    2.75000000
   14.83888817   99.02819824    0.51999998    2.75000000
   14.84444427   99.02819824    0.50000000    2.75000000
   14.84861088   97.76679993    0.50000000    2.75000000
   14.85194492  100.15000153    0.50000000    2.75000000
   14.85500050  102.42600250    0.50000000    2.75000000
   14.85861111  101.90799713    0.50000000    2.75000000
   14.86166668  102.39499664    0.51999998    2.75000000
   14.86500072  104.23400116    0.51999998    2.75000000
   14.86722279  104.83699799    0.51999998    2.76999998
   14.86861134  102.58000183    0.51999998    2.76999998
   14.87194443   99.09639740    0.52999997    2.75000000
   14.87500000   98.05159760    0.52999997    2.75000000
   14.87833309  100.70400238    0.52999997    2.75000000
   14.88138866  102.89800262    0.52999997    2.75000000
   14.88749981  102.89800262    0.52999997    2.75000000
   14.89138889  104.81700134    0.55000001    2.75000000
   14.89472198   99.87920380    0.55000001    2.76999998
   14.89805508   97.20600128    0.56999999    2.75000000
   14.90055561   98.35569763    0.56999999    2.75000000
   14.90166664  101.48200226    0.56999999    2.75000000
   14.90499973  100.92099762    0.55000001    2.76999998
   14.90805531  102.22599792    0.55000001    2.75000000
   14.91138840  107.42600250    0.52999997    2.75000000
   14.91472149  100.64299774    0.52999997    2.75000000
   14.91777802  102.39499664    0.52999997    2.75000000
   14.92111111  103.65799713    0.52999997    2.75000000
   14.92416668  102.13600159    0.51999998    2.76999998
   14.93027782  102.13600159    0.51999998    2.75000000
   14.93444443  103.56600189    0.52999997    2.75000000
   14.93750000  101.13800049    0.52999997    2.75000000
   14.94083309  100.72200012    0.52999997    2.75000000
   14.94416714  100.68599701    0.52999997    2.75000000
   14.94722271  103.40799713    0.52999997    2.75000000
   14.95055580   97.91000366    0.52999997    2.75000000
   14.95388889   99.05770111    0.52999997    2.75000000
   14.95694447   99.47769928    0.61000001    2.75000000
   14.96027756  103.86000061    0.55000001    2.75000000
   14.96361065  105.22000122    0.52999997    2.75000000
   14.96666622  101.99099731    0.52999997    2.75000000
   14.96722221   99.85169983    0.55000001    2.75000000
   14.97305489   99.85169983    0.52999997    2.75000000
   14.97722149  103.35500336    0.56999999    2.75000000
   14.98055553  102.19000244    0.52999997    2.75000000
   14.98361111  106.59300232    0.55000001    2.75000000
   14.98694515  103.60700226    0.55000001    2.75000000
   14.99027824  105.93699646    0.55000001    2.75000000
   14.99361134  100.50599670    0.51999998    2.75000000
   14.99666691  101.97899628    0.51999998    2.75000000
   15.00000000  101.91899872    0.50000000    2.76999998
   15.00055599  103.93299866    0.50000000    2.76999998
   15.00361156  101.56800079    0.50000000    2.75000000
   15.00694466   98.12120056    0.51999998    2.75000000
   15.01000023   98.22419739    0.51999998    2.75000000
   15.11944485   -1.00000000   -1.00000000   -1.00000000
   15.22027779   -1.00000000   -1.00000000   -1.00000000
   15.34583282   -1.00000000   -1.00000000   -1.00000000
   15.37527752   -1.00000000    0.50000000    2.78999996
   15.37861156  324.40100098    0.50000000    2.78999996
   15.38194466  120.69400024    0.50000000    2.78999996
   15.38500023  209.35299683    0.46000001    2.76999998
   15.38833332  160.69400024    0.47999999    2.76999998
   15.39249992  160.69400024    0.46000001    2.76999998
   15.39666653  105.38899994    0.47999999    2.76999998
   15.39999962  101.06999969    0.47999999    2.76999998
   15.40333271  103.18399811    0.50000000    2.76999998
   15.40555477  100.09799957    0.50000000    2.76999998
   15.40666676  101.65799713    0.51999998    2.76999998
   15.40999985  103.69200134    0.51999998    2.76999998
   15.41305542  101.58699799    0.51999998    2.76999998
   15.41638851  101.40000153    0.50000000    2.76999998
   15.41972256  101.82499695    0.47999999    2.76999998
   15.42277813  101.81700134    0.47999999    2.75000000
   15.42611122  103.95400238    0.47999999    2.75000000
   15.42944431  101.61199951    0.47999999    2.76999998
   15.43527794  101.61199951    0.47999999    2.76999998
   15.43944454   93.47090149    0.47999999    2.76999998
   15.44277763  100.77500153    0.50000000    2.78999996
   15.44583321   97.16490173    0.50000000    2.76999998
   15.44916630   98.04489899    0.47999999    2.78999996
   15.45222187   99.79440308    0.47999999    2.78999996
   15.45555496  100.62200165    0.47999999    2.78999996
   15.45888901   97.25779724    0.47999999    2.76999998
   15.46194458   98.75710297    0.47999999    2.76999998
   15.46527767   97.08370209    0.47999999    2.75000000
   15.46861076   98.71430206    0.47999999    2.76999998
   15.47166634   96.50990295    0.47999999    2.76999998
   15.47222137   95.30470276    0.47999999    2.76999998
   15.47805500   95.30470276    0.47999999    2.76999998
   15.48222160   96.92060089    0.50000000    2.76999998
   15.48555565  100.65100098    0.50000000    2.76999998
   15.48861122  102.47499847    0.50000000    2.76999998
   15.49194431  102.87000275    0.47999999    2.76999998
   15.49527836  105.58999634    0.47999999    2.76999998
   15.49833393  101.38099670    0.46000001    2.76999998
   15.50166702  103.51599884    0.47999999    2.76999998
   15.50472260   98.95059967    0.46000001    2.76999998
   15.50555515   95.30280304    0.46000001    2.76999998
   15.50861073   98.10649872    0.46000001    2.76999998
   15.51194477   98.44619751    0.46000001    2.76999998
   15.51500034  105.37300110    0.46000001    2.76999998
   15.52083302  105.37300110    0.46000001    2.76999998
   15.52499962   97.51850128    0.46000001    2.76999998
   15.52833271   96.59750366    0.46000001    2.76999998
   15.53166676   99.51090240    0.46000001    2.76999998
   15.53472233   98.12619781    0.46000001    2.76999998
   15.53805637   98.15219879    0.46000001    2.76999998
   15.53888893   95.75630188    0.46000001    2.76999998
   15.54166698   97.34770203    0.46000001    2.76999998
   15.54472256   98.16230011    0.46000001    2.76999998
   15.54805565   98.85260010    0.46000001    2.76999998
   15.55138874   97.36849976    0.46000001    2.76999998
   15.55444431  102.33799744    0.46000001    2.76999998
   15.55777836  101.55200195    0.46000001    2.76999998
   15.56388950  101.55200195    0.46000001    2.76999998
   15.56805515  102.84799957    0.46000001    2.76999998
   15.57111073   99.78350067    0.46000001    2.76999998
   15.57222176   97.86170197    0.46000001    2.76999998
   15.57472229   98.76380157    0.46000001    2.76999998
   15.57777786   98.88919830    0.46000001    2.76999998
   15.58111095   96.96869659    0.47999999    2.76999998
   15.58444405  102.94200134    0.47999999    2.76999998
   15.58749962  105.16600037    0.47999999    2.76999998
   15.59083271  102.46499634    0.47999999    2.75000000
   15.59416676  102.72000122    0.50000000    2.76999998
   15.59722233  103.81999969    0.50000000    2.76999998
   15.60055637  101.02200317    0.46000001    2.76999998
   15.60666752  101.02200317    0.46000001    2.76999998
   15.61083412   99.76100159    0.44000000    2.76999998
   15.61388969   98.24220276    0.44000000    2.76999998
   15.61722279   97.04989624    0.44000000    2.76999998
   15.62055588   98.48619843    0.41999999    2.76999998
   15.62388897   98.43810272    0.44000000    2.76999998
   15.62694454   98.36070251    0.44000000    2.76999998
   15.63027763  100.21499634    0.44000000    2.75000000
   15.63361073   97.39189911    0.44000000    2.75000000
   15.63666630   97.45420074    0.44000000    2.76999998
   15.63888836   97.49510193    0.44000000    2.76999998
   15.64027786   99.46690369    0.44000000    2.76999998
   15.64361095  102.80300140    0.44000000    2.76999998
   15.64944458  102.80300140    0.44000000    2.76999998
   15.65361118  100.81400299    0.44000000    2.75000000
   15.65694427  101.55500031    0.46000001    2.76999998
   15.65999985  101.54599762    0.46000001    2.76999998
   15.66333294  103.98000336    0.46000001    2.76999998
   15.66666698  102.43199921    0.47999999    2.76999998
   15.66972256   98.61350250    0.47999999    2.76999998
   15.67222214   98.66560364    0.47999999    2.76999998
   15.67333412   97.51000214    0.47999999    2.76999998
   15.67638874  104.57900238    0.47999999    2.76999998
   15.67972279   98.35310364    0.47999999    2.76999998
   15.68305588   98.16889954    0.47999999    2.76999998
   15.68611145  100.58300018    0.47999999    2.76999998
   15.69250011  100.58300018    0.47999999    2.76999998
   15.69638920  104.31700134    0.50000000    2.76999998
   15.69972229  102.59200287    0.50000000    2.76999998
   15.70305538   98.38320160    0.47999999    2.76999998
   15.70555496  100.43299866    0.50000000    2.76999998
   15.70666695   97.27069855    0.50000000    2.76999998
   15.71000004  100.35500336    0.51999998    2.76999998
   15.71305561  100.27200317    0.51999998    2.76999998
   15.71638870  100.89800262    0.51999998    2.76999998
   15.71944427   99.73059845    0.51999998    2.76999998
   15.72277737   99.98400116    0.50000000    2.76999998
   15.72611046   99.70290375    0.47999999    2.78999996
   15.72916603   95.10919952    0.46000001    2.78999996
   15.73527813   95.10919952    0.47999999    2.76999998
   15.73944473   97.34359741    0.47999999    2.76999998
   15.74250031  100.25399780    0.50000000    2.76999998
   15.74583340  100.15100098    0.50000000    2.76999998
   15.74888897   98.26709747    0.47999999    2.76999998
   15.75222206   96.35130310    0.50000000    2.76999998
   15.75555515  101.24900055    0.47999999    2.76999998
   15.75888920  100.40299988    0.47999999    2.78999996
   15.76222229   96.96420288    0.47999999    2.76999998
   15.76527786   98.03040314    0.50000000    2.76999998
   15.76861095   98.46189880    0.50000000    2.76999998
   15.77194405   92.74710083    0.50000000    2.76999998
   15.77222157   95.11280060    0.50000000    2.76999998
   15.77805519   95.11280060    0.50000000    2.76999998
   15.78222179   94.87359619    0.50000000    2.76999998
   15.78527832   95.64790344    0.51999998    2.76999998
   15.78861141   97.49400330    0.51999998    2.76999998
   15.79194450   97.23580170    0.52999997    2.76999998
   15.79527855  103.65299988    0.52999997    2.76999998
   15.79833412   96.08519745    0.55000001    2.76999998
   15.80166721  103.09200287    0.55000001    2.76999998
   15.80500031   98.91979980    0.55000001    2.76999998
   15.80555534  101.77799988    0.55000001    2.76999998
   15.80833340   96.27200317    0.52999997    2.76999998
   15.81166649   99.27600098    0.52999997    2.76999998
   15.81472206   95.95760345    0.51999998    2.76999998
   15.82083321   95.95760345    0.51999998    2.76999998
   15.82499981   95.29060364    0.51999998    2.76999998
   15.82833290   94.95680237    0.50000000    2.78999996
   15.83138847  100.11599731    0.50000000    2.78999996
   15.83472157   96.91139984    0.50000000    2.76999998
   15.83805561   96.27909851    0.50000000    2.76999998
   15.83888817   94.41000366    0.50000000    2.76999998
   15.84166622   98.09339905    0.50000000    2.76999998
   15.84499931   97.20169830    0.50000000    2.76999998
   15.84805489   91.98040009    0.50000000    2.76999998
   15.85138893   94.68160248    0.51999998    2.76999998
   15.85472298   97.18229675    0.52999997    2.76999998
   15.85777855   99.94899750    0.55000001    2.76999998
   15.86361122   99.94899750    0.56999999    2.78999996
   15.86777782   99.59269714    0.58999997    2.78999996
   15.87111092   98.52670288    0.58999997    2.78999996
   15.87222195  104.16400146    0.58999997    2.76999998
   15.87472248  101.03900146    0.58999997    2.76999998
   15.87805557   98.43409729    0.63000000    2.76999998
   15.88138866  100.18000031    0.61000001    2.76999998
   15.88444424  100.13899994    0.61000001    2.76999998
   15.88777733  100.31199646    0.58999997    2.76999998
   15.89138889   99.35769653    0.61000001    2.76999998
   15.89444447   99.77999878    0.56999999    2.78999996
   15.89777756  107.64199829    0.56999999    2.78999996
   15.90111065  100.50299835    0.55000001    2.76999998
   15.90666676  100.50299835    0.51999998    2.76999998
   15.91083336   95.09320068    0.52999997    2.76999998
   15.91388893   98.24340057    0.52999997    2.76999998
   15.91722298   98.59559631    0.51999998    2.76999998
   15.92027855   96.76399994    0.51999998    2.76999998
   15.92361164   96.36769867    0.52999997    2.76999998
   15.92694473  102.18099976    0.52999997    2.76999998
   15.93000031   98.08039856    0.52999997    2.76999998
   15.93333340  100.32099915    0.52999997    2.76999998
   15.93666649   99.24069977    0.55000001    2.76999998
   15.93888855   99.44499969    0.55000001    2.76999998
   15.94000053  101.40899658    0.52999997    2.76999998
   15.94333363   99.37210083    0.52999997    2.76999998
   15.94944477   99.37210083    0.64999998    2.78999996
   15.95361137  103.79499817    0.63000000    2.76999998
   15.95694447  101.47100067    0.63000000    2.76999998
   15.96000004  100.34500122    0.63000000    2.76999998
   15.96333313  100.03299713    0.63000000    2.76999998
   15.96666622  101.85900116    0.63000000    2.78999996
   15.96972179   99.31330109    0.63000000    2.78999996
   15.97222137   97.91590118    0.63000000    2.78999996
   15.97333336   99.43810272    0.63000000    2.78999996
   15.97666645   99.21369934    0.58999997    2.76999998
   15.97972202   98.92400360    0.58999997    2.76999998
   15.98305511  102.50499725    0.58999997    2.76999998
   15.98638916  102.67299652    0.58999997    2.76999998
   15.99222279  102.67299652    0.55000001    2.78999996
   15.99638939  101.76599884    0.55000001    2.78999996
   15.99972248   97.51339722    0.52999997    2.78999996
   16.00277710   95.45159912    0.51999998    2.78999996
   16.00555611  100.35199738    0.52999997    2.78999996
   16.00638962  101.51699829    0.52999997    2.78999996
   16.00972176  100.66200256    0.52999997    2.76999998
   16.01277733   97.43869781    0.52999997    2.76999998
   16.01611137  100.91400146    0.52999997    2.78999996
   16.01944351   97.56449890    0.51999998    2.78999996
   16.02249908  103.03600311    0.52999997    2.76999998
   16.02583313   98.61340332    0.52999997    2.76999998
   16.02916718  102.70099640    0.51999998    2.76999998
   16.03499985  102.70099640    0.51999998    2.78999996
   16.03916550   97.68229675    0.52999997    2.76999998
   16.04249954   97.19049835    0.52999997    2.78999996
   16.04583359  102.69200134    0.52999997    2.78999996
   16.04888916  101.11699677    0.52999997    2.78999996
   16.05222130   97.45240021    0.52999997    2.76999998
   16.05555534  103.88400269    0.52999997    2.78999996
   16.05861092   95.29219818    0.52999997    2.78999996
   16.06194305   99.22769928    0.51999998    2.78999996
   16.06499863  101.25299835    0.51999998    2.78999996
   16.06833458  100.14600372    0.51999998    2.78999996
   16.07166672   99.16950226    0.52999997    2.78999996
   16.07222366   98.81050110    0.52999997    2.78999996
   16.07805634   98.81050110    0.56999999    2.78999996
   16.08222389  100.09899902    0.61000001    2.78999996
   16.08527756   98.59449768    0.56999999    2.78999996
   16.08861160  100.73799896    0.58999997    2.78999996
   16.09194565  101.07800293    0.58999997    2.78999996
   16.09500122  100.39199829    0.61000001    2.78999996
   16.09833336   94.90720367    0.55000001    2.78999996
   16.10138893  102.05400085    0.51999998    2.78999996
   16.10472298  102.38700104    0.52999997    2.78999996
   16.10583305  102.06800079    0.52999997    2.78999996
   16.10833359   99.03050232    0.55000001    2.78999996
   16.11166763  101.52500153    0.51999998    2.78999996
   16.11472321   95.87550354    0.50000000    2.78999996
   16.12083435   95.87550354    0.50000000    2.78999996
   16.12500000   96.38200378    0.47999999    2.78999996
   16.12805557   90.75789642    0.47999999    2.78999996
   16.13138962   99.99220276    0.47999999    2.78999996
   16.13472176   97.88700104    0.47999999    2.78999996
   16.13805580   98.68499756    0.46000001    2.78999996
   16.13916588   98.21450043    0.46000001    2.78999996
   16.14166641   98.03399658    0.47999999    2.78999996
   16.14500046   99.03359985    0.50000000    2.78999996
   16.14805603   96.56950378    0.50000000    2.78999996
   16.15138817   94.62529755    0.50000000    2.78999996
   16.15472221   98.53220367    0.51999998    2.78999996
   16.15777779   97.09729767    0.52999997    2.78999996
   16.16361046   97.09729767    0.51999998    2.78999996
   16.16777802   99.99289703    0.47999999    2.78999996
   16.17111015   97.08609772    0.47999999    2.78999996
   16.17249870  101.52700043    0.50000000    2.78999996
   16.17444420   97.41490173    0.50000000    2.78999996
   16.17777634   99.90329742    0.50000000    2.78999996
   16.18111038  100.24700165    0.51999998    2.78999996
   16.18416595   99.18900299    0.52999997    2.78999996
   16.18750000  103.16200256    0.50000000    2.78999996
   16.19055557  100.64399719    0.51999998    2.78999996
   16.19388771  103.93900299    0.51999998    2.78999996
   16.19722176  100.61900330    0.51999998    2.78999996
   16.20027924   99.47810364    0.55000001    2.78999996
   16.20639038   99.47810364    0.50000000    2.78999996
   16.21083450   99.09829712    0.51999998    2.78999996
   16.21389008   97.41049957    0.51999998    2.78999996
   16.21722221  103.78900146    0.51999998    2.78999996
   16.22055626  104.99500275    0.47999999    2.80999994
   16.22361183  106.73899841    0.47999999    2.78999996
   16.22694588  104.80899811    0.50000000    2.80999994
   16.23027802  104.39900208    0.50000000    2.78999996
   16.23333359  103.45899963    0.47999999    2.78999996
   16.23666763  100.62100220    0.51999998    2.78999996
   16.23916626  104.93900299    0.51999998    2.78999996
   16.24027824  101.38600159    0.51999998    2.78999996
   16.24361229  100.01699829    0.58999997    2.78999996
   16.24944496  100.01699829    0.58999997    2.80999994
   16.25333405  100.00099945    0.58999997    2.80999994
   16.25666618   96.50509644    0.50000000    2.78999996
   16.26000023  101.50000000    0.46000001    2.80999994
   16.26305580   97.99310303    0.36000001    2.80999994
   16.26638794  101.14600372    0.38000000    2.80999994
   16.26972198  102.69899750    0.40000001    2.78999996
   16.27249908   99.78610229    0.40000001    2.78999996
   16.27305603  104.28700256    0.40000001    2.78999996
   16.27638817  102.23300171    0.44000000    2.78999996
   16.27944374  102.82099915    0.46000001    2.80999994
   16.28277779   99.07620239    0.47999999    2.78999996
   16.28610992   96.38040161    0.50000000    2.80999994
   16.29222107   96.38040161    0.52999997    2.80999994
   16.29638863   97.71640015    0.61000001    2.80999994
   16.29944420   97.32730103    0.63000000    2.78999996
   16.30277634  103.08899689    0.63000000    2.78999996
   16.30583191   96.51239777    0.64999998    2.80999994
   16.30638885   99.30410004    0.64999998    2.80999994
   16.30972099  101.23300171    0.69000000    2.78999996
   16.31305504   94.20490265    0.73000002    2.78999996
   16.31611061   97.32869720    0.70999998    2.78999996
   16.31944466   97.78230286    0.70999998    2.78999996
   16.32250023  100.84799957    0.75000000    2.80999994
   16.32583427  100.29900360    0.76999998    2.80999994
   16.32916832  101.51999664    0.75000000    2.80999994
   16.33500099  101.51999664    0.51999998    2.80999994
   16.33916664  101.97699738    0.51999998    2.80999994
   16.34250069  101.12000275    0.47999999    2.78999996
   16.34555626  104.49500275    0.47999999    2.78999996
   16.34889030   99.03610229    0.47999999    2.78999996
   16.35194397   98.67030334    0.51999998    2.78999996
   16.35527802  101.76799774    0.55000001    2.78999996
   16.35861206  102.93399811    0.52999997    2.78999996
   16.36166763   98.92769623    0.55000001    2.78999996
   16.36499977   98.80590057    0.55000001    2.78999996
   16.36833382   98.14759827    0.51999998    2.80999994
   16.37138939  101.84300232    0.55000001    2.78999996
   16.37249947   98.47859955    0.55000001    2.78999996
   16.39305496   98.47859955    0.51999998    2.80999994
   16.39722252   97.78019714    0.51999998    2.80999994
   16.40027809  103.27200317    0.52999997    2.78999996
   16.40361023   96.43890381    0.52999997    2.78999996
   16.40583229   98.02610016    0.56999999    2.80999994
   16.40749931   99.37830353    0.56999999    2.80999994
   16.41055489   98.89530182    0.51999998    2.80999994
   16.41388893   94.16190338    0.47999999    2.78999996
   16.41722107   95.12729645    0.50000000    2.78999996
   16.42027664   96.66870117    0.41999999    2.78999996
   16.42361069   95.07559967    0.41999999    2.78999996
   16.42666626   98.20549774    0.41999999    2.78999996
   16.43000031  100.44699860    0.41999999    2.80999994
   16.43583298  100.44699860    0.44000000    2.80999994
   16.43999863   97.96970367    0.44000000    2.80999994
   16.44305420   97.41239929    0.44000000    2.80999994
   16.44638824   99.30020142    0.44000000    2.80999994
   16.44944382   99.89530182    0.47999999    2.80999994
   16.45277786   95.24069977    0.47999999    2.78999996
   16.45611191   97.55729675    0.46000001    2.80999994
   16.45944595   99.01300049    0.46000001    2.80999994
   16.46277809   92.00379944    0.46000001    2.80999994
   16.46583366   96.28389740    0.44000000    2.80999994
   16.46916771   98.52449799    0.44000000    2.78999996
   16.47222328   98.19190216    0.44000000    2.80999994
   16.47277832   98.67819977    0.44000000    2.80999994
   16.47861099   98.67819977    0.41999999    2.80999994
   16.48277855  102.68199921    0.40000001    2.80999994
   16.48583412   95.90370178    0.38000000    2.80999994
   16.48916626   98.53810120    0.36000001    2.80999994
   16.49250031   98.54589844    0.36000001    2.80999994
   16.49555588  101.80899811    0.36000001    2.80999994
   16.49888992   95.13590240    0.34000000    2.80999994
   16.50222206   96.46019745    0.36000001    2.80999994
   16.50527763   96.03029633    0.38000000    2.80999994
   16.50611115   94.88800049    0.38000000    2.80999994
   16.50888824   96.36260223    0.36000001    2.80999994
   16.51222229   93.98229980    0.36000001    2.82999992
   16.51527786   96.98760223    0.40000001    2.80999994
   16.52138901   96.98760223    0.40000001    2.82999992
   16.52555466   98.74210358    0.41999999    2.80999994
   16.52888870   94.19120026    0.46000001    2.80999994
   16.53194427   98.15010071    0.47999999    2.80999994
   16.53527641   95.62969971    0.50000000    2.80999994
   16.53861046   99.45320129    0.47999999    2.80999994
   16.53944397   97.11280060    0.47999999    2.80999994
   16.54222107   98.45839691    0.44000000    2.78999996
   16.54555511   98.34660339    0.44000000    2.78999996
   16.54861069  100.34100342    0.46000001    2.80999994
   16.55194283  100.89099884    0.46000001    2.80999994
   16.55499840  100.71199799    0.44000000    2.80999994
   16.55833244   96.64279938    0.41999999    2.80999994
   16.56444359   96.64279938    0.41999999    2.78999996
   16.56833458   97.79920197    0.41999999    2.78999996
   16.57166672   93.27739716    0.44000000    2.78999996
   16.57277870   94.99690247    0.44000000    2.78999996
   16.57527924   94.77339935    0.44000000    2.78999996
   16.57861137   97.69519806    0.44000000    2.78999996
   16.58166695   97.62400055    0.46000001    2.80999994
   16.58500099   96.62570190    0.46000001    2.80999994
   16.58805656   97.14640045    0.51999998    2.80999994
   16.59138870  101.21499634    0.51999998    2.80999994
   16.59472275   96.76110077    0.51999998    2.80999994
   16.59777832   99.02760315    0.47999999    2.80999994
   16.60111237  101.26899719    0.50000000    2.82999992
   16.60722351  101.26899719    0.46000001    2.80999994
   16.61138916   98.49050140    0.52999997    2.80999994
   16.61444473  100.83300018    0.61000001    2.80999994
   16.61777878  104.55200195    0.61000001    2.80999994
   16.62111092  103.00099945    0.47999999    2.80999994
   16.62416649  100.06700134    0.50000000    2.80999994
   16.62750053   96.99949646    0.52999997    2.80999994
   16.63083267   98.70149994    0.46000001    2.80999994
   16.63388824  101.42800140    0.44000000    2.80999994
   16.63722229  102.43299866    0.44000000    2.80999994
   16.63944435  100.11399841    0.44000000    2.80999994
   16.64083290  101.64600372    0.44000000    2.80999994
   16.64416695  101.76899719    0.44000000    2.80999994
   16.64999962  101.76899719    0.41999999    2.80999994
   16.65416718   94.23079681    0.41999999    2.80999994
   16.65749931   93.56970215    0.44000000    2.80999994
   16.66083336   92.52739716    0.44000000    2.80999994
   16.66388893   96.80629730    0.47999999    2.80999994
   16.66722107   94.39250183    0.46000001    2.80999994
   16.67027664   96.97389984    0.46000001    2.80999994
   16.67277718   98.62169647    0.47999999    2.80999994
   16.67388916   96.88210297    0.47999999    2.80999994
   16.67722130  100.97499847    0.50000000    2.80999994
   16.68027687   97.89469910    0.55000001    2.78999996
   16.68361092   99.07039642    0.52999997    2.80999994
   16.68694305  100.78700256    0.47999999    2.80999994
   16.69277763  100.78700256    0.47999999    2.80999994
   16.69694328  101.87200165    0.46000001    2.78999996
   16.70027924  101.50199890    0.46000001    2.78999996
   16.70333481   99.03009796    0.46000001    2.78999996
   16.70611191   95.49620056    0.50000000    2.80999994
   16.70694542   96.67459869    0.50000000    2.80999994
   16.71027946  100.50499725    0.51999998    2.80999994
   16.71333504   94.76049805    0.51999998    2.80999994
   16.71666718   93.60769653    0.50000000    2.80999994
   16.71972275   96.99490356    0.55000001    2.80999994
   16.72305679   92.94259644    0.55000001    2.80999994
   16.72638893   98.20169830    0.55000001    2.80999994
   16.72944450   95.31099701    0.52999997    2.80999994
   16.73555565   95.31099701    0.50000000    2.80999994
   16.73972321   97.41699982    0.51999998    2.80999994
   16.74305534   97.53399658    0.58999997    2.80999994
   16.74638939   97.43430328    0.51999998    2.80999994
   16.74944496   98.22019958    0.44000000    2.80999994
   16.75277710  100.73699951    0.44000000    2.80999994
   16.75583267   95.07450104    0.41999999    2.80999994
   16.75916672   93.94059753    0.47999999    2.80999994
   16.76250076   98.70729828    0.41999999    2.80999994
   16.76555634   96.62159729    0.44000000    2.80999994
   16.76888847   92.95919800    0.44000000    2.80999994
   16.77222252   97.22409821    0.44000000    2.80999994
   16.77277756   99.95149994    0.44000000    2.80999994
   16.77861023   99.95149994    0.46000001    2.80999994
   16.78277779   99.83100128    0.44000000    2.80999994
   16.78583336  103.29499817    0.47999999    2.80999994
   16.78916550  100.65899658    0.44000000    2.80999994
   16.79222107  102.58000183    0.46000001    2.80999994
   16.79555511  102.22799683    0.44000000    2.80999994
   16.79888916  101.85399628    0.44000000    2.80999994
   16.80222130  100.72200012    0.44000000    2.80999994
   16.80555534   94.53489685    0.44000000    2.80999994
   16.80611038   99.60970306    0.44000000    2.80999994
   16.80888748   96.46269989    0.44000000    2.80999994
   16.81222153   95.02860260    0.41999999    2.80999994
   16.81527710   97.39089966    0.41999999    2.80999994
   16.82139015   97.39089966    0.41999999    2.80999994
   16.82555580   96.64900208    0.44000000    2.80999994
   16.82861137   97.24639893    0.41999999    2.80999994
   16.83194542   98.40969849    0.41999999    2.80999994
   16.83527756  100.18099976    0.41999999    2.80999994
   16.83833313  101.07499695    0.41999999    2.80999994
   16.83944511  101.89199829    0.41999999    2.80999994
   16.84194565  102.57900238    0.41999999    2.80999994
   16.84527779  102.64600372    0.41999999    2.80999994
   16.84833336   95.78379822    0.44000000    2.78999996
   16.85166740   94.22930145    0.44000000    2.78999996
   16.85499954   97.60089874    0.44000000    2.78999996
   16.85805511   99.32070160    0.44000000    2.80999994
   16.86416626   99.32070160    0.47999999    2.78999996
   16.86833382   96.04049683    0.46000001    2.78999996
   16.87166595   96.03199768    0.46000001    2.78999996
   16.87305641   94.55670166    0.46000001    2.80999994
   16.87555504   97.15640259    0.47999999    2.78999996
   16.87861061   97.78800201    0.47999999    2.78999996
   16.88194466   94.77940369    0.47999999    2.78999996
   16.88527679   96.10510254    0.47999999    2.78999996
   16.88833237   99.62390137    0.50000000    2.78999996
   16.89166641   98.86620331    0.52999997    2.78999996
   16.89472198   99.43579865    0.56999999    2.78999996
   16.89805603   95.96829987    0.56999999    2.78999996
   16.90138817   98.75050354    0.52999997    2.78999996
   16.90722275   98.75050354    0.44000000    2.80999994
   16.91138840   94.32610321    0.41999999    2.80999994
   16.91472244   95.58260345    0.46000001    2.80999994
   16.91777802   85.83709717    0.46000001    2.80999994
   16.92111015   94.06690216    0.46000001    2.80999994
   16.92416573   93.26699829    0.44000000    2.80999994
   16.92749977   95.76830292    0.40000001    2.80999994
   16.93083191   92.19149780    0.41999999    2.80999994
   16.93388748   95.00090027    0.41999999    2.80999994
   16.93722153   93.10150146    0.41999999    2.80999994
   16.93944359   95.03340149    0.41999999    2.80999994
   16.94083214   92.53730011    0.41999999    2.80999994
   16.94416618   96.53540039    0.41999999    2.80999994
   16.95000076   96.53540039    0.44000000    2.80999994
   16.95416832   97.69360352    0.44000000    2.80999994
   16.95722389   97.50620270    0.44000000    2.82999992
   16.96055603   89.43299866    0.38000000    2.80999994
   16.96361160   97.17500305    0.38000000    2.80999994
   16.96694565   96.60970306    0.41999999    2.80999994
   16.97027779   96.24160004    0.41999999    2.80999994
   16.97277832   97.44129944    0.40000001    2.80999994
   16.97389030  101.06400299    0.40000001    2.80999994
   16.97722244   96.61810303    0.40000001    2.80999994
   16.98027802   99.51409912    0.38000000    2.80999994
   16.98361206   99.25509644    0.38000000    2.80999994
   16.98694420  101.58000183    0.40000001    2.80999994
   16.99277878  101.58000183    0.40000001    2.80999994
   16.99694443  101.06400299    0.40000001    2.80999994
   17.00000000  102.60099792    0.38000000    2.80999994
   17.00333405  103.16100311    0.40000001    2.80999994
   17.00611115  100.89199829    0.40000001    2.80999994
   17.00694466   93.71520233    0.40000001    2.80999994
   17.01027870   94.09989929    0.40000001    2.82999992
   17.01333427   94.96499634    0.40000001    2.80999994
   17.01666641   97.12300110    0.40000001    2.80999994
   17.02000046   96.62580109    0.40000001    2.80999994
   17.02305603   94.96589661    0.40000001    2.80999994
   17.02638817   97.57959747    0.40000001    2.80999994
   17.02972221   95.88220215    0.40000001    2.80999994
   17.03555489   95.88220215    0.41999999    2.80999994
   17.03972244   97.60119629    0.41999999    2.80999994
   17.04305458   97.68920135    0.41999999    2.80999994
   17.04611015  100.25700378    0.40000001    2.80999994
   17.04972076  103.92299652    0.40000001    2.80999994
   17.05277634   99.68939972    0.41999999    2.80999994
   17.05611038  103.23400116    0.41999999    2.80999994
   17.05916595  105.97100067    0.41999999    2.80999994
   17.06250000   95.81020355    0.41999999    2.80999994
   17.06583214   97.57140350    0.41999999    2.80999994
   17.06888962   94.03520203    0.41999999    2.80999994
   17.07222366   97.16459656    0.40000001    2.80999994
   17.07277870   99.41470337    0.40000001    2.80999994
   17.07833481   99.41470337    0.40000001    2.80999994
   17.08250046  101.39700317    0.41999999    2.80999994
   17.08583450  101.52200317    0.41999999    2.82999992
   17.08916664  102.01399994    0.41999999    2.82999992
   17.09222221  101.32199860    0.44000000    2.80999994
   17.09555626   99.34989929    0.44000000    2.80999994
   17.09889030  105.13200378    0.46000001    2.80999994
   17.10194397   93.87889862    0.50000000    2.80999994
   17.10527802   97.38220215    0.44000000    2.80999994
   17.10611153   99.82350159    0.44000000    2.80999994
   17.10888863   98.86440277    0.41999999    2.80999994
   17.11222267   96.31400299    0.41999999    2.80999994
   17.11555672   96.94069672    0.41999999    2.80999994
   17.12138939   96.94069672    0.44000000    2.80999994
   17.12555504  103.09300232    0.44000000    2.80999994
   17.12861061   98.81199646    0.47999999    2.80999994
   17.13194466  101.89099884    0.47999999    2.80999994
   17.13527679   98.41780090    0.47999999    2.80999994
   17.13833237   99.67990112    0.46000001    2.80999994
   17.13972282   98.61289978    0.46000001    2.80999994
   17.14194489  100.34300232    0.47999999    2.82999992
   17.14527702   97.78710175    0.47999999    2.82999992
   17.14833260  101.38300323    0.50000000    2.82999992
   17.15166664   99.07900238    0.51999998    2.80999994
   17.15499878   99.40470123    0.52999997    2.80999994
   17.15805435   96.60890198    0.51999998    2.82999992
   17.16416550   96.60890198    0.55000001    2.80999994
   17.16833305   96.71690369    0.55000001    2.80999994
   17.17138863   94.96959686    0.64999998    2.80999994
   17.17305565   97.17050171    0.64999998    2.80999994
   17.17499924   95.14790344    0.52999997    2.80999994
   17.17833328   95.70220184    0.51999998    2.80999994
   17.18138885   99.05049896    0.51999998    2.80999994
   17.18472099   95.56670380    0.52999997    2.80999994
   17.18805504   95.19000244    0.52999997    2.80999994
   17.19138718   95.16619873    0.55000001    2.80999994
   17.19472122   93.00969696    0.55000001    2.80999994
   17.19777679  100.96800232    0.51999998    2.80999994
   17.20111275  100.95500183    0.50000000    2.80999994
   17.20694542  100.95500183    0.51999998    2.80999994
   17.21111107  100.56500244    0.51999998    2.80999994
   17.21444511  101.54699707    0.44000000    2.82999992
   17.21750069  102.48699951    0.51999998    2.82999992
   17.22083473   95.78119659    0.52999997    2.82999992
   17.22416687   98.30010223    0.51999998    2.80999994
   17.22722244   92.47419739    0.50000000    2.82999992
   17.23055649   99.88760376    0.50000000    2.82999992
   17.23388863   94.50479889    0.67000002    2.80999994
   17.23694420   98.65499878    0.67000002    2.80999994
   17.23972321   96.15989685    0.55000001    2.80999994
   17.24055672   97.00140381    0.55000001    2.80999994
   17.24388885   97.36579895    0.50000000    2.80999994
   17.25000000   97.36579895    0.46000001    2.80999994
   17.25416756   99.60440063    0.47999999    2.80999994
   17.25749969   97.07140350    0.40000001    2.80999994
   17.26055527   99.18720245    0.40000001    2.80999994
   17.26388931   97.64230347    0.44000000    2.82999992
   17.26694489  101.90100098    0.44000000    2.82999992
   17.27027702  105.05699921    0.44000000    2.82999992
   17.27305603  101.00099945    0.47999999    2.80999994
   17.27388954   94.42489624    0.47999999    2.80999994
   17.27722168   89.39050293    0.41999999    2.80999994
   17.28055573   96.94280243    0.41999999    2.82999992
   17.28361130   98.23320007    0.41999999    2.80999994
   17.28694344   96.42759705    0.40000001    2.82999992
   17.29277802   96.42759705    0.40000001    2.82999992
   17.29694366  100.13600159    0.40000001    2.82999992
   17.29999924   96.57830048    0.40000001    2.82999992
   17.30333328   94.43650055    0.40000001    2.80999994
   17.30638885   91.85919952    0.40000001    2.80999994
   17.30694389   92.45939636    0.40000001    2.80999994
   17.31027794   94.15809631    0.40000001    2.80999994
   17.31333351   94.20130157    0.44000000    2.80999994
   17.31666756   95.26399994    0.44000000    2.80999994
   17.32000160   99.26920319    0.40000001    2.80999994
   17.32305717  100.51300049    0.40000001    2.80999994
   17.32638931   98.52010345    0.41999999    2.82999992
   17.32972336   96.97959900    0.41999999    2.82999992
   17.33555603   96.97959900    0.41999999    2.80999994
   17.33972359  100.86000061    0.44000000    2.80999994
   17.34277916   96.78459930    0.44000000    2.80999994
   17.34611130   98.70960236    0.44000000    2.82999992
   17.34944534  100.75700378    0.46000001    2.80999994
   17.35250092   97.13369751    0.46000001    2.80999994
   17.35583305   91.81009674    0.46000001    2.82999992
   17.35916710   93.15579987    0.46000001    2.82999992
   17.36222267   91.85769653    0.47999999    2.82999992
   17.36555672   94.63410187    0.47999999    2.82999992
   17.36861038   93.68399811    0.44000000    2.82999992
   17.37194443   94.44219971    0.44000000    2.80999994
   17.37305641   97.64469910    0.44000000    2.80999994
   17.37833405   97.64469910    0.44000000    2.80999994
   17.38249969   98.84819794    0.44000000    2.80999994
   17.38583374   97.59799957    0.44000000    2.80999994
   17.38888931   96.57009888    0.44000000    2.80999994
   17.40638924   96.98519897    0.46000001    2.80999994
   17.40888786   95.64219666    0.46000001    2.80999994
   17.41222191   95.41850281    0.50000000    2.80999994
   17.41527748   93.77230072    0.47999999    2.80999994
   17.42138863   93.77230072    0.44000000    2.80999994
   17.42555428   97.24759674    0.44000000    2.80999994
   17.42860985  103.31500244    0.44000000    2.80999994
   17.43194389   95.35559845    0.41999999    2.80999994
   17.43527603   98.59570313    0.41999999    2.80999994
   17.43833160  100.15599823    0.41999999    2.80999994
   17.43972206   94.44770050    0.41999999    2.80999994
   17.44222069   93.52929688    0.41999999    2.80999994
   17.44555473   99.15000153    0.41999999    2.80999994
   17.44861031   97.95400238    0.44000000    2.82999992
   17.45194435   96.86879730    0.44000000    2.80999994
   17.45499992   93.01809692    0.44000000    2.80999994
   17.45833397   99.03569794    0.58999997    2.82999992
   17.46416664   99.03569794    0.51999998    2.80999994
   17.46833420   91.18270111    0.52999997    2.82999992
   17.47166634   96.07299805    0.52999997    2.82999992
   17.47305679   93.63430023    0.52999997    2.80999994
   17.47527885  101.01599884    0.52999997    2.80999994
   17.47861099   95.37229919    0.50000000    2.80999994
   17.48166656   96.18440247    0.47999999    2.80999994
   17.48500061   95.73200226    0.47999999    2.80999994
   17.48805618   95.19480133    0.50000000    2.80999994
   17.49138832   93.43800354    0.50000000    2.80999994
   17.49472237   95.85859680    0.47999999    2.80999994
   17.49777794   92.92240143    0.50000000    2.80999994
   17.50111198   94.28040314    0.50000000    2.80999994
   17.50694466   94.28040314    0.47999999    2.80999994
   17.51111031   93.28389740    0.44000000    2.82999992
   17.51444435   95.52220154    0.46000001    2.80999994
   17.51777840   97.35269928    0.46000001    2.80999994
   17.52083397   97.47959900    0.46000001    2.80999994
   17.52416611   93.47810364    0.47999999    2.80999994
   17.52722168   98.77870178    0.46000001    2.80999994
   17.53055573   94.57150269    0.47999999    2.80999994
   17.53388786   97.44650269    0.46000001    2.80999994
   17.53694344   94.62840271    0.46000001    2.80999994
   17.53972244   96.05110168    0.44000000    2.80999994
   17.54055595   93.96579742    0.44000000    2.80999994
   17.54388809   96.20800018    0.44000000    2.80999994
   17.54999924   96.20800018    0.46000001    2.80999994
   17.55416679   93.28589630    0.47999999    2.78999996
   17.55749893   95.56150055    0.47999999    2.80999994
   17.56055450   95.19090271    0.44000000    2.80999994
   17.56388855   96.83390045    0.41999999    2.80999994
   17.56722260   95.87619781    0.41999999    2.80999994
   17.57027817   97.27149963    0.41999999    2.80999994
   17.57305717   96.95120239    0.44000000    2.80999994
   17.57389069   93.56379700    0.44000000    2.80999994
   17.57722282   96.23259735    0.44000000    2.80999994
   17.58027840   93.82160187    0.44000000    2.80999994
   17.58361244   91.36460114    0.44000000    2.80999994
   17.58694458   97.33350372    0.46000001    2.80999994
   17.59277916   97.33350372    0.44000000    2.80999994
   17.59694481   95.90339661    0.46000001    2.80999994
   17.60000038   95.14969635    0.46000001    2.80999994
   17.60333443   97.34870148    0.46000001    2.80999994
   17.60639000   92.80609894    0.46000001    2.80999994
   17.60694504   93.26989746    0.44000000    2.80999994
   17.61027908   94.85659790    0.44000000    2.80999994
   17.61361122   96.06880188    0.44000000    2.80999994
   17.61666679   97.38800049    0.44000000    2.80999994
   17.62000084   98.70829773    0.44000000    2.80999994
   17.62305641   97.99720001    0.41999999    2.80999994
   17.62638855   96.94480133    0.41999999    2.80999994
   17.62972260   92.88559723    0.41999999    2.80999994
   17.63555527   92.88559723    0.44000000    2.80999994
   17.63972282   98.91899872    0.41999999    2.80999994
   17.64027786   95.07099915    0.41999999    2.80999994
   17.64333344   95.14550018    0.44000000    2.80999994
   17.64666748   94.86889648    0.44000000    2.80999994
   17.64999962   97.29340363    0.44000000    2.80999994
   17.65333366   98.48010254    0.44000000    2.80999994
   17.65666580   95.95600128    0.44000000    2.80999994
   17.65972137   98.42890167    0.44000000    2.80999994
   17.66305542   99.98580170    0.44000000    2.80999994
   17.66611099  100.85299683    0.44000000    2.80999994
   17.66944313   98.09670258    0.44000000    2.78999996
   17.67277718   98.73249817    0.44000000    2.78999996
   17.67361069   97.30220032    0.44000000    2.78999996
   17.67833328   97.30220032    0.50000000    2.78999996
   17.68249893   95.71929932    0.50000000    2.80999994
   17.68583298   97.53700256    0.47999999    2.80999994
   17.68888855   98.49729919    0.47999999    2.80999994
   17.69222069   98.28769684    0.50000000    2.80999994
   17.69555473   97.74859619    0.50000000    2.80999994
   17.69861031   99.70200348    0.46000001    2.80999994
   17.70194435   96.52480316    0.46000001    2.80999994
   17.70527840  102.65499878    0.46000001    2.80999994
   17.70694542   98.42620087    0.46000001    2.78999996
   17.70861244   96.90720367    0.46000001    2.78999996
   17.71194458   96.50810242    0.44000000    2.80999994
   17.71527863   97.43119812    0.47999999    2.80999994
   17.72138977   97.43119812    0.50000000    2.80999994
   17.72527885   97.98349762    0.50000000    2.78999996
   17.72861099   93.05249786    0.50000000    2.78999996
   17.73194504   98.97810364    0.50000000    2.78999996
   17.73500061  100.01999664    0.47999999    2.78999996
   17.73833275   93.14209747    0.46000001    2.78999996
   17.74027824   93.12300110    0.46000001    2.78999996
   17.74166679   96.54959869    0.47999999    2.78999996
   17.74500084   93.04370117    0.51999998    2.78999996
   17.74833298   94.21499634    0.51999998    2.78999996
   17.75138855   97.23239899    0.51999998    2.78999996
   17.75472260   96.99120331    0.55000001    2.78999996
   17.75805473   97.36820221    0.51999998    2.78999996
   17.76416588   97.36820221    0.52999997    2.78999996
   17.76833344   97.82379913    0.51999998    2.78999996
   17.77138901   94.45909882    0.55000001    2.78999996
   17.77361107   95.98899841    0.55000001    2.78999996
   17.77499962   93.44909668    0.50000000    2.78999996
   17.77833366   92.77159882    0.50000000    2.78999996
   17.78166580   95.23200226    0.47999999    2.78999996
   17.78472137   97.88030243    0.47999999    2.78999996
   17.78805542   99.48750305    0.46000001    2.78999996
   17.79138756  100.22499847    0.44000000    2.78999996
   17.79444313   95.90350342    0.40000001    2.78999996
   17.79777718   99.23609924    0.40000001    2.78999996
   17.80111122   94.69750214    0.40000001    2.78999996
   17.80694389   94.69750214    0.40000001    2.78999996
   17.81110954   95.82820129    0.40000001    2.78999996
   17.81444359   92.95210266    0.40000001    2.78999996
   17.81750107   95.16979980    0.40000001    2.78999996
   17.82083511   98.08820343    0.41999999    2.78999996
   17.82416725  101.96399689    0.41999999    2.78999996
   17.82722282   94.79519653    0.41999999    2.78999996
   17.83055687  103.12200165    0.46000001    2.78999996
   17.83388901   97.27770233    0.52999997    2.78999996
   17.83694458   90.60870361    0.69000000    2.78999996
   17.84027863  100.02500153    0.67000002    2.78999996
   17.84055710   95.64510345    0.67000002    2.78999996
   17.84388924   99.20379639    0.51999998    2.78999996
   17.84972191   99.20379639    0.46000001    2.78999996
   17.85388947   94.59909821    0.46000001    2.78999996
   17.85722351   96.78350067    0.40000001    2.78999996
   17.86027908   96.57980347    0.40000001    2.78999996
   17.86361122   94.75509644    0.44000000    2.78999996
   17.86694527   97.85780334    0.41999999    2.78999996
   17.87000084   97.22920227    0.41999999    2.78999996
   17.87333298   99.76709747    0.41999999    2.78999996
   17.87388992   96.24490356    0.41999999    2.78999996
   17.87694550   95.12539673    0.41999999    2.78999996
   17.88027763   92.68309784    0.47999999    2.78999996
   17.88361168   93.49289703    0.47999999    2.78999996
   17.88666725   96.07939911    0.50000000    2.78999996
   17.89277840   96.07939911    0.70999998    2.78999996
   17.89666748   94.03710175    0.67000002    2.78999996
   17.89999962  101.44999695    0.50000000    2.78999996
   17.90333366   92.81649780    0.44000000    2.78999996
   17.90638924   99.69920349    0.44000000    2.80999994
   17.90722275   94.44000244    0.44000000    2.80999994
   17.90999985   98.21790314    0.44000000    2.78999996
   17.91333389   97.69200134    0.46000001    2.78999996
   17.91666603   95.66030121    0.46000001    2.78999996
   17.91972160  103.25399780    0.98000002    2.78999996
   17.92305565   95.94809723    0.75000000    2.78999996
   17.92638779   95.17209625    0.75000000    2.78999996
   17.92944336   97.58290100    0.81999999    2.78999996
   17.93583298   97.58290100    0.46000001    2.80999994
   17.93999863   99.92890167    0.47999999    2.78999996
   17.94055557   94.98760223    0.47999999    2.78999996
   17.94361115   98.19499969    0.76999998    2.78999996
   17.94666672   99.89869690    1.28999996    2.78999996
   17.95000076   97.97229767    0.79000002    2.78999996
   17.95333481   96.36060333    0.79000002    2.78999996
   17.95639038   91.98190308    0.46000001    2.80999994
   17.95972252   97.69539642    0.63000000    2.78999996
   17.96305656   98.40720367    0.44000000    2.78999996
   17.96638870   98.82939911    0.46000001    2.78999996
   17.96944427   99.19909668    0.44000000    2.80999994
   17.97277832  101.39900208    0.46000001    2.78999996
   17.97389030   95.64060211    0.46000001    2.78999996
   17.97833443   95.64060211    0.46000001    2.78999996
   17.98250008   98.39530182    0.46000001    2.80999994
   17.98583412   90.87930298    0.46000001    2.80999994
   17.98888969   93.51760101    0.46000001    2.80999994
   17.99222183   99.37889862    0.47999999    2.78999996
   17.99527740  100.11100006    0.51999998    2.78999996
   17.99861145  102.09200287    0.47999999    2.78999996
   18.00194359  100.57099915    0.47999999    2.78999996
   18.00499916  101.56500244    0.46000001    2.78999996
   18.00722313   99.49199677    0.46000001    2.78999996
   18.00861168  100.96299744    0.46000001    2.78999996
   18.01194382   96.52709961    0.46000001    2.80999994
   18.01527786   99.56580353    0.46000001    2.80999994
   18.02111053   99.56580353    0.44000000    2.78999996
   18.02527809   96.81510162    0.44000000    2.78999996
   18.02861023   93.09580231    0.44000000    2.78999996
   18.03166580   90.99790192    0.46000001    2.78999996
   18.03499985   97.79440308    0.44000000    2.80999994
   18.03833199   94.34929657    0.44000000    2.80999994
   18.04055595   95.02760315    0.41999999    2.78999996
   18.04166603   96.40229797    0.41999999    2.78999996
   18.04500008   98.58560181    0.41999999    2.78999996
   18.04833221   94.94799805    0.41999999    2.78999996
   18.05138779   97.46510315    0.41999999    2.78999996
   18.05472183   94.87280273    0.41999999    2.80999994
   18.05805397   94.42230225    0.44000000    2.78999996
   18.06416512   94.42230225    0.44000000    2.78999996
   18.06805611   95.37049866    0.47999999    2.78999996
   18.07139015   94.46119690    0.47999999    2.78999996
   18.07389069  100.58999634    0.47999999    2.78999996
   18.07500076   98.21389771    0.50000000    2.78999996
   18.07833481   97.41570282    0.47999999    2.78999996
   18.08166695   92.17430115    0.47999999    2.78999996
   18.08472252   95.95960236    0.46000001    2.78999996
   18.08805656   93.80989838    0.46000001    2.78999996
   18.09138870   91.28199768    0.46000001    2.78999996
   18.09444427   94.90239716    0.46000001    2.78999996
   18.09777832   97.42839813    0.50000000    2.78999996
   18.10083389   94.41819763    0.47999999    2.78999996
   18.10694504   94.41819763    0.47999999    2.78999996
   18.11111069   97.19319916    0.47999999    2.78999996
   18.11416626   94.25319672    0.50000000    2.78999996
   18.11750031   94.63539886    0.47999999    2.78999996
   18.12083435   96.47039795    0.47999999    2.78999996
   18.12388992   98.13990021    0.47999999    2.78999996
   18.12722206   99.29060364    0.47999999    2.78999996
   18.13027763   98.36759949    0.47999999    2.78999996
   18.13361168   98.79450226    0.47999999    2.78999996
   18.13694382  101.22399902    0.51999998    2.78999996
   18.13999939  100.84899902    0.51999998    2.78999996
   18.14194489   97.10150146    0.50000000    2.76999998
   18.14388847  103.15699768    0.50000000    2.76999998
   18.14972115  103.15699768    0.55000001    2.78999996
   18.15388870   97.59179688    0.55000001    2.78999996
   18.15722275   96.53800201    0.52999997    2.76999998
   18.16027832   94.12419891    0.51999998    2.78999996
   18.16361046   96.05799866    0.52999997    2.78999996
   18.16694450   97.30339813    0.52999997    2.78999996
   18.17000008   94.53700256    0.51999998    2.78999996
   18.17333221   94.35459900    0.51999998    2.76999998
   18.17527771   92.65309906    0.50000000    2.78999996
   18.17666626   97.65630341    0.50000000    2.78999996
   18.18000031   92.82230377    0.50000000    2.78999996
   18.18333244   91.34539795    0.50000000    2.78999996
   18.18638802   94.97540283    0.50000000    2.76999998
   18.19249916   94.97540283    0.50000000    2.78999996
   18.19666672   95.90850067    0.50000000    2.76999998
   18.20000076   94.01619720    0.50000000    2.78999996
   18.20305634   96.10769653    0.47999999    2.78999996
   18.20639038   92.97730255    0.47999999    2.78999996
   18.20861244   94.41000366    0.50000000    2.76999998
   18.21000099   98.03179932    0.50000000    2.76999998
   18.21333504   95.25270081    0.50000000    2.78999996
   18.21638870   99.65370178    0.50000000    2.76999998
   18.21972275   98.99819946    0.50000000    2.76999998
   18.22305679   95.14600372    0.55000001    2.78999996
   18.22611237   93.49690247    0.58999997    2.78999996
   18.22944450   94.30069733    0.58999997    2.78999996
   18.23527718   94.30069733    0.70999998    2.78999996
   18.23944473   97.54930115    0.61000001    2.78999996
   18.24194527   98.28399658    0.61000001    2.78999996
   18.24305534   95.56999969    0.79000002    2.76999998
   18.24638939   94.43900299    0.79000002    2.76999998
   18.24944496   94.95590210    0.63000000    2.78999996
   18.25277710   92.46119690    0.55000001    2.78999996
   18.25611115   94.68849945    0.55000001    2.78999996
   18.25916672   91.50260162    0.51999998    2.78999996
   18.26250076   89.75939941    0.55000001    2.76999998
   18.26583290   93.65889740    0.63000000    2.78999996
   18.26888847   92.45439911    0.67000002    2.78999996
   18.27222252   91.55970001    0.67000002    2.78999996
   18.27833366   91.55970001    0.69000000    2.78999996
   18.28249931   93.66780090    0.58999997    2.76999998
   18.28555489   96.53130341    0.58999997    2.76999998
   18.28888893   94.57469940    0.56999999    2.76999998
   18.29222107   96.13459778    0.56999999    2.76999998
   18.29527664   96.66829681    0.50000000    2.78999996
   18.29861069   89.75199890    0.50000000    2.78999996
   18.30194283   97.65010071    0.50000000    2.78999996
   18.30499840   92.13059998    0.50000000    2.78999996
   18.30833244   93.17310333    0.46000001    2.78999996
   18.30916595   92.09850311    0.44000000    2.78999996
   18.31194305  103.27899933    0.44000000    2.78999996
   18.31499863   93.73819733    0.44000000    2.78999996
   18.32111168   93.73819733    0.44000000    2.78999996
   18.32527924   94.80909729    0.44000000    2.76999998
   18.32861137   97.03780365    0.47999999    2.78999996
   18.33166695   97.82530212    0.46000001    2.78999996
   18.33500099  154.79200745    0.46000001    2.78999996
   18.33833313   89.91539764    0.44000000    2.78999996
   18.34138870  100.05899811    0.44000000    2.78999996
   18.34250069   98.36759949    0.44000000    2.78999996
   18.34500122  101.16300201    0.47999999    2.76999998
   18.34861183   95.01670074    0.44000000    2.78999996
   18.35166740   95.90820313    0.44000000    2.78999996
   18.35499954   93.80829620    0.41999999    2.76999998
   18.35833359   95.22209930    0.41999999    2.78999996
   18.36388969   95.22209930    0.44000000    2.78999996
   18.36805534   92.83159637    0.44000000    2.78999996
   18.37138939   99.90299988    0.46000001    2.76999998
   18.37444496  101.44799805    0.44000000    2.78999996
   18.37611198   98.25980377    0.41999999    2.76999998
   18.37833405   95.69370270    0.41999999    2.76999998
   18.38138962   93.69640350    0.44000000    2.78999996
   18.38472176   98.39939880    0.44000000    2.76999998
   18.38805580   96.25140381    0.44000000    2.76999998
   18.39111137   97.47579956    0.44000000    2.78999996
   18.39444351   96.38539886    0.44000000    2.78999996
   18.39749908   92.27850342    0.47999999    2.76999998
   18.40083313   93.25140381    0.47999999    2.76999998
   18.40694427   93.25140381    0.50000000    2.76999998
   18.42527771   94.39520264    0.61000001    2.78999996
   18.42833328   98.92970276    0.63000000    2.76999998
   18.43166542   93.77200317    0.75000000    2.76999998
   18.43499947   90.44550323    0.63000000    2.76999998
   18.43805504   91.76540375    0.67000002    2.78999996
   18.44138718   93.26689911    0.55000001    2.78999996
   18.44472122   96.34420013    0.55000001    2.78999996
   18.45000076   96.34420013    0.52999997    2.76999998
   18.45416832   95.99870300    0.51999998    2.76999998
   18.45722389   96.65850067    0.51999998    2.76999998
   18.45833397   96.89679718    0.51999998    2.76999998
   18.46111107  101.84400177    0.51999998    2.76999998
   18.46444511  100.31999969    0.51999998    2.76999998
   18.46750069  153.56199646    0.51999998    2.76999998
   18.47083473  101.83399963    0.51999998    2.76999998
   18.47416687   99.47239685    0.51999998    2.76999998
   18.47722244  100.59799957    0.55000001    2.76999998
   18.48055649   95.12169647    0.55000001    2.76999998
   18.48361206   99.46859741    0.55000001    2.76999998
   18.48694420   95.58940125    0.55000001    2.76999998
   18.49277878   95.58940125    0.52999997    2.76999998
   18.49694443   99.34680176    0.52999997    2.76999998
   18.50000000   99.68589783    0.63000000    2.76999998
   18.50333405   95.07779694    0.58999997    2.76999998
   18.50666618  102.65200043    0.55000001    2.76999998
   18.50972176   98.95819855    0.55000001    2.76999998
   18.51305580  100.28500366    0.50000000    2.76999998
   18.51638794  101.13500214    0.50000000    2.76999998
   18.51944351  103.12200165    0.47999999    2.75000000
   18.52277756  100.55500031    0.47999999    2.76999998
   18.52499962  104.24099731    0.47999999    2.76999998
   18.52638817   99.16660309    0.47999999    2.76999998
   18.52944374  104.58999634    0.47999999    2.76999998
   18.53583336  104.58999634    0.52999997    2.76999998
   18.53972244  102.52600098    0.52999997    2.76999998
   18.54305458  101.20899963    0.51999998    2.76999998
   18.54638863   95.39939880    0.55000001    2.75000000
   18.54944420   96.07060242    0.52999997    2.76999998
   18.55277634   96.13400269    0.55000001    2.76999998
   18.55611038   96.59339905    0.55000001    2.76999998
   18.55833244   97.35099792    0.55000001    2.76999998
   18.55944443  101.55100250    0.55000001    2.76999998
   18.56277657  107.93499756    0.55000001    2.76999998
   18.56611061   97.65609741    0.70999998    2.76999998
   18.56916809   92.46050262    0.67000002    2.76999998
   18.57250023   99.62059784    0.88000000    2.76999998
   18.57861137   99.62059784    0.64999998    2.78999996
   18.58277893   96.74579620    0.63000000    2.76999998
   18.58583450   95.09719849    0.64999998    2.76999998
   18.58916664   92.12640381    0.64999998    2.76999998
   18.59166718   95.14739990    0.63000000    2.76999998
   18.59277916   87.87059784    0.63000000    2.76999998
   18.59611130   94.70459747    0.58999997    2.78999996
   18.59944534   94.82669830    0.52999997    2.76999998
   18.60250092   96.44799805    0.51999998    2.76999998
   18.60583305   99.81060028    0.55000001    2.76999998
   18.60916710   94.72660065    0.51999998    2.76999998
   18.61222267   96.45469666    0.51999998    2.76999998
   18.61555672   97.96360016    0.52999997    2.76999998
   18.62138939   97.96360016    0.47999999    2.76999998
   18.62555504   94.29000092    0.50000000    2.76999998
   18.62888908   93.60359955    0.56999999    2.76999998
   18.63194466   93.47129822    0.61000001    2.76999998
   18.63527679  100.70800018    0.63000000    2.75000000
   18.63833237   95.00309753    0.63000000    2.75000000
   18.64166641   93.57749939    0.64999998    2.76999998
   18.64500046  100.34300232    0.58999997    2.75000000
   18.64805603   93.23570251    0.63000000    2.76999998
   18.65138817   91.65709686    0.73000002    2.75000000
   18.65472221   93.00389862    0.76999998    2.75000000
   18.65777779   91.87809753    0.76999998    2.75000000
   18.65833282   94.99430084    0.81999999    2.75000000
   18.66416550   94.99430084    0.80000001    2.76999998
   18.66833305   92.51580048    0.67000002    2.75000000
   18.67166519   93.14839935    0.63000000    2.75000000
   18.67472076   93.33350372    0.58999997    2.75000000
   18.67805481   94.12059784    0.56999999    2.75000000
   18.68138885   96.50509644    0.56999999    2.76999998
   18.68444443   98.11849976    0.56999999    2.76999998
   18.68777657   94.87920380    0.61000001    2.76999998
   18.69083214   95.69429779    0.56999999    2.75000000
   18.69166565   93.53430176    0.56999999    2.75000000
   18.69472122   97.29509735    0.55000001    2.76999998
   18.69777679   96.74109650    0.55000001    2.76999998
   18.70111275   96.46479797    0.55000001    2.75000000
   18.70694542   96.46479797    0.55000001    2.75000000
   18.71111107   94.21829987    0.55000001    2.75000000
   18.71444511   95.57859802    0.55000001    2.75000000
   18.71777916   95.26290131    0.58999997    2.76999998
   18.72083473   92.29630280    0.58999997    2.75000000
   18.72416687   92.04940033    0.64999998    2.75000000
   18.72500038  101.09100342    0.64999998    2.75000000
   18.72777748   91.73239899    0.67000002    2.75000000
   18.73083305   96.19339752    0.61000001    2.75000000
   18.73416710   95.12239838    0.56999999    2.75000000
   18.73750114   99.95290375    0.58999997    2.76999998
   18.74055672   95.81890106    0.58999997    2.76999998
   18.74388885   97.07240295    0.61000001    2.75000000
   18.75000000   97.07240295    0.56999999    2.75000000
   18.75416756   99.41680145    0.58999997    2.75000000
   18.75722313   97.95259857    0.61000001    2.75000000
   18.75833321   94.52890015    0.61000001    2.75000000
   18.76111031  103.91200256    0.55000001    2.75000000
   18.76416588   96.92400360    0.50000000    2.75000000
   18.76749992  102.09300232    0.46000001    2.75000000
   18.77083397   97.31009674    0.46000001    2.75000000
   18.77388954   98.45719910    0.44000000    2.75000000
   18.77722168   96.76069641    0.44000000    2.75000000
   18.78027725   95.46800232    0.46000001    2.75000000
   18.78361130   97.60330200    0.46000001    2.76999998
   18.78694344   99.16069794    0.46000001    2.75000000
   18.79277802   99.16069794    0.47999999    2.75000000
   18.79694366   97.86389923    0.46000001    2.75000000
   18.79999924   97.86849976    0.46000001    2.75000000
   18.80333328   98.41310120    0.46000001    2.75000000
   18.80666542  104.58499908    0.46000001    2.75000000
   18.80972099   97.33260345    0.46000001    2.75000000
   18.81305504  102.13500214    0.46000001    2.75000000
   18.81638718   96.52980042    0.44000000    2.75000000
   18.81944466   99.60050201    0.44000000    2.75000000
   18.82277870   96.05860138    0.41999999    2.75000000
   18.82500076   98.04479980    0.40000001    2.75000000
   18.82638931   97.91159821    0.40000001    2.75000000
   18.82944489   96.32949829    0.44000000    2.75000000
   18.83555603   96.32949829    0.46000001    2.75000000
   18.83972359   99.54440308    0.46000001    2.75000000
   18.84305573   96.65070343    0.47999999    2.75000000
   18.84611130   95.61239624    0.50000000    2.75000000
   18.84944534  101.94000244    0.47999999    2.75000000
   18.85277748  102.21700287    0.50000000    2.75000000
   18.85583305  107.33499908    0.51999998    2.75000000
   18.85833359   93.03939819    0.51999998    2.75000000
   18.85972214   97.93990326    0.51999998    2.75000000
   18.86277771  104.72699738    0.51999998    2.75000000
   18.86611176   93.85230255    0.47999999    2.75000000
   18.86944389  103.34300232    0.47999999    2.75000000
   18.87249947   96.29290009    0.47999999    2.75000000
   18.87861061   96.29290009    0.46000001    2.75000000
   18.88277817  101.26000214    0.47999999    2.75000000
   18.88611031  102.16200256    0.47999999    2.73000002
   18.88916588  103.48300171    0.47999999    2.75000000
   18.89166641   97.01429749    0.47999999    2.75000000
   18.89305496   98.98729706    0.51999998    2.75000000
   18.89611053   94.33609772    0.51999998    2.75000000
   18.89944458   98.56169891    0.51999998    2.73000002
   18.90277672   98.22489929    0.52999997    2.75000000
   18.90583229   94.46540070    0.51999998    2.73000002
   18.90916634  100.34300232    0.52999997    2.75000000
   18.91250038   98.05419922    0.52999997    2.73000002
   18.91555595   99.09200287    0.55000001    2.75000000
   18.92138863   99.09200287    0.55000001    2.73000002
   18.92555428   94.89739990    0.55000001    2.75000000
   18.92860985   92.27610016    0.55000001    2.73000002
   18.93194389   99.04519653    0.55000001    2.73000002
   18.93527603   97.15489960    0.55000001    2.73000002
   18.93833160  100.69799805    0.55000001    2.73000002
   18.94166565   98.55719757    0.56999999    2.73000002
   18.94472122   93.96679688    0.52999997    2.73000002
   18.94805527   91.90959930    0.52999997    2.73000002
   18.95138931   95.64369965    0.56999999    2.73000002
   18.95444489   97.02380371    0.58999997    2.73000002
   18.95777893  101.31300354    0.58999997    2.75000000
   18.95833397   98.20880127    0.58999997    2.75000000
   18.96416664   98.20880127    0.52999997    2.73000002
   18.96833420   96.52220154    0.51999998    2.75000000
   18.97138977  104.73899841    0.50000000    2.75000000
   18.97472191  101.58300018    0.47999999    2.73000002
   18.97805595   97.44850159    0.51999998    2.73000002
   18.98139000   97.15309906    0.52999997    2.73000002
   18.98444557   96.67569733    0.56999999    2.73000002
   18.98777771   93.77780151    0.56999999    2.73000002
   18.99111176   99.28450012    0.61000001    2.73000002
   18.99166679  102.84500122    0.61000001    2.73000002
   18.99472237   96.68379974    0.64999998    2.73000002
   18.99777794   92.23539734    0.67000002    2.73000002
   19.00111198   97.59030151    0.69000000    2.73000002
   19.00694466   97.59030151    0.67000002    2.75000000
   19.01111031   95.07540131    0.61000001    2.75000000
   19.01444435   91.54219818    0.61000001    2.75000000
   19.01749992   94.55940247    0.56999999    2.75000000
   19.02083397   95.06629944    0.56999999    2.73000002
   19.02416611   95.05190277    0.55000001    2.75000000
   19.02499962   98.40519714    0.55000001    2.75000000
   19.02777672   98.72660065    0.55000001    2.73000002
   19.03083229   97.09300232    0.55000001    2.75000000
   19.03416634   96.06379700    0.52999997    2.75000000
   19.03750038   99.07949829    0.52999997    2.75000000
   19.04055595   92.01679993    0.51999998    2.75000000
   19.04388809   94.01399994    0.58999997    2.73000002
   19.04999924   94.01399994    0.80000001    2.73000002
   19.05416679   93.75509644    0.69000000    2.73000002
   19.05722237  100.15699768    0.69000000    2.71000004
   19.05833244   92.56120300    0.69000000    2.71000004
   19.06083298  103.75900269    0.69000000    2.71000004
   19.06388855   95.84739685    0.75000000    2.73000002
   19.06722260   98.50949860    0.75000000    2.73000002
   19.07055664   93.64990234    0.79000002    2.73000002
   19.07361221   96.66179657    0.70999998    2.71000004
   19.07694626   99.55490112    0.58999997    2.73000002
   19.08027840   92.01129913    0.52999997    2.73000002
   19.08333397   97.08470154    0.52999997    2.73000002
   19.08666801   97.99919891    0.55000001    2.73000002
   19.09277916   97.99919891    0.55000001    2.73000002
   19.09694481   96.51149750    0.47999999    2.73000002
   19.10000038   90.14479828    0.47999999    2.73000002
   19.10333443   93.92559814    0.46000001    2.73000002
   19.10666656  100.32199860    0.46000001    2.71000004
   19.10972214   95.08480072    0.50000000    2.71000004
   19.11305618   94.98940277    0.50000000    2.71000004
   19.11638832   92.94429779    0.46000001    2.71000004
   19.11944389   91.88200378    0.47999999    2.71000004
   19.12277794  100.73500061    0.47999999    2.71000004
   19.12500000   97.20549774    0.47999999    2.71000004
   19.12638855   95.81860352    0.47999999    2.71000004
   19.12944412   98.77709961    0.51999998    2.71000004
   19.13555527   98.77709961    0.51999998    2.71000004
   19.13972282   93.36250305    0.47999999    2.71000004
   19.14277840   93.05249786    0.47999999    2.71000004
   19.14611053   98.85829926    0.47999999    2.71000004
   19.14944458   95.46589661    0.50000000    2.71000004
   19.15277672  103.38999939    0.50000000    2.71000004
   19.15583229   97.78420258    0.50000000    2.71000004
   19.15833282   98.86589813    0.51999998    2.71000004
   19.15972137   95.50869751    0.51999998    2.71000004
   19.16277695  100.07499695    0.56999999    2.71000004
   19.16611099   99.84259796    0.58999997    2.71000004
   19.16944313   97.80370331    0.58999997    2.71000004
   19.17249870   99.87779999    0.58999997    2.69000006
   19.17833328   99.87779999    0.63000000    2.71000004
   19.18249893   95.79910278    0.61000001    2.69000006
   19.18583298   96.19490051    0.61000001    2.69000006
   19.18888855   95.35510254    0.58999997    2.69000006
   19.19166565   96.93329620    0.56999999    2.71000004
   19.19277763   94.69249725    0.56999999    2.71000004
   19.19583321   97.41120148    0.61000001    2.69000006
   19.19916534   98.82859802    0.52999997    2.71000004
   19.20250130   96.08509827    0.52999997    2.71000004
   19.20555687   96.18270111    0.50000000    2.71000004
   19.20888901   93.85739899    0.50000000    2.71000004
   19.21222305   98.79149628    0.50000000    2.71000004
   19.21527863   98.79370117    0.51999998    2.71000004
   19.22138977   98.79370117    0.50000000    2.71000004
   19.22527885   98.55380249    0.50000000    2.71000004
   19.22861099  101.56700134    0.50000000    2.71000004
   19.23194504   96.27839661    0.63000000    2.69000006
   19.23500061  100.83799744    0.67000002    2.69000006
   19.23833275   97.94319916    0.64999998    2.69000006
   19.24166679  101.21800232    0.64999998    2.69000006
   19.24472237  101.20800018    0.55000001    2.69000006
   19.24805641   98.88110352    0.55000001    2.69000006
   19.25111198   97.20469666    0.58999997    2.69000006
   19.25444412   97.24259949    0.61000001    2.69000006
   19.25777817  102.28099823    0.52999997    2.69000006
   19.25833321   97.56259918    0.52999997    2.69000006
   19.26416588   97.56259918    0.50000000    2.69000006
   19.26833344  101.82399750    0.51999998    2.71000004
   19.27138901   93.10500336    0.55000001    2.69000006
   19.27472115   90.42410278    0.69000000    2.71000004
   19.27805519   97.84899902    0.69000000    2.71000004
   19.28111076  100.98899841    0.61000001    2.69000006
   19.28444481   93.54489899    0.50000000    2.71000004
   19.28750038   95.01909637    0.52999997    2.69000006
   19.29083252   95.29530334    0.51999998    2.69000006
   19.29166603   97.76740265    0.51999998    2.69000006
   19.29444313   88.88569641    0.51999998    2.69000006
   19.29749870   97.79000092    0.51999998    2.69000006
   19.30083275   93.40779877    0.51999998    2.69000006
   19.30694389   93.40779877    0.56999999    2.69000006
   19.31110954   94.43470001    0.56999999    2.69000006
   19.31444359   94.69819641    0.56999999    2.69000006
   19.31750107   98.00839996    0.55000001    2.69000006
   19.32083511   99.64849854    0.55000001    2.69000006
   19.32416725   96.59259796    0.55000001    2.69000006
   19.32500076   96.16120148    0.55000001    2.69000006
   19.32777786   98.11969757    0.55000001    2.69000006
   19.33083344   98.82319641    0.55000001    2.69000006
   19.33416748  104.61499786    0.55000001    2.69000006
   19.33750153  101.74600220    0.55000001    2.69000006
   19.34055710  101.00199890    0.52999997    2.69000006
   19.34388924   98.89330292    0.51999998    2.69000006
   19.34972191   98.89330292    0.51999998    2.69000006
   19.35388947   95.37680054    0.52999997    2.69000006
   19.35722351   91.17269897    0.52999997    2.69000006
   19.35833359   95.14330292    0.52999997    2.69000006
   19.36083412   93.81890106    0.52999997    2.69000006
   19.36388969   97.98169708    0.55000001    2.69000006
   19.36722183  100.11000061    0.52999997    2.69000006
   19.37055588   99.51599884    0.52999997    2.69000006
   19.37361145  103.87400055    0.52999997    2.69000006
   19.37694550   96.64230347    0.51999998    2.69000006
   19.38027763   98.97869873    0.50000000    2.69000006
   19.38333321   97.45760345    0.50000000    2.69000006
   19.38666725   98.25440216    0.47999999    2.69000006
   19.39277840   98.25440216    0.47999999    2.69000006
   19.39666748   91.36100006    0.51999998    2.71000004
   19.39999962   96.34500122    0.50000000    2.69000006
   19.40333366   98.83159637    0.50000000    2.69000006
   19.40638924   95.41680145    0.46000001    2.69000006
   19.40972137   98.84310150    0.47999999    2.69000006
   19.41305542  101.04399872    0.47999999    2.69000006
   19.41611099   93.69239807    0.51999998    2.69000006
   19.41944313   98.15740204    0.51999998    2.69000006
   19.42277718  100.09799957    0.52999997    2.69000006
   19.42499924   98.84079742    0.52999997    2.69000006
   19.44583321   98.84079742    0.51999998    2.69000006
   19.45000076   91.43399811    0.55000001    2.69000006
   19.45305634   94.84929657    0.58999997    2.69000006
   19.45639038   96.31690216    0.58999997    2.69000006
   19.45833397   90.36150360    0.58999997    2.69000006
   19.46000099   91.00789642    0.58999997    2.69000006
   19.46333504   95.90090179    0.63000000    2.67000008
   19.46638870   99.80200195    0.63000000    2.69000006
   19.46972275   94.48650360    0.64999998    2.69000006
   19.47277832   93.38009644    0.63000000    2.67000008
   19.47611237   92.94570160    0.63000000    2.67000008
   19.47944450  101.34200287    0.64999998    2.69000006
   19.48250008   93.32009888    0.63000000    2.67000008
   19.48861122   93.32009888    0.69000000    2.69000006
   19.49250031   94.39710236    0.58999997    2.69000006
   19.49583435   96.21800232    0.56999999    2.69000006
   19.49916649   94.34390259    0.55000001    2.67000008
   19.50250053   96.24189758    0.51999998    2.67000008
   19.50555611   93.24009705    0.52999997    2.67000008
   19.50888824   95.34420013    0.52999997    2.67000008
   19.51222229   99.16979980    0.52999997    2.67000008
   19.51527786   94.69930267    0.56999999    2.67000008
   19.51861000   96.57759857    0.52999997    2.67000008
   19.52194405   97.48490143    0.51999998    2.67000008
   19.52499962   91.86730194    0.52999997    2.67000008
   19.52555466   94.17109680    0.52999997    2.67000008
   19.53138924   94.17109680    0.55000001    2.67000008
   19.53555489   93.64820099    0.56999999    2.67000008
   19.53861046   96.74130249    0.56999999    2.67000008
   19.54194450   96.54820251    0.58999997    2.67000008
   19.54500008   99.50409698    0.61000001    2.67000008
   19.54833221   94.91709900    0.61000001    2.67000008
   19.55166626   99.34349823    0.58999997    2.67000008
   19.55472183  100.35199738    0.63000000    2.67000008
   19.55805397   91.72399902    0.63000000    2.67000008
   19.55861092   93.93879700    0.63000000    2.67000008
   19.56138802   97.69889832    0.63000000    2.67000008
   19.56472206   95.27290344    0.61000001    2.67000008
   19.56805611   93.63159943    0.61000001    2.67000008
   19.57416725   93.63159943    0.56999999    2.67000008
   19.57833481   96.90249634    0.58999997    2.67000008
   19.58139038   95.13760376    0.61000001    2.67000008
   19.58472252   95.66680145    0.58999997    2.67000008
   19.58805656   98.25659943    0.55000001    2.67000008
   19.59111214   94.37339783    0.52999997    2.67000008
   19.59194565   97.33959961    0.52999997    2.67000008
   19.59500122  118.30300140    0.51999998    2.67000008
   19.59805679   94.44830322    0.51999998    2.67000008
   19.60138893   97.33280182    0.51999998    2.67000008
   19.60444450   95.81099701    0.52999997    2.67000008
   19.60777855   94.76460266    0.51999998    2.67000008
   19.61111069   97.63629913    0.51999998    2.67000008
   19.61694527   97.63629913    0.52999997    2.67000008
   19.62111092  100.77300262    0.55000001    2.66000009
   19.62444496   97.24109650    0.55000001    2.66000009
   19.62527847  101.59899902    0.55000001    2.67000008
   19.62777710   96.60379791    0.55000001    2.67000008
   19.63111115   98.28019714    0.55000001    2.67000008
   19.63444519   92.96230316    0.56999999    2.66000009
   19.63750076  102.79699707    0.56999999    2.66000009
   19.64083290  100.61399841    0.56999999    2.66000009
   19.64416695  109.22200012    0.58999997    2.66000009
   19.64722252   97.79370117    0.58999997    2.66000009
   19.65055466  102.00800323    0.58999997    2.66000009
   19.65361023  101.56400299    0.58999997    2.66000009
   19.65999985  101.56400299    0.58999997    2.66000009
   19.66388893   99.98290253    0.58999997    2.66000009
   19.66722107   97.72779846    0.61000001    2.66000009
   19.67055511  100.57800293    0.58999997    2.66000009
   19.67361069  100.95899963    0.58999997    2.66000009
   19.67694473   99.80259705    0.58999997    2.66000009
   19.68027687  100.80200195    0.58999997    2.66000009
   19.68333244   94.97339630    0.58999997    2.66000009
   19.68666649   97.18479919    0.61000001    2.66000009
   19.68999863   93.38210297    0.63000000    2.66000009
   19.69194412   95.86740112    0.63000000    2.66000009
   19.69333267   96.35060120    0.63000000    2.66000009
   19.69666672   96.02100372    0.64999998    2.66000009
   19.70277786   96.02100372    0.73000002    2.64000010
   19.70694542   93.85829926    0.73000002    2.64000010
   19.71000099   96.92250061    0.70999998    2.64000010
   19.71333504   98.17680359    0.69000000    2.64000010
   19.71666718  106.01300049    0.64999998    2.64000010
   19.71972275   94.32959747    0.64999998    2.64000010
   19.72305679   97.47940063    0.64999998    2.64000010
   19.72527885  100.76899719    0.63000000    2.64000010
   19.72638893   93.86090088    0.63000000    2.64000010
   19.72972298   95.57109833    0.63000000    2.64000010
   19.73305511   98.42469788    0.64999998    2.66000009
   19.73611069   93.03790283    0.63000000    2.64000010
   19.73944473   87.47530365    0.63000000    2.64000010
   19.74555588   87.47530365    0.63000000    2.66000009
   19.74972153   97.14739990    0.61000001    2.64000010
   19.75277710   96.06269836    0.61000001    2.64000010
   19.75611115   92.29959869    0.58999997    2.66000009
   19.75861168   97.23609924    0.61000001    2.66000009
   19.76000023   99.18949890    0.61000001    2.66000009
   19.76305580   98.31829834    0.55000001    2.66000009
   19.76638794   94.65019989    0.56999999    2.66000009
   19.76972198   99.81520081    0.55000001    2.64000010
   19.77277756   97.53530121    0.55000001    2.66000009
   19.77611160  100.78099823    0.55000001    2.66000009
   19.77916718   93.49400330    0.58999997    2.66000009
   19.78249931   89.81500244    0.61000001    2.64000010
   19.78833199   89.81500244    0.63000000    2.66000009
   19.79249954   96.94979858    0.61000001    2.64000010
   19.79583359   96.27629852    0.58999997    2.66000009
   19.79888916  100.44999695    0.58999997    2.66000009
   19.80222130   97.06929779    0.58999997    2.64000010
   19.80555534   95.49810028    0.58999997    2.66000009
   19.80861092   99.70429993    0.58999997    2.64000010
   19.81194305   96.96029663    0.67000002    2.66000009
   19.81527710   93.16909790    0.63000000    2.66000009
   19.81833458   95.27519989    0.63000000    2.66000009
   19.82166672   96.59400177    0.58999997    2.64000010
   19.82472229   93.95369720    0.64999998    2.64000010
   19.82527924   93.92810059    0.64999998    2.64000010
   19.83111191   93.92810059    0.63000000    2.64000010
   19.83527756   95.58020020    0.63000000    2.64000010
   19.83861160   93.28230286    0.61000001    2.64000010
   19.84194565   94.92849731    0.61000001    2.64000010
   19.84500122   97.76360321    0.61000001    2.64000010
   19.84833336  101.33699799    0.61000001    2.64000010
   19.85138893  100.05200195    0.61000001    2.64000010
   19.85472298  100.35299683    0.61000001    2.64000010
   19.85805511   99.28839874    0.61000001    2.64000010
   19.85861206   94.85859680    0.61000001    2.64000010
   19.86166763   97.20050049    0.61000001    2.64000010
   19.86499977   98.99629974    0.69000000    2.64000010
   19.86805534  104.39900208    0.73000002    2.64000010
   19.87416649  104.39900208    0.67000002    2.64000010
   19.87833405   94.44309998    0.67000002    2.64000010
   19.88138962   94.60189819    0.64999998    2.64000010
   19.88472176   96.60870361    0.64999998    2.64000010
   19.88777733   96.27130127    0.64999998    2.64000010
   19.89111137   92.62989807    0.61000001    2.64000010
   19.89194489  102.88999939    0.58999997    2.64000010
   19.89472198   92.75299835    0.58999997    2.64000010
   19.89805603   96.79160309    0.61000001    2.61999989
   19.90111160   95.70379639    0.63000000    2.61999989
   19.90444374   95.11409760    0.63000000    2.61999989
   19.90749931   99.04550171    0.61000001    2.61999989
   19.91083336   92.31390381    0.61000001    2.61999989
   19.91694450   92.31390381    0.58999997    2.64000010
   19.92111015   92.40000153    0.56999999    2.61999989
   19.92444420   99.16049957    0.56999999    2.64000010
   19.92527771   98.45059967    0.56999999    2.64000010
   19.92805481  102.00299835    0.55000001    2.64000010
   19.93138885   95.88040161    0.56999999    2.61999989
   19.93444443   97.76219940    0.58999997    2.64000010
   19.93777657   99.06780243    0.58999997    2.64000010
   19.94111061   96.09739685    0.56999999    2.64000010
   19.94416618   94.30100250    0.56999999    2.64000010
   19.94749832   93.52770233    0.56999999    2.64000010
   19.95083427  100.03199768    0.58999997    2.64000010
   19.95388985  101.19599915    0.61000001    2.64000010
   19.95972252  101.19599915    0.67000002    2.64000010
   19.96389008   92.46549988    0.69000000    2.64000010
   19.96722221   98.99310303    0.58999997    2.64000010
   19.97027779   96.26580048    0.58999997    2.64000010
   19.97389030   99.11540222    0.56999999    2.64000010
   19.97694588  102.05400085    0.55000001    2.64000010
   19.98027802  100.02700043    0.55000001    2.64000010
   19.98333359  100.82800293    0.52999997    2.64000010
   19.98666763   97.51270294    0.52999997    2.64000010
   19.98999977  100.15299988    0.55000001    2.64000010
   19.99194527   95.59819794    0.58999997    2.64000010
   19.99361229   95.78160095    0.58999997    2.64000010
   19.99694443   95.35369873    0.61000001    2.61999989
   20.00250053   95.35369873    0.67000002    2.61999989
   20.00666618   94.25640106    0.69000000    2.64000010
   20.01000023  101.49900055    0.67000002    2.61999989
   20.01333427   99.08159637    0.69000000    2.61999989
   20.01638794   97.95099640    0.69000000    2.61999989
   20.01972198   94.92980194    0.70999998    2.61999989
   20.02305603   99.95800018    0.73000002    2.64000010
   20.02527809   96.02600098    0.70999998    2.61999989
   20.02666664   94.55239868    0.70999998    2.61999989
   20.03000069   96.38790131    0.69000000    2.61999989
   20.03305435   93.33640289    0.67000002    2.61999989
   20.03638840  136.58799744    0.69000000    2.61999989
   20.03972244   97.77159882    0.69000000    2.61999989
   20.04555511   97.77159882    0.69000000    2.61999989
   20.04972076   94.78099823    0.69000000    2.61999989
   20.05277634   97.57700348    0.70999998    2.61999989
   20.05611038   92.53639984    0.73000002    2.61999989
   20.05861092  101.59999847    0.73000002    2.61999989
   20.05972099   99.77989960    0.73000002    2.61999989
   20.06305504   98.22380066    0.70999998    2.61999989
   20.06611061   97.48979950    0.70999998    2.61999989
   20.06944466   97.75209808    0.69000000    2.61999989
   20.07277870   94.19999695    0.69000000    2.64000010
   20.07583427   92.65180206    0.69000000    2.61999989
   20.07916832   93.78949738    0.67000002    2.61999989
   20.08222389   93.22440338    0.69000000    2.61999989
   20.08833313   93.22440338    0.67000002    2.61999989
   20.09250069   94.42440033    0.64999998    2.61999989
   20.09583473   95.25199890    0.64999998    2.61999989
   20.09889030  101.36699677    0.64999998    2.61999989
   20.10222244   97.93499756    0.64999998    2.61999989
   20.10555649   96.93969727    0.64999998    2.61999989
   20.10861206  100.54699707    0.64999998    2.61999989
   20.11194420  100.43900299    0.63000000    2.61999989
   20.11527824   95.83599854    0.63000000    2.61999989
   20.11833382   95.14399719    0.63000000    2.61999989
   20.12166595  101.99600220    0.63000000    2.64000010
   20.12500000  104.72599792    0.61000001    2.61999989
   20.12527847   99.11129761    0.61000001    2.61999989
   20.13111115   99.11129761    0.61000001    2.59999990
   20.13527679   98.04820251    0.61000001    2.61999989
   20.13861084   93.79389954    0.61000001    2.61999989
   20.14166641  100.29900360    0.61000001    2.61999989
   20.14500046   98.14710236    0.56999999    2.59999990
   20.14833260   97.64289856    0.56999999    2.59999990
   20.15138817  100.48799896    0.56999999    2.59999990
   20.15472221   98.28209686    0.55000001    2.61999989
   20.15805435   95.09760284    0.56999999    2.59999990
   20.15861130  100.25099945    0.56999999    2.59999990
   20.16138840   93.57939911    0.56999999    2.59999990
   20.16472244  101.62799835    0.56999999    2.59999990
   20.16777802  101.21199799    0.56999999    2.57999992
   20.17388916  101.21199799    0.56999999    2.59999990
   20.17805481   98.81359863    0.58999997    2.59999990
   20.18138885   93.55100250    0.61000001    2.59999990
   20.18472099   97.54789734    0.63000000    2.59999990
   20.18777657  100.37100220    0.63000000    2.59999990
   20.19111061   94.50270081    0.64999998    2.59999990
   20.19194412   94.56909943    0.64999998    2.59999990
   20.19472122   96.72090149    0.63000000    2.57999992
   20.19805527   95.77110291    0.63000000    2.57999992
   20.20111275   99.50140381    0.63000000    2.59999990
   20.20444489   98.11219788    0.63000000    2.59999990
   20.20777893   95.46309662    0.64999998    2.59999990
   20.21083450  101.86299896    0.63000000    2.57999992
   20.21694565  101.86299896    0.64999998    2.59999990
   20.22111130   96.41919708    0.64999998    2.59999990
   20.22416687   94.80460358    0.63000000    2.59999990
   20.22527885   98.33910370    0.63000000    2.59999990
   20.22777748   99.53469849    0.61000001    2.59999990
   20.23111153  102.49800110    0.61000001    2.59999990
   20.23416710   94.07839966    0.58999997    2.59999990
   20.23750114   96.39250183    0.61000001    2.59999990
   20.24083328   92.85919952    0.61000001    2.59999990
   20.24388885   97.10150146    0.63000000    2.59999990
   20.24722290   94.12779999    0.63000000    2.59999990
   20.25027847   97.29119873    0.63000000    2.59999990
   20.25361061   97.39089966    0.63000000    2.59999990
   20.25972176   97.39089966    0.63000000    2.57999992
   20.26388931   94.57920074    0.63000000    2.59999990
   20.26722145   95.82910156    0.63000000    2.59999990
   20.27027702   93.97470093    0.63000000    2.59999990
   20.27361107   95.01460266    0.61000001    2.57999992
   20.27666664   95.31539917    0.61000001    2.57999992
   20.28000069   95.65480042    0.61000001    2.57999992
   20.28333282   93.92510223    0.61000001    2.57999992
   20.28638840   92.94100189    0.61000001    2.57999992
   20.28972244   92.74269867    0.63000000    2.57999992
   20.29194450   96.65409851    0.63000000    2.57999992
   20.29333305   98.34210205    0.63000000    2.57999992
   20.29666710   99.69999695    0.63000000    2.57999992
   20.30249977   99.69999695    0.63000000    2.57999992
   20.30666542   93.41159821    0.69000000    2.57999992
   20.30999947   94.68640137    0.70999998    2.57999992
   20.31305504   95.23690033    0.67000002    2.57999992
   20.31638718   93.71340179    0.61000001    2.57999992
   20.31972313   95.15589905    0.58999997    2.57999992
   20.32277870  100.28600311    0.58999997    2.57999992
   20.32555580   99.19370270    0.56999999    2.57999992
   20.32666779  101.46499634    0.56999999    2.57999992
   20.32972336   95.41200256    0.58999997    2.57999992
   20.33305550   96.47859955    0.58999997    2.57999992
   20.33638954   95.20600128    0.58999997    2.57999992
   20.33944511  100.45099640    0.58999997    2.57999992
   20.34527779  100.45099640    0.63000000    2.57999992
   20.34944534   94.45020294    0.63000000    2.57999992
   20.35277748   93.33180237    0.58999997    2.57999992
   20.35611153   96.67610168    0.63000000    2.55999994
   20.35888863  101.48400116    0.67000002    2.57999992
   20.35944557   91.59940338    0.67000002    2.57999992
   20.36277771  101.43199921    0.67000002    2.57999992
   20.36611176   93.41729736    0.69000000    2.55999994
   20.36916733   92.59750366    0.64999998    2.55999994
   20.37249947   92.89800262    0.64999998    2.55999994
   20.37583351  100.87300110    0.64999998    2.55999994
   20.37888908   91.41660309    0.64999998    2.55999994
   20.38222313   96.80110168    0.64999998    2.55999994
   20.38833237   96.80110168    0.61000001    2.55999994
   20.39249992   96.32510376    0.58999997    2.55999994
   20.39555550   95.02100372    0.58999997    2.55999994
   20.39888954   97.36869812    0.61000001    2.55999994
   20.40222168   95.30619812    0.61000001    2.55999994
   20.40527725   93.48100281    0.58999997    2.55999994
   20.40861130   92.87339783    0.61000001    2.55999994
   20.41166687   94.87940216    0.58999997    2.55999994
   20.41499901   93.67420197    0.58999997    2.55999994
   20.41833305   92.33129883    0.61000001    2.55999994
   20.42138863  104.17600250    0.63000000    2.55999994
   20.42472076   92.70880127    0.63000000    2.57999992
   20.42555428   94.26329803    0.63000000    2.57999992
   20.43111038   94.26329803    0.63000000    2.55999994
   20.43527603   97.06690216    0.63000000    2.55999994
   20.43833160   94.43309784    0.64999998    2.55999994
   20.44166565   93.24890137    0.67000002    2.55999994
   20.45916748   94.48860168    0.73000002    2.55999994
   20.46166801   94.13800049    0.70999998    2.55999994
   20.46500015   92.69809723    0.70999998    2.55999994
   20.46805573   92.02929688    0.70999998    2.55999994
   20.47416687   92.02929688    0.79000002    2.55999994
   20.47833443   97.53700256    0.67000002    2.55999994
   20.48139000   96.39939880    0.64999998    2.55999994
   20.48472214   99.69689941    0.64999998    2.55999994
   20.48805618   98.22489929    0.64999998    2.55999994
   20.49111176  100.30100250    0.70999998    2.55999994
   20.49250031   97.50379944    0.70999998    2.55999994
   20.49472237   94.43569946    0.69000000    2.55999994
   20.49777794   97.80239868    0.69000000    2.55999994
   20.50111198   98.14869690    0.73000002    2.55999994
   20.50444412  100.35099792    0.73000002    2.55999994
   20.50749969   96.24299622    0.70999998    2.55999994
   20.51083374   94.93569946    0.67000002    2.55999994
   20.51694489   94.93569946    0.63000000    2.55999994
   20.52111053   91.61589813    0.64999998    2.55999994
   20.52444458   95.31400299    0.63000000    2.55999994
   20.52583313   97.29209900    0.63000000    2.55999994
   20.52805519   98.04630280    0.70999998    2.53999996
   20.53111076   98.74479675    0.67000002    2.53999996
   20.53444481   95.90070343    0.70999998    2.55999994
   20.53777695   98.45999908    0.70999998    2.55999994
   20.54083252  100.33699799    0.70999998    2.55999994
   20.54416656  102.52200317    0.69000000    2.53999996
   20.54749870   97.41629791    0.70999998    2.53999996
   20.55083275   94.64579773    0.69000000    2.53999996
   20.55416679   93.21099854    0.67000002    2.53999996
   20.55972099   93.21099854    0.64999998    2.53999996
   20.56388855   91.94329834    0.64999998    2.53999996
   20.56722260   99.66760254    0.64999998    2.53999996
   20.57027817   96.05899811    0.63000000    2.55999994
   20.57361221   97.18180084    0.63000000    2.53999996
   20.57694626   93.45549774    0.64999998    2.53999996
   20.58000183   92.64959717    0.64999998    2.53999996
   20.58333397   93.62319946    0.64999998    2.53999996
   20.58666801   92.48639679    0.64999998    2.53999996
   20.58972359  101.81500244    0.64999998    2.53999996
   20.59250069  100.60600281    0.63000000    2.53999996
   20.59333420   95.68990326    0.63000000    2.53999996
   20.59666824   98.52079773    0.63000000    2.53999996
   20.60277748   98.52079773    0.63000000    2.53999996
   20.60666656   92.45570374    0.63000000    2.53999996
   20.61000061   95.31590271    0.63000000    2.53999996
   20.61333466   88.74620056    0.63000000    2.53999996
   20.61638832   96.01020050    0.63000000    2.53999996
   20.61972237   93.15959930    0.61000001    2.51999998
   20.62305641   93.05319977    0.63000000    2.53999996
   20.62583351   94.59269714    0.73000002    2.51999998
   20.62666702   97.98040009    0.73000002    2.51999998
   20.63000107   95.55799866    0.80000001    2.53999996
   20.63305473   94.20629883    0.79000002    2.53999996
   20.63638878   93.20549774    0.79000002    2.53999996
   20.63972282   97.76830292    0.79000002    2.53999996
   20.64555550   97.76830292    0.73000002    2.51999998
   20.64972115   98.38729858    0.70999998    2.51999998
   20.65277672   93.09400177    0.70999998    2.51999998
   20.65611076   90.14959717    0.70999998    2.51999998
   20.65916634   95.43240356    0.70999998    2.51999998
   20.65972137   90.35119629    0.70999998    2.51999998
   20.66305542   86.91809845    0.69000000    2.51999998
   20.66638756   93.01640320    0.67000002    2.51999998
   20.66944313   97.29160309    0.67000002    2.51999998
   20.67277718   91.85949707    0.67000002    2.51999998
   20.67611122   95.38030243    0.67000002    2.51999998
   20.67916679   92.20649719    0.69000000    2.53999996
   20.68249893   99.15010071    0.69000000    2.53999996
   20.68833160   99.15010071    0.70999998    2.51999998
   20.69249916  104.89299774    0.69000000    2.51999998
   20.69305420   89.90850067    0.69000000    2.51999998
   20.69610977   88.92099762    0.69000000    2.51999998
   20.69944382   91.34770203    0.70999998    2.51999998
   20.70277786   97.72290039    0.69000000    2.51999998
   20.70583344   93.88700104    0.69000000    2.50000000
   20.70916748   97.41639709    0.69000000    2.51999998
   20.71250153  102.47899628    0.69000000    2.51999998
   20.71555710   97.22319794    0.69000000    2.51999998
   20.71888924   97.08660126    0.67000002    2.51999998
   20.72194481   97.70069885    0.69000000    2.51999998
   20.72527885   97.10449982    0.69000000    2.51999998
   20.72638893   97.00009918    0.69000000    2.51999998
   20.73111153   97.00009918    0.70999998    2.51999998
   20.73527718   96.42669678    0.70999998    2.50000000
   20.73861122   92.41030121    0.69000000    2.51999998
   20.74166679   92.21099854    0.69000000    2.51999998
   20.74500084   97.88899994    0.69000000    2.51999998
   20.74833298  102.72899628    0.69000000    2.50000000
   20.75138855  101.03900146    0.69000000    2.51999998
   20.75472260   91.30259705    0.69000000    2.51999998
   20.75805473   98.05359650    0.69000000    2.50000000
   20.75972176   96.54350281    0.69000000    2.50000000
   20.76138878   97.28320313    0.70999998    2.51999998
   20.76472282   98.48210144    0.70999998    2.51999998
   20.76805496   92.98090363    0.75000000    2.50000000
   20.77416611   92.98090363    0.75000000    2.50000000
   20.77805519   92.69129944    0.75000000    2.50000000
   20.78138924   91.26110077    0.73000002    2.50000000
   20.78472137   98.16529846    0.73000002    2.50000000
   20.78777695   96.45629883    0.73000002    2.50000000
   20.79111099   94.96569824    0.73000002    2.50000000
   20.79305458  101.82800293    0.73000002    2.50000000
   20.79472160   96.81269836    0.73000002    2.50000000
   20.79777718   97.94570160    0.75000000    2.51999998
   20.80111122   97.77850342    0.75000000    2.51999998
   20.80444336   97.78279877    0.73000002    2.50000000
   20.80749893  100.25599670    0.73000002    2.50000000
   20.81083298   93.62529755    0.73000002    2.50000000
   20.81694603   93.62529755    0.73000002    2.48000002
   20.82111168   96.35009766    0.73000002    2.50000000
   20.82444572   92.01000214    0.75000000    2.50000000
   20.82638931   94.27089691    0.75000000    2.50000000
   20.82777786   94.78759766    0.75000000    2.50000000
   20.83111191   93.52179718    0.73000002    2.48000002
   20.83444595   97.68569946    0.73000002    2.48000002
   20.83750153   92.64589691    0.73000002    2.48000002
   20.84083366   96.88490295    0.73000002    2.48000002
   20.84416771   96.77829742    0.70999998    2.48000002
   20.84722328   95.73590088    0.73000002    2.50000000
   20.85055542  101.07599640    0.70999998    2.50000000
   20.85361099   96.83380127    0.70999998    2.48000002
   20.85972214   96.83380127    0.70999998    2.48000002
   20.86388969   96.97039795    0.70999998    2.48000002
   20.86694527   94.82839966    0.70999998    2.48000002
   20.87027740  103.98699951    0.70999998    2.48000002
   20.87361145   95.97219849    0.73000002    2.48000002
   20.87666702   95.36009979    0.75000000    2.48000002
   20.88000107   98.38809967    0.75000000    2.48000002
   20.88333321  103.06300354    0.75000000    2.48000002
   20.88638878   96.34359741    0.75000000    2.48000002
   20.88972282   96.76429749    0.75000000    2.48000002
   20.89305496  103.55500031    0.76999998    2.48000002
   20.89361191   99.84320068    0.76999998    2.48000002
   20.89666748   98.38410187    0.79000002    2.48000002
   20.90250015   98.38410187    0.76999998    2.48000002
   20.90666580   97.16590118    0.83999997    2.48000002
   20.90999985  108.79799652    0.83999997    2.48000002
   20.91305542   94.95899963    0.80000001    2.48000002
   20.91638756   95.75569916    0.81999999    2.48000002
   20.91972160   94.47250366    0.83999997    2.48000002
   20.92277718  100.58100128    0.83999997    2.48000002
   20.92611122   95.71379852    0.83999997    2.48000002
   20.92666626   97.52549744    0.83999997    2.48000002
   20.92972183   93.34790039    0.81999999    2.48000002
   20.93305397   97.63040161    0.80000001    2.46000004
   20.93610954   93.40049744    0.81999999    2.48000002
   20.93944359   97.38839722    0.81999999    2.46000004
   20.94527626   97.38839722    0.86000001    2.46000004
   20.94944382   91.42539978    0.81999999    2.46000004
   20.95277786   94.43669891    0.81999999    2.07999992
   20.95611191   94.63629913    0.79000002    1.89999998
   20.95916748   94.85659790    0.75000000    2.46000004
   20.96000099   95.46970367    0.75000000    2.46000004
   20.96305656  100.15399933    0.73000002    2.46000004
   20.96611214   96.44730377    0.73000002    2.46000004
   20.96944427  103.79000092    0.76999998    2.46000004
   20.97249985  103.01100159    0.76999998    2.46000004
   20.97583389  100.93199921    0.75000000    2.46000004
   20.97916794   94.44180298    0.76999998    2.46000004
   20.98222351   96.50730133    0.80000001    2.46000004
   20.98833275   96.50730133    0.79000002    2.46000004
   20.99250031   97.05740356    0.75000000    2.46000004
   20.99333382   97.40380096    0.75000000    2.46000004
   20.99583435  101.08899689    0.76999998    2.44000006
   20.99916649   97.54460144    0.79000002    2.44000006
   21.00250053   96.65830231    0.80000001    2.44000006
   21.00555611   94.78260040    0.80000001    2.44000006
   21.00888824   94.18789673    0.79000002    2.44000006
   21.01194382  103.23600006    0.83999997    2.44000006
   21.01527786  107.45800018    0.83999997    2.44000006
   21.01861000   98.21520233    0.83999997    2.42000008
   21.02166557   92.56749725    0.81999999    2.42000008
   21.02499962   95.01110077    0.80000001    2.44000006
   21.02666664   95.79190063    0.81999999    2.44000006
   21.03111076   95.79190063    0.81999999    2.42000008
   21.03527641   89.33309937    0.81999999    2.42000008
   21.03833199  101.42400360    0.79000002    2.42000008
   21.04166603   99.76360321    0.79000002    2.42000008
   21.04500008  100.27400208    0.76999998    2.42000008
   21.04833221   94.62110138    0.79000002    2.42000008
   21.05138779  100.85299683    0.79000002    2.42000008
   21.05472183   96.42189789    0.81999999    2.44000006
   21.05805397   93.69850159    0.83999997    2.44000006
   21.05999947  105.23400116    0.86000001    2.44000006
   21.06138802   98.41770172    0.86000001    2.44000006
   21.06472206  103.48600006    0.81999999    2.44000006
   21.06805611   95.45040131    0.81999999    2.42000008
   21.07389069   95.45040131    0.81999999    2.42000008
   21.07805634   96.12879944    0.83999997    2.42000008
   21.08139038   99.29589844    0.81999999    2.42000008
   21.08444595  102.44899750    0.81999999    2.42000008
   21.08777809  102.53399658    0.81999999    2.42000008
   21.09111214  100.80500031    0.81999999    2.42000008
   21.09333420  103.89600372    0.81999999    2.42000008
   21.09444427  104.31199646    0.80000001    2.42000008
   21.09777832   99.53749847    0.80000001    2.42000008
   21.10111237  110.07599640    0.80000001    2.42000008
   21.10416794  100.45300293    0.79000002    2.42000008
   21.10750008  103.76399994    0.79000002    2.42000008
   21.11055565   97.12709808    0.79000002    2.42000008
   21.11666679   97.12709808    0.79000002    2.42000008
   21.12083435  101.74199677    0.76999998    2.42000008
   21.12416649  102.93199921    0.79000002    2.40000010
   21.12666702   95.31960297    0.79000002    2.40000010
   21.12777710  103.44799805    0.80000001    2.40000010
   21.13111115  107.81600189    0.79000002    2.40000010
   21.13444519  108.44300079    0.80000001    2.40000010
   21.13750076   98.25910187    0.80000001    2.40000010
   21.14083290   96.67890167    0.81999999    2.40000010
   21.14416695  102.61900330    0.81999999    2.40000010
   21.14722252   93.76509857    0.81999999    2.39000010
   21.15055466   90.72989655    0.83999997    2.39000010
   21.15361023  101.59799957    0.83999997    2.39000010
   21.15972137  101.59799957    0.88000000    2.40000010
   21.16388893  102.17500305    0.88000000    2.39000010
   21.16694450  103.84500122    0.86000001    2.40000010
   21.17027664   94.57879639    0.86000001    2.39000010
   21.17333221  102.21600342    0.86000001    2.39000010
   21.17666626  110.66699982    0.88000000    2.39000010
   21.18000031  103.25599670    0.88000000    2.39000010
   21.18305397  100.35700226    0.88000000    2.39000010
   21.18638802  115.19599915    0.86000001    2.39000010
   21.18972206   98.81549835    0.83999997    2.39000010
   21.19277763  102.28099823    0.86000001    2.39000010
   21.19472122  107.21099854    0.86000001    2.39000010
   21.19638824  106.33100128    0.86000001    2.39000010
   21.20250130  106.33100128    0.88000000    2.39000010
   21.20666695   98.13780212    0.89999998    2.39000010
   21.21000099  109.65100098    0.89999998    2.39000010
   21.21305656  111.27300262    0.88000000    2.39000010
   21.21638870   99.79850006    0.86000001    2.36999989
   21.21972275  105.87200165    0.92000002    2.36999989
   21.22277832  101.10700226    0.94000000    2.36999989
   21.22611237  109.97599792    0.94000000    2.36999989
   21.22805595  104.46499634    0.92000002    2.36999989
   21.22944450  111.29699707    0.94000000    2.36999989
   21.23277855   97.77300262    0.98000002    2.36999989
   21.23611069  107.61399841    1.00000000    2.36999989
   21.23916626  107.47599792    1.01999998    2.36999989
   21.24527740  107.47599792    0.94000000    2.36999989
   21.24944496  102.10600281    0.92000002    2.36999989
   21.25277710   99.98110199    0.92000002    2.36999989
   21.25583267  100.50199890    0.89999998    2.36999989
   21.25916672  100.94899750    4.90999985    2.40000010
   21.26138878  103.68399811    0.23000000    0.40000001
   21.26277733  107.80500031    0.20999999    0.25999999
   21.26611137  102.00199890    0.19000000    0.19000000
   21.26916695  102.83899689    0.17000000    0.09000000
   21.27249908  105.43099976    0.17000000    0.09000000
   21.27583313  104.81199646    0.17000000    0.09000000
   21.27888870  103.48999786    0.17000000    0.09000000
   21.28222275  100.18199921    0.17000000    0.09000000
   21.28805542  100.18199921    0.17000000    0.09000000
   21.29222107   95.64309692    0.17000000    0.09000000
   21.29472160  107.41799927    0.17000000    0.09000000
   21.29583359  102.67199707    0.17000000    0.09000000
   21.29916573  107.80599976    0.17000000    0.09000000
   21.30222130  108.80400085    0.17000000    0.09000000
   21.30555534  108.87400055    0.17000000    0.09000000
   21.30888748  103.50599670    0.17000000    0.09000000
   21.31194305  110.20500183    0.17000000    0.09000000
   21.31527710  103.35600281    0.17000000    0.09000000
   21.31861115  111.29000092    0.17000000    0.09000000
   21.32166672  105.10199738    0.17000000    0.09000000
   21.32500076  101.44100189    0.17000000    0.09000000
   21.33111191  101.44100189    0.17000000    0.09000000
   21.33527756  106.30300140    0.17000000    0.09000000
   21.33833313  101.77899933    0.17000000    0.09000000
   21.34166718  131.42799377    0.17000000    0.09000000
