    HOUR (UT)   FLARE FACTOR    SKY TESTER    SUN TESTER
   11.13555527   -1.00000000   -1.00000000   -1.00000000
   11.19499969  131.83099365    1.19000006    2.46000004
   11.19833374  127.97599792    1.16999996    2.48000002
   11.20138836  128.50199890    1.16999996    2.48000002
   11.20472240  123.28399658    1.16999996    2.48000002
   11.20777798  121.57800293    1.16999996    2.48000002
   11.21111107  125.50599670    1.16999996    2.48000002
   11.21527767  125.50599670    1.14999998    2.48000002
   11.21944427  126.43599701    1.14999998    2.48000002
   11.22249985  131.19999695    1.14999998    2.48000002
   11.22583294  128.99400330    1.14999998    2.48000002
   11.22805500  122.65499878    1.13000000    2.48000002
   11.22944355  126.17600250    1.13000000    2.48000002
   11.23277760  127.67800140    1.13000000    2.48000002
   11.23583317  131.25599670    1.11000001    2.48000002
   11.23916721  125.71199799    1.11000001    2.50000000
   11.24250031  121.56800079    1.11000001    2.50000000
   11.24555588  128.21200562    1.11000001    2.50000000
   11.24888897  117.25099945    1.11000001    2.50000000
   11.25194454  123.70200348    1.09000003    2.50000000
   11.25805569  123.70200348    1.09000003    2.50000000
   11.26222229  126.01899719    1.09000003    2.50000000
   11.26555538  128.78100586    1.09000003    2.50000000
   11.26888847  123.21800232    1.09000003    2.50000000
   11.27194405  132.78399658    1.09000003    2.50000000
   11.27527714  125.75599670    1.09000003    2.50000000
   11.27861118  122.70800018    1.09000003    2.50000000
   11.28166676  129.18699646    1.09000003    2.50000000
   11.28500080  120.35700226    1.09000003    2.50000000
   11.28833389  123.12400055    1.09000003    2.51999998
   11.29138947  126.92500305    1.07000005    2.51999998
   11.29472256  135.53399658    1.07000005    2.51999998
   11.29527855  125.41200256    1.07000005    2.51999998
   11.30083370  125.41200256    1.07000005    2.51999998
   11.30500031  121.50399780    1.07000005    2.51999998
   11.30833340  124.20300293    1.07000005    2.51999998
   11.31138897  118.96399689    1.07000005    2.51999998
   11.31472206  126.58799744    1.07000005    2.51999998
   11.31805515  125.86100006    1.07000005    2.51999998
   11.32111073  120.71499634    1.07000005    2.51999998
   11.32444477  125.81300354    1.07000005    2.51999998
   11.32777786  122.73200226    1.07000005    2.51999998
   11.32861137  130.03700256    1.07000005    2.51999998
   11.33111095  121.89900208    1.07000005    2.51999998
   11.33444405  126.44400024    1.07000005    2.51999998
   11.33777714  125.83399963    1.07000005    2.51999998
   11.34388828  125.83399963    1.05999994    2.51999998
   11.34777737  119.23200226    1.05999994    2.51999998
   11.35111141  124.69499969    1.05999994    2.53999996
   11.35444450  124.84200287    1.05999994    2.53999996
   11.35750008  120.86199951    1.05999994    2.53999996
   11.36083412  127.26499939    1.05999994    2.53999996
   11.36194515  119.55000305    1.07000005    2.53999996
   11.36444473  131.61399841    1.07000005    2.53999996
   11.36777782  127.27300262    1.07000005    2.53999996
   11.37111092  125.03399658    1.07000005    2.53999996
   11.37416649  124.66100311    1.07000005    2.53999996
   11.37750053  125.90000153    1.07000005    2.53999996
   11.38055611  129.16099548    1.07000005    2.53999996
   11.38666630  129.16099548    1.07000005    2.53999996
   11.39083290  127.94999695    1.07000005    2.53999996
   11.39388847  134.93699646    1.07000005    2.53999996
   11.39527798  132.25999451    1.07000005    2.53999996
   11.39750004  131.49099731    1.05999994    2.55999994
   11.40083313  126.66100311    1.05999994    2.55999994
   11.40416622  127.53700256    1.05999994    2.55999994
   11.40722179  135.68400574    1.03999996    2.53999996
   11.41055489  136.30599976    1.03999996    2.53999996
   11.41361046  136.73599243    1.01999998    2.55999994
   11.41694450  132.98699951    1.01999998    2.53999996
   11.42027855  133.25999451    1.01999998    2.55999994
   11.42333412  133.93899536    1.00000000    2.55999994
   11.42944431  133.93899536    1.00000000    2.55999994
   11.43361092  137.30299377    1.01999998    2.55999994
   11.43694496  146.46099854    1.01999998    2.55999994
   11.44000053  133.86000061    1.01999998    2.55999994
   11.44333363  135.78999329    1.01999998    2.55999994
   11.44666672  137.66099548    1.00000000    2.55999994
   11.44972229  140.35800171    1.00000000    2.55999994
   11.45305538  143.51300049    0.98000002    2.55999994
   11.45638847  135.92100525    0.98000002    2.55999994
   11.45944405  148.29499817    1.00000000    2.55999994
   11.46194458  152.39100647    1.00000000    2.55999994
   11.46305561  171.96000671    0.98000002    2.55999994
   11.46638870  148.27799988    0.98000002    2.55999994
   11.47222137  148.27799988    0.98000002    2.55999994
   11.47638798  160.00100708    0.98000002    2.55999994
   11.47972202  174.41799927    0.98000002    2.55999994
   11.48277760  204.97999573    1.00000000    2.57999992
   11.48611164  149.99400330    1.00000000    2.57999992
   11.48944473  156.80099487    0.98000002    2.55999994
   11.49250031  162.00500488    0.95999998    2.55999994
   11.49527836  158.67999268    0.95999998    2.57999992
   11.49611092  143.41200256    0.95999998    2.57999992
   11.49944496  151.77999878    0.95999998    2.57999992
   11.50277805  149.26100159    0.95999998    2.57999992
   11.50583363  158.49800110    0.95999998    2.57999992
   11.50916672  146.22599792    0.95999998    2.57999992
   11.51527786  146.22599792    0.94000000    2.57999992
   11.51916599  145.82899475    0.94000000    2.57999992
   11.52250004  137.09300232    0.94000000    2.57999992
   11.52583313  131.23699951    0.92000002    2.57999992
   11.52861118  143.57899475    0.92000002    2.57999992
   11.52916622  147.66299438    0.92000002    2.57999992
   11.53249931  145.91099548    0.92000002    2.57999992
   11.53583336  131.85800171    0.92000002    2.59999990
   11.53888893  135.93899536    0.89999998    2.59999990
   11.54222298  145.59899902    0.92000002    2.59999990
   11.54555607  142.25900269    0.92000002    2.57999992
   11.54861164  141.95100403    0.92000002    2.57999992
   11.55194473  145.78500366    0.92000002    2.59999990
   11.55805588  145.78500366    0.92000002    2.59999990
   11.56222248  130.43699646    0.92000002    2.59999990
   11.56527805  146.64599609    0.92000002    2.59999990
   11.56861115  142.36900330    0.92000002    2.59999990
   11.57194424  134.07200623    0.92000002    2.59999990
   11.57499981  133.97700500    0.92000002    2.59999990
   11.57833290  123.82800293    0.89999998    2.59999990
   11.58138847  129.09899902    0.92000002    2.59999990
   11.58472157  122.40299988    0.92000002    2.59999990
   11.58805561  128.25700378    0.92000002    2.59999990
   11.59111118  129.46600342    0.92000002    2.59999990
   11.59444427  118.68499756    0.92000002    2.59999990
   11.59527779  124.20899963    0.92000002    2.59999990
   11.60083389  124.20899963    0.92000002    2.59999990
   11.60500050  123.51200104    0.92000002    2.59999990
   11.60833359  118.65299988    0.89999998    2.59999990
   11.61138916  125.46399689    0.89999998    2.61999989
   11.61472225  135.99400330    0.89999998    2.61999989
   11.61777782  129.12600708    0.89999998    2.61999989
   11.62111092  127.11599731    0.89999998    2.59999990
   11.62444496  133.82099915    0.89999998    2.61999989
   11.62750053  122.83999634    0.89999998    2.59999990
   11.62861156  118.96800232    0.89999998    2.59999990
   11.63111115  121.13099670    0.89999998    2.61999989
   11.63444424  116.11100006    0.89999998    2.61999989
   11.63777733  126.96299744    0.89999998    2.61999989
   11.64361095  126.96299744    0.89999998    2.61999989
   11.64777756  122.70099640    0.89999998    2.61999989
   11.65111065  121.43800354    0.89999998    2.59999990
   11.65416622  119.61799622    0.89999998    2.59999990
   11.65749931  122.90499878    0.89999998    2.61999989
   11.66083336  120.31300354    0.89999998    2.61999989
   11.66194439  118.19300079    0.89999998    2.61999989
   11.66416645  112.99900055    0.88000000    2.61999989
   11.66750050  166.75700378    0.88000000    2.61999989
   11.67083359  118.75299835    0.89999998    2.61999989
   11.67388916  123.64199829    0.89999998    2.61999989
   11.67722225  115.89499664    0.89999998    2.61999989
   11.68055630  128.63400269    0.89999998    2.61999989
   11.68666649  128.63400269    0.89999998    2.64000010
   11.69055557  121.63999939    0.89999998    2.64000010
   11.69388866  124.27500153    0.89999998    2.61999989
   11.69527817  120.66600037    0.89999998    2.61999989
   11.69750023  128.46200562    0.89999998    2.61999989
   11.70083332  118.61399841    0.92000002    2.64000010
   11.70416641  124.12799835    0.92000002    2.61999989
   11.70722198  116.83999634    0.92000002    2.61999989
   11.71055508  125.00299835    0.92000002    2.61999989
   11.71388912  120.55899811    0.92000002    2.64000010
   11.71694374  117.12699890    0.92000002    2.64000010
   11.72027779  117.02799988    0.92000002    2.64000010
   11.72333336  116.39600372    0.92000002    2.61999989
   11.72972202  116.39600372    0.92000002    2.64000010
   11.73388958  116.93699646    0.92000002    2.64000010
   11.73694515  124.08699799    0.92000002    2.61999989
   11.74027824  115.29499817    0.92000002    2.64000010
   11.74361134  114.80300140    0.92000002    2.64000010
   11.74666691  119.98799896    0.92000002    2.64000010
   11.75000000  111.99600220    0.92000002    2.64000010
   11.75305557  116.20899963    0.92000002    2.64000010
   11.75638866  114.73500061    0.94000000    2.64000010
   11.75972176  130.42399597    0.94000000    2.64000010
   11.76194477  117.34400177    0.94000000    2.64000010
   11.76305580  125.55200195    0.92000002    2.64000010
   11.76638889  116.95500183    0.92000002    2.64000010
   11.77222157  116.95500183    0.92000002    2.66000009
   11.77638817  123.28299713    0.92000002    2.64000010
   11.77972221  124.72399902    0.92000002    2.64000010
   11.78277779  120.73400116    0.92000002    2.64000010
   11.78611183  121.20200348    0.92000002    2.64000010
   11.78916740  119.20899963    0.92000002    2.64000010
   11.79250050  115.87000275    0.92000002    2.64000010
   11.79527855  117.15899658    0.92000002    2.64000010
   11.79611111  124.71099854    0.89999998    2.64000010
   11.79944515  115.87200165    0.89999998    2.64000010
   11.80277824  118.28900146    0.89999998    2.64000010
   11.80583382  114.74600220    0.89999998    2.66000009
   11.80916691  120.10800171    0.89999998    2.64000010
   11.81500053  120.10800171    0.89999998    2.64000010
   11.81916618  118.14900208    0.89999998    2.66000009
   11.82250023  123.15200043    0.92000002    2.64000010
   11.82555580  121.43099976    0.89999998    2.66000009
   11.82861137  124.00599670    0.92000002    2.66000009
   11.82944393  116.87300110    0.92000002    2.66000009
   11.83249950  121.83799744    0.92000002    2.66000009
   11.83583260  123.09500122    0.89999998    2.64000010
   11.83888817  120.23000336    0.92000002    2.64000010
   11.84222221  113.84400177    0.92000002    2.66000009
   11.84555531  114.98899841    0.92000002    2.66000009
   11.84861088  118.58499908    0.92000002    2.66000009
   11.85194492  126.77999878    0.92000002    2.66000009
   11.85805607  126.77999878    0.92000002    2.66000009
   11.86194515  115.72299957    0.89999998    2.66000009
   11.86527824  119.08799744    0.92000002    2.66000009
   11.86861134  119.50000000    0.89999998    2.66000009
   11.87166691  129.28100586    0.92000002    2.66000009
   11.87500000  122.76300049    0.89999998    2.67000008
   11.87833309  113.48999786    0.89999998    2.67000008
   11.88138866  115.25800323    0.89999998    2.66000009
   11.88472176  119.41500092    0.89999998    2.66000009
   11.88805580  114.64099884    0.89999998    2.66000009
   11.89111137  116.01000214    0.89999998    2.66000009
   11.89444447  114.48699951    0.89999998    2.67000008
   11.89527798  116.48100281    0.89999998    2.67000008
   11.90083313  116.48100281    0.89999998    2.67000008
   11.90499973  114.65299988    0.88000000    2.67000008
   11.90805531  114.66899872    0.89999998    2.66000009
   11.91138840  119.29100037    0.89999998    2.66000009
   11.91472149  117.33899689    0.89999998    2.66000009
   11.91777802  110.28500366    0.89999998    2.66000009
   11.92111111  108.68399811    0.88000000    2.67000008
   11.92416668  118.66600037    0.88000000    2.67000008
   11.92750072  116.26399994    0.88000000    2.67000008
   11.92861176  115.88800049    0.88000000    2.67000008
   11.93111134  117.22000122    0.88000000    2.67000008
   11.93416691  111.92299652    0.86000001    2.67000008
   11.93750000  116.90399933    0.86000001    2.67000008
   11.94361115  116.90399933    0.86000001    2.67000008
   11.94777775  125.19799805    0.86000001    2.67000008
   11.95111084  115.33999634    0.86000001    2.67000008
   11.95416641  120.00900269    0.88000000    2.67000008
   11.95749950  119.37500000    0.88000000    2.67000008
   11.96055508  118.26399994    0.86000001    2.67000008
   11.96194458  114.09899902    0.86000001    2.67000008
   11.96444416  112.64399719    0.86000001    2.67000008
   11.96749973  121.17299652    0.86000001    2.67000008
   11.97083282  117.38999939    0.86000001    2.67000008
   11.97388840  116.98400116    0.86000001    2.67000008
   11.97722149  117.17700195    0.83999997    2.69000006
   11.98055553  111.99400330    0.83999997    2.69000006
   11.98638916  111.99400330    0.86000001    2.67000008
   11.99055576  121.38700104    0.86000001    2.69000006
   11.99388885  109.89600372    0.83999997    2.69000006
   11.99527836  110.55699921    0.83999997    2.69000006
   11.99750042  113.41400146    0.83999997    2.67000008
   12.00055599  114.97599792    0.83999997    2.67000008
   12.00388908  115.92700195    0.83999997    2.67000008
   12.00694466  123.48400116    0.81999999    2.69000006
   12.01027775  116.72200012    0.81999999    2.67000008
   12.01361084  116.44300079    0.83999997    2.69000006
   12.01666641  117.14399719    0.83999997    2.67000008
   12.01999950  115.72699738    0.81999999    2.69000006
   12.02333355  114.57800293    0.81999999    2.67000008
   12.02944374  114.57800293    0.81999999    2.69000006
   12.03333378  123.51699829    0.81999999    2.69000006
   12.03666687  121.68099976    0.83999997    2.69000006
   12.04000092  116.47899628    0.83999997    2.69000006
   12.04305553  118.00099945    0.81999999    2.69000006
   12.04638958  117.00299835    0.81999999    2.69000006
   12.04972267  117.66799927    0.81999999    2.67000008
   12.05277824  113.77999878    0.81999999    2.69000006
   12.05611134  110.52899933    0.81999999    2.69000006
   12.05916691  116.52300262    0.81999999    2.69000006
   12.06194496  112.36499786    0.81999999    2.69000006
   12.06305599  113.85500336    0.81999999    2.69000006
   12.06611156  120.91600037    0.81999999    2.69000006
   12.07222176  120.91600037    0.81999999    2.69000006
   12.07638836  116.84500122    0.80000001    2.71000004
   12.07944393  118.07199860    0.80000001    2.71000004
   12.08277798  119.18099976    0.80000001    2.71000004
   12.08611107  118.96499634    0.80000001    2.69000006
   12.08916664  115.59500122    0.80000001    2.69000006
   12.09249973  117.67299652    0.80000001    2.69000006
   12.09527779  113.93299866    0.80000001    2.69000006
   12.09611034  118.53099823    0.80000001    2.69000006
   12.09916592  118.38999939    0.80000001    2.71000004
   12.10249996  118.13400269    0.80000001    2.71000004
   12.10555553  116.34100342    0.80000001    2.69000006
   12.10888958  117.58699799    0.80000001    2.69000006
   12.11500072  117.58699799    0.79000002    2.71000004
   12.11916637  114.33699799    0.79000002    2.69000006
   12.12250042  112.05300140    0.80000001    2.69000006
   12.12555599  115.81999969    0.80000001    2.71000004
   12.12861156  116.05200195    0.80000001    2.69000006
   12.12944412  113.78399658    0.80000001    2.69000006
   12.13249969  118.58699799    0.80000001    2.71000004
   12.13583279  116.12400055    0.80000001    2.69000006
   12.13916683  107.37000275    0.79000002    2.69000006
   12.14222240  114.93499756    0.79000002    2.69000006
   12.14555550  118.65799713    0.79000002    2.71000004
   12.14861107  113.17099762    0.79000002    2.71000004
   12.15194416  114.67700195    0.79000002    2.71000004
   12.15777779  114.67700195    0.80000001    2.69000006
   12.16194439  115.07399750    0.80000001    2.69000006
   12.16527748  120.14399719    0.80000001    2.71000004
   12.16861153  115.95200348    0.80000001    2.71000004
   12.17166710  113.86199951    0.80000001    2.71000004
   12.17500019  113.72100067    0.80000001    2.71000004
   12.17805576  115.84799957    0.80000001    2.71000004
   12.18138885  112.84899902    0.80000001    2.71000004
   12.18472195  122.02300262    0.80000001    2.71000004
   12.18805599  113.50499725    0.80000001    2.69000006
   12.19138908  117.68299866    0.80000001    2.69000006
   12.19444466  119.80599976    0.80000001    2.69000006
   12.19527817  113.04199982    0.80000001    2.71000004
   12.21583271  113.04199982    0.79000002    2.71000004
   12.21999931  114.45999908    0.79000002    2.71000004
   12.22333336  118.99900055    0.79000002    2.71000004
   12.22666645  113.90100098    0.79000002    2.73000002
   12.22861099  108.33100128    0.79000002    2.71000004
   12.23027706  116.91799927    0.79000002    2.71000004
   12.23333359  112.48100281    0.79000002    2.71000004
   12.23666668  115.28900146    0.79000002    2.71000004
   12.24000072  112.57499695    0.76999998    2.71000004
   12.24305534  116.66699982    0.76999998    2.71000004
   12.24638939  114.24500275    0.79000002    2.71000004
   12.24944496  114.84999847    0.76999998    2.73000002
   12.25277805  143.33000183    0.79000002    2.71000004
   12.25861073  143.33000183    0.79000002    2.71000004
   12.26277733  109.26999664    0.79000002    2.71000004
   12.26611137  110.07399750    0.79000002    2.73000002
   12.26916599  114.79299927    0.79000002    2.71000004
   12.27250004  112.34600067    0.79000002    2.73000002
   12.27583313  111.99199677    0.79000002    2.73000002
   12.27916622  115.08599854    0.79000002    2.75000000
   12.28222179  118.39199829    0.79000002    2.73000002
   12.28555584  110.63400269    0.79000002    2.73000002
   12.28888893  107.12599945    0.79000002    2.73000002
   12.29194450  162.42199707    0.79000002    2.73000002
   12.29527855  113.88999939    0.79000002    2.71000004
   12.29583359  112.62899780    0.79000002    2.71000004
   12.30166721  112.62899780    0.76999998    2.73000002
   12.30583382  113.77500153    0.79000002    2.73000002
   12.30888939  115.12699890    0.76999998    2.73000002
   12.31222248  115.33799744    0.79000002    2.73000002
   12.31527805  119.99600220    0.76999998    2.71000004
   12.31861115  115.69999695    0.76999998    2.71000004
   12.32194424  111.67400360    0.79000002    2.73000002
   12.32499981  113.48999786    0.76999998    2.73000002
   12.32833290  116.41899872    0.79000002    2.73000002
   12.32888889  111.97200012    0.79000002    2.73000002
   12.33194447  116.36199951    0.79000002    2.73000002
   12.33527756  116.74299622    0.76999998    2.73000002
   12.33861065  114.71199799    0.79000002    2.73000002
   12.34444427  114.71199799    0.79000002    2.75000000
   12.34861088  119.59700012    0.79000002    2.73000002
   12.35166740  115.54900360    0.79000002    2.75000000
   12.35500050  117.76399994    0.79000002    2.73000002
   12.35833359  116.58699799    0.79000002    2.71000004
   12.36138916  113.76200104    0.79000002    2.73000002
   12.36222267  120.41600037    0.79000002    2.73000002
   12.36500072  116.31300354    0.79000002    2.73000002
   12.36833382  114.66799927    0.76999998    2.73000002
   12.37166691  116.33499908    0.76999998    2.73000002
   12.37472248  117.88500214    0.76999998    2.75000000
   12.37805557  113.91400146    0.76999998    2.75000000
   12.38111115  112.88999939    0.76999998    2.73000002
   12.38722229  112.88999939    0.75000000    2.73000002
   12.39138889  112.30999756    0.75000000    2.75000000
   12.39472198  109.40000153    0.75000000    2.75000000
   12.39555550  115.30599976    0.75000000    2.75000000
   12.39805508  109.48300171    0.76999998    2.75000000
   12.40138817  108.72200012    0.76999998    2.73000002
   12.40472221  120.69400024    0.76999998    2.73000002
   12.40777779  115.28600311    0.79000002    2.75000000
   12.41111088  110.94499969    0.76999998    2.75000000
   12.41416645  110.61100006    0.76999998    2.75000000
   12.41750050  113.83000183    0.76999998    2.75000000
   12.42083359  112.99099731    0.76999998    2.75000000
   12.42388916  113.40599823    0.76999998    2.75000000
   12.43000031  113.40599823    0.76999998    2.75000000
   12.43416691  124.19200134    0.75000000    2.75000000
   12.43750000  119.59999847    0.75000000    2.75000000
   12.44055557  122.47599792    0.75000000    2.75000000
   12.44388866  112.28500366    0.75000000    2.75000000
   12.44722271  110.96099854    0.73000002    2.75000000
   12.45027733  115.91500092    0.73000002    2.75000000
   12.45361137  113.45200348    0.75000000    2.75000000
   12.45694447  125.66600037    0.75000000    2.75000000
   12.46000004  109.62899780    0.73000002    2.75000000
   12.46222210  120.18299866    0.73000002    2.75000000
   12.46361065  122.04199982    0.73000002    2.75000000
   12.46694374  115.41899872    0.75000000    2.75000000
   12.47305489  115.41899872    0.75000000    2.75000000
   12.47694397  118.35199738    0.75000000    2.75000000
   12.48027706  109.26899719    0.75000000    2.75000000
   12.48361111  114.88999939    0.75000000    2.75000000
   12.48666668  113.90399933    0.75000000    2.75000000
   12.49000072  110.50000000    0.75000000    2.75000000
   12.49333382  112.26699829    0.75000000    2.75000000
   12.49555588  114.10600281    0.75000000    2.75000000
   12.49666691  110.21199799    0.75000000    2.75000000
   12.50000000  110.60800171    0.75000000    2.75000000
   12.50333309  111.55899811    0.75000000    2.75000000
   12.50638866  111.00499725    0.75000000    2.75000000
   12.50972176  107.49700165    0.75000000    2.75000000
   12.51583290  107.49700165    0.73000002    2.75000000
   12.51999950  113.79100037    0.73000002    2.75000000
   12.52305508  109.79000092    0.73000002    2.75000000
   12.52638817  112.75299835    0.73000002    2.75000000
   12.52888870  117.26599884    0.73000002    2.75000000
   12.52972221  113.61499786    0.73000002    2.75000000
   12.53305531  117.85900116    0.73000002    2.76999998
   12.53638935  113.36799622    0.70999998    2.76999998
   12.53944492  113.91799927    0.70999998    2.75000000
   12.54277802  116.63999939    0.70999998    2.75000000
   12.54611111  109.44200134    0.70999998    2.75000000
   12.54916668  113.02300262    0.69000000    2.75000000
   12.55249977  114.44499969    0.70999998    2.76999998
   12.55861092  114.44499969    0.69000000    2.75000000
   12.56277752  108.45999908    0.67000002    2.76999998
   12.56611156  113.14299774    0.67000002    2.76999998
   12.56916618  109.90499878    0.67000002    2.76999998
   12.57250023  110.14900208    0.67000002    2.76999998
   12.57555580  115.24700165    0.69000000    2.76999998
   12.57888889  113.95400238    0.67000002    2.76999998
   12.58222198  114.82099915    0.69000000    2.76999998
   12.58527756  114.03299713    0.69000000    2.76999998
   12.58861065  114.59600067    0.67000002    2.76999998
   12.59194374  110.38899994    0.69000000    2.76999998
   12.59499931  113.23300171    0.67000002    2.76999998
   12.59555531  112.25700378    0.67000002    2.76999998
   12.60138893  112.25700378    0.67000002    2.75000000
   12.60555553  114.09700012    0.67000002    2.75000000
   12.60888958  109.65499878    0.67000002    2.76999998
   12.61194515  112.44000244    0.69000000    2.76999998
   12.61527824  107.60600281    0.67000002    2.76999998
   12.61861134  108.16200256    0.67000002    2.76999998
   12.62166691  110.06400299    0.67000002    2.76999998
   12.62500000  115.39700317    0.64999998    2.76999998
   12.62833309  109.37100220    0.64999998    2.76999998
   12.62888908  113.32800293    0.64999998    2.76999998
   12.63194466  115.52999878    0.64999998    2.76999998
   12.63500023  113.20300293    0.64999998    2.76999998
   12.63833332  111.44799805    0.67000002    2.76999998
   12.64444447  111.44799805    0.64999998    2.76999998
   12.64833355  112.59400177    0.64999998    2.76999998
   12.65166664  115.54900360    0.64999998    2.76999998
   12.65499973  110.41000366    0.67000002    2.76999998
   12.65805531  109.86399841    0.67000002    2.78999996
   12.66138840  111.40299988    0.67000002    2.78999996
   12.66222191  113.53299713    0.67000002    2.78999996
   12.66499996  111.46399689    0.67000002    2.78999996
   12.66805553  114.79799652    0.64999998    2.76999998
   12.67138958  113.12400055    0.64999998    2.76999998
   12.67472267  116.02899933    0.67000002    2.78999996
   12.67777824  113.52200317    0.67000002    2.76999998
   12.68111134  111.43499756    0.64999998    2.76999998
   12.68722248  111.43499756    0.64999998    2.76999998
   12.69138908  110.55300140    0.64999998    2.78999996
   12.69444466  111.84300232    0.64999998    2.76999998
   12.69555569  112.65799713    0.64999998    2.78999996
   12.69833374  113.27700043    0.64999998    2.78999996
   12.70138836  111.01300049    0.64999998    2.78999996
   12.70472240  111.42700195    0.64999998    2.76999998
   12.70805550  116.78299713    0.64999998    2.76999998
   12.71111107  115.96600342    0.64999998    2.76999998
   12.71444416  111.59899902    0.67000002    2.76999998
   12.71777725  121.58200073    0.67000002    2.76999998
   12.72083282  117.18800354    0.64999998    2.76999998
   12.72416592  113.79599762    0.64999998    2.78999996
   12.72999954  113.79599762    0.67000002    2.78999996
   12.73416710  112.93099976    0.67000002    2.78999996
   12.73750019  111.22599792    0.67000002    2.76999998
   12.74055576  115.11399841    0.67000002    2.76999998
   12.74388885  114.51799774    0.67000002    2.76999998
   12.74694443  115.43499756    0.67000002    2.76999998
   12.75027752  115.14199829    0.64999998    2.78999996
   12.75361156  116.41500092    0.67000002    2.76999998
   12.75666714  111.63800049    0.67000002    2.78999996
   12.76000023  112.88800049    0.67000002    2.78999996
   12.76222229  111.81199646    0.67000002    2.78999996
   12.76361084  114.01499939    0.67000002    2.78999996
   12.76666641  112.84500122    0.67000002    2.78999996
   12.77277756  112.84500122    0.64999998    2.78999996
   12.77694416  115.16699982    0.64999998    2.78999996
   12.78027725  120.31800079    0.64999998    2.78999996
   12.78333378  123.20899963    0.64999998    2.78999996
   12.78666687  112.24700165    0.64999998    2.78999996
   12.79000092  111.87300110    0.64999998    2.78999996
   12.79305553  122.90499878    0.64999998    2.78999996
   12.79555607  127.23699951    0.67000002    2.78999996
   12.79694462  115.30200195    0.67000002    2.78999996
   12.80000019  121.94000244    0.67000002    2.78999996
   12.80333328  128.13699341    0.69000000    2.78999996
   12.80666733  118.97299957    0.69000000    2.78999996
   12.80972195  127.68599701    0.67000002    2.78999996
   12.81583309  127.68599701    0.69000000    2.76999998
   12.81972218  120.95899963    0.67000002    2.78999996
   12.82305527  125.48999786    0.67000002    2.78999996
   12.82638836  115.26599884    0.67000002    2.78999996
   12.82888889  111.26999664    0.67000002    2.78999996
   12.82999992  127.26200104    0.67000002    2.78999996
   12.83305550  124.25499725    0.64999998    2.78999996
   12.83638859  114.82399750    0.64999998    2.78999996
   12.83972168  116.87500000    0.64999998    2.78999996
   12.84277725  117.89499664    0.64999998    2.78999996
   12.84611034  121.66000366    0.64999998    2.78999996
   12.84916592  115.40599823    0.63000000    2.78999996
   12.85249996  113.93199921    0.63000000    2.78999996
   12.85861111  113.93199921    0.63000000    2.78999996
   12.86277771  116.55799866    0.63000000    2.78999996
   12.86583328  117.29499817    0.63000000    2.78999996
   12.86916637  112.38300323    0.63000000    2.78999996
   12.87250042  112.00900269    0.63000000    2.78999996
   12.87583351  115.86799622    0.63000000    2.78999996
   12.87888908  112.73699951    0.63000000    2.78999996
   12.88222218  110.38899994    0.63000000    2.78999996
   12.88555527  114.63500214    0.64999998    2.80999994
   12.88861084  110.99099731    0.63000000    2.78999996
   12.89194393  113.14499664    0.63000000    2.78999996
   12.89499950  113.10099792    0.63000000    2.78999996
   12.89555550  110.01200104    0.63000000    2.78999996
   12.90138817  110.01200104    0.63000000    2.78999996
   12.90555477  106.95500183    0.61000001    2.80999994
   12.90888882  108.61000061    0.61000001    2.78999996
   12.91194439  108.28099823    0.61000001    2.80999994
   12.91527748  107.98999786    0.61000001    2.80999994
   12.91833401  107.69200134    0.61000001    2.80999994
   12.92166710  108.66500092    0.61000001    2.78999996
   12.92500019  111.88899994    0.61000001    2.80999994
   12.92805576  107.51300049    0.61000001    2.80999994
   12.92888927  109.35500336    0.61000001    2.80999994
   12.93166733  114.00900269    0.61000001    2.80999994
   12.93472195  112.53800201    0.61000001    2.80999994
   12.93805599  106.23699951    0.61000001    2.80999994
   12.94416714  106.23699951    0.63000000    2.78999996
   12.94833374  113.20700073    0.63000000    2.80999994
   12.95166683  105.46099854    0.63000000    2.80999994
   12.95472240  105.78099823    0.63000000    2.80999994
   12.95805550  110.31500244    0.63000000    2.80999994
   12.96138859  117.97000122    0.63000000    2.80999994
   12.96222210  102.91000366    0.63000000    2.80999994
   12.96500015  110.69100189    0.63000000    2.80999994
   12.96833324  111.48400116    0.63000000    2.80999994
   12.97138882  112.28399658    0.61000001    2.78999996
   12.97472191  105.52899933    0.61000001    2.78999996
   12.97805500  116.37200165    0.63000000    2.80999994
   12.98111057  112.85299683    0.61000001    2.80999994
   12.98722267  112.85299683    0.63000000    2.80999994
   12.99138927  104.34200287    0.63000000    2.80999994
   12.99444485  100.27600098    0.63000000    2.80999994
   12.99555588  107.65399933    0.63000000    2.80999994
   12.99805546  109.91100311    0.63000000    2.80999994
   13.00111103  107.28700256    0.63000000    2.80999994
   13.00444412  108.30300140    0.63000000    2.80999994
   13.00777817  119.22899628    0.63000000    2.80999994
   13.01083374  104.50900269    0.64999998    2.82999992
   13.01416683  103.15799713    0.64999998    2.80999994
   13.01749992  108.41300201    0.64999998    2.80999994
   13.02055550  107.04299927    0.64999998    2.80999994
   13.02388859  103.65299988    0.64999998    2.80999994
   13.02999973  103.65299988    0.63000000    2.80999994
   13.03416729  118.45500183    0.61000001    2.80999994
   13.03722286  109.84100342    0.58999997    2.78999996
   13.04055595  105.77300262    0.58999997    2.80999994
   13.04361153  108.17700195    0.56999999    2.82999992
   13.04694462  112.45400238    0.56999999    2.82999992
   13.05027771  111.52899933    0.56999999    2.82999992
   13.05361176  105.17500305    0.56999999    2.82999992
   13.05666733  104.17800140    0.55000001    2.80999994
   13.06000042   98.01229858    0.55000001    2.80999994
   13.06222248  110.04000092    0.55000001    2.80999994
   13.06361103  108.99700165    0.55000001    2.82999992
   13.06666660  104.88099670    0.55000001    2.82999992
   13.07277775  104.88099670    0.55000001    2.80999994
   13.07694435  102.58300018    0.55000001    2.80999994
   13.07999992   96.49030304    0.55000001    2.82999992
   13.08333302  106.67800140    0.55000001    2.82999992
   13.08666611  103.51000214    0.55000001    2.80999994
   13.08972168  109.13800049    0.55000001    2.80999994
   13.09305477  105.17800140    0.55000001    2.80999994
   13.09555531  109.60600281    0.55000001    2.80999994
   13.09666634   96.15779877    0.55000001    2.80999994
   13.09972191  104.90699768    0.52999997    2.82999992
   13.10305595  110.49199677    0.52999997    2.80999994
   13.10638905  110.99900055    0.55000001    2.82999992
   13.10944462  105.59999847    0.55000001    2.80999994
   13.11555576  105.59999847    0.55000001    2.80999994
   13.11972237  112.32599640    0.55000001    2.82999992
   13.12305546  111.51100159    0.55000001    2.82999992
   13.12611103  110.38099670    0.56999999    2.80999994
   13.12888908  120.36900330    0.56999999    2.80999994
   13.12972260  108.75299835    0.56999999    2.80999994
   13.13277817  117.76699829    0.56999999    2.82999992
   13.13611126  116.65499878    0.56999999    2.82999992
   13.13944435  117.61199951    0.56999999    2.80999994
   13.14277744  103.60299683    0.56999999    2.80999994
   13.14583302  102.23799896    0.56999999    2.82999992
   13.14916611  111.08100128    0.56999999    2.82999992
   13.15222168  106.43199921    0.56999999    2.82999992
   13.15861034  106.43199921    0.58999997    2.80999994
   13.16277695  118.24299622    0.56999999    2.82999992
   13.16583252  108.05400085    0.58999997    2.82999992
   13.16916656  113.41200256    0.58999997    2.82999992
   13.17222214  116.92700195    0.58999997    2.82999992
   13.17555618  112.38300323    0.58999997    2.82999992
   13.17888927  120.76000214    0.56999999    2.80999994
   13.18194485  112.54499817    0.58999997    2.80999994
   13.18527794  110.36599731    0.58999997    2.82999992
   13.18861103  106.08000183    0.56999999    2.84999990
   13.19166660  106.26699829    0.56999999    2.80999994
   13.19499969  112.89900208    0.56999999    2.82999992
   13.19555569  112.93499756    0.56999999    2.82999992
   13.20138836  112.93499756    0.56999999    2.82999992
   13.20555496  107.72699738    0.56999999    2.82999992
   13.20861053  107.93800354    0.56999999    2.82999992
   13.21194458  102.72000122    0.56999999    2.82999992
   13.22944355  105.34799957    0.55000001    2.82999992
   13.23194408  105.66899872    0.55000001    2.82999992
   13.23500061  110.93699646    0.55000001    2.82999992
   13.23833370  116.94300079    0.55000001    2.82999992
   13.24444485  116.94300079    0.52999997    2.82999992
   13.24861145  110.98000336    0.50000000    2.82999992
   13.25166702  112.95400238    0.50000000    2.82999992
   13.25500011  112.42800140    0.47999999    2.82999992
   13.25805569  112.39700317    0.47999999    2.82999992
   13.26138878  109.44699860    0.47999999    2.82999992
   13.26277733  113.22499847    0.47999999    2.84999990
   13.26500034  107.49199677    0.47999999    2.84999990
   13.26833344  105.14399719    0.50000000    2.82999992
   13.27138901  111.01399994    0.47999999    2.84999990
   13.27472210  115.53700256    0.47999999    2.82999992
   13.27805519  108.05100250    0.47999999    2.82999992
   13.28111076  111.10199738    0.50000000    2.82999992
   13.28722286  111.10199738    0.50000000    2.82999992
   13.29138947  114.45400238    0.47999999    2.84999990
   13.29444504  109.62500000    0.47999999    2.84999990
   13.29611111  107.59700012    0.47999999    2.82999992
   13.29833412  108.24800110    0.47999999    2.82999992
   13.30138874  111.83499908    0.47999999    2.82999992
   13.30472279  102.93299866    0.50000000    2.82999992
   13.30777836  107.02400208    0.50000000    2.82999992
   13.31111145  106.73600006    0.51999998    2.82999992
   13.31444454  110.38899994    0.51999998    2.82999992
   13.31777763  108.07900238    0.52999997    2.82999992
   13.32083321  108.35099792    0.52999997    2.82999992
   13.32416630  105.43800354    0.52999997    2.84999990
   13.32999992  105.43800354    0.51999998    2.84999990
   13.33444405  102.55400085    0.50000000    2.82999992
   13.33749962  103.99400330    0.50000000    2.82999992
   13.34083271  106.54599762    0.50000000    2.82999992
   13.34416676  113.41300201    0.51999998    2.84999990
   13.34722233  109.69899750    0.51999998    2.82999992
   13.35055637  105.95800018    0.51999998    2.82999992
   13.35361195  109.84600067    0.52999997    2.82999992
   13.35694504  103.63200378    0.55000001    2.82999992
   13.36027813  104.86199951    0.55000001    2.82999992
   13.36277771  106.34300232    0.55000001    2.82999992
   13.36388969  110.03800201    0.55000001    2.82999992
   13.36694431  104.87100220    0.56999999    2.82999992
   13.37277794  104.87100220    0.55000001    2.82999992
   13.37694454  105.49900055    0.55000001    2.84999990
   13.38027763  104.41799927    0.55000001    2.84999990
   13.38333321  108.94599915    0.55000001    2.84999990
   13.38666630  106.02400208    0.55000001    2.82999992
   13.39000034  110.36199951    0.55000001    2.82999992
   13.39305496  109.17600250    0.52999997    2.82999992
   13.39611053  107.47299957    0.55000001    2.84999990
   13.39694405  109.79000092    0.55000001    2.84999990
   13.39999962  110.02300262    0.55000001    2.84999990
   13.40333271  107.75599670    0.56999999    2.84999990
   13.40666676  111.74500275    0.56999999    2.84999990
   13.40972137  111.35700226    0.56999999    2.82999992
   13.41583252  111.35700226    0.55000001    2.84999990
   13.41972256  107.55899811    0.58999997    2.82999992
   13.42305565  109.78399658    0.56999999    2.82999992
   13.42638874  103.13200378    0.55000001    2.82999992
   13.42944431  101.93000031    0.55000001    2.82999992
   13.43000031  111.34300232    0.52999997    2.82999992
   13.43305588  103.49099731    0.51999998    2.84999990
   13.43638897  106.22599792    0.51999998    2.84999990
   13.43944454  112.94999695    0.51999998    2.82999992
   13.44277763  106.83699799    0.50000000    2.84999990
   13.44611073  104.46199799    0.51999998    2.82999992
   13.44916630  106.24600220    0.51999998    2.82999992
   13.45249939  101.29499817    0.50000000    2.82999992
   13.45861053  101.29499817    0.50000000    2.84999990
   13.46277714  111.15000153    0.50000000    2.84999990
   13.46305561  108.16999817    0.50000000    2.84999990
   13.46638870  105.15899658    0.51999998    2.84999990
   13.46972179  106.65200043    0.51999998    2.84999990
   13.47277737  109.23699951    0.51999998    2.84999990
   13.47611046  100.82399750    0.51999998    2.84999990
   13.47916603  107.43599701    0.51999998    2.84999990
   13.48249912  104.77700043    0.52999997    2.84999990
   13.48583317  109.84100342    0.51999998    2.84999990
   13.48888874  104.81999969    0.51999998    2.84999990
   13.49222279  107.03199768    0.51999998    2.84999990
   13.49555588  109.94799805    0.51999998    2.84999990
   13.49638939  106.96199799    0.51999998    2.84999990
   13.50138855  106.96199799    0.52999997    2.82999992
   13.50555515  103.53299713    0.52999997    2.84999990
   13.50861073  104.50599670    0.55000001    2.84999990
   13.51194477  102.84100342    0.56999999    2.82999992
   13.51527786  106.87899780    0.55000001    2.84999990
   13.51833344  103.71700287    0.52999997    2.84999990
   13.52166653  103.40799713    0.52999997    2.84999990
   13.52499962  103.91200256    0.52999997    2.84999990
   13.52805519  105.36299896    0.52999997    2.84999990
   13.52972221  104.33200073    0.52999997    2.84999990
   13.53166676  105.43499756    0.52999997    2.84999990
   13.53500080  101.67500305    0.55000001    2.84999990
   13.53805637  107.50599670    0.55000001    2.84999990
   13.54416752  107.50599670    0.55000001    2.84999990
   13.54833412  102.30000305    0.55000001    2.84999990
   13.55166721  103.67900085    0.52999997    2.84999990
   13.55472279  105.38500214    0.52999997    2.84999990
   13.55805588  109.06199646    0.52999997    2.84999990
   13.56138897  102.87300110    0.52999997    2.84999990
   13.56305599  104.74199677    0.52999997    2.84999990
   13.56472206  103.29199982    0.52999997    2.84999990
   13.56805515  104.65599823    0.51999998    2.84999990
   13.57111073  109.42600250    0.50000000    2.84999990
   13.57444477  104.78099823    0.50000000    2.86999989
   13.57777786  102.34899902    0.50000000    2.86999989
   13.58083344   99.57879639    0.51999998    2.84999990
   13.58694458   99.57879639    0.51999998    2.84999990
   13.59111118  102.28800201    0.51999998    2.84999990
   13.59444427  105.62999725    0.51999998    2.84999990
   13.59666634  105.55200195    0.51999998    2.84999990
   13.59805489  108.65299988    0.50000000    2.84999990
   13.60138893   98.14959717    0.51999998    2.84999990
   13.60444450  103.30500031    0.52999997    2.84999990
   13.60777855   98.92089844    0.52999997    2.84999990
   13.61111164  103.63500214    0.55000001    2.84999990
   13.61416721  107.31600189    0.52999997    2.84999990
   13.61750031  107.10600281    0.52999997    2.84999990
   13.62083340  107.19599915    0.52999997    2.84999990
   13.62388897  100.30400085    0.51999998    2.84999990
   13.63000011  100.30400085    0.51999998    2.84999990
   13.63416672  103.56400299    0.50000000    2.84999990
   13.63722229   98.19429779    0.50000000    2.84999990
   13.64055538  101.19699860    0.47999999    2.86999989
   13.64361095  101.22299957    0.46000001    2.86999989
   13.64694405  100.72299957    0.46000001    2.84999990
   13.65027714  103.90200043    0.46000001    2.84999990
   13.65361118  105.23799896    0.46000001    2.84999990
   13.65666676  102.22299957    0.46000001    2.84999990
   13.65999985  103.63800049    0.44000000    2.84999990
   13.66333294  103.54699707    0.44000000    2.84999990
   13.66361046  100.76300049    0.44000000    2.84999990
   13.66694450  109.13500214    0.44000000    2.84999990
   13.67277813  109.13500214    0.44000000    2.86999989
   13.67694473  104.14800262    0.46000001    2.84999990
   13.68000031  103.78199768    0.46000001    2.82999992
   13.68333340  106.08000183    0.46000001    2.86999989
   13.68666649  104.66000366    0.46000001    2.86999989
   13.68972206  107.25299835    0.46000001    2.86999989
   13.69305515  102.03500366    0.47999999    2.84999990
   13.69638920  100.28500366    0.47999999    2.84999990
   13.69666672  105.10099792    0.50000000    2.84999990
   13.69999981  101.70200348    0.51999998    2.84999990
   13.70333290  104.18399811    0.51999998    2.84999990
   13.70638847  105.23799896    0.51999998    2.84999990
   13.70972157  100.76000214    0.52999997    2.84999990
   13.71555519  100.76000214    0.51999998    2.84999990
   13.71972179  103.40499878    0.51999998    2.86999989
   13.72305489  103.69000244    0.51999998    2.86999989
   13.72611046  100.54599762    0.50000000    2.84999990
   13.72944355  103.38600159    0.51999998    2.86999989
   13.72999954  104.71600342    0.51999998    2.86999989
   13.73305511  107.07599640    0.50000000    2.86999989
   13.73638916  106.90799713    0.50000000    2.84999990
   13.73944473   98.02269745    0.50000000    2.84999990
   13.74277782   99.39129639    0.50000000    2.84999990
   13.74611092  100.65100098    0.50000000    2.84999990
   13.74916649  100.31700134    0.50000000    2.86999989
   13.75249958  100.98400116    0.52999997    2.86999989
   13.75861073  100.98400116    0.50000000    2.86999989
   13.76249981  102.94400024    0.50000000    2.86999989
   13.76333332  104.22699738    0.50000000    2.86999989
   13.76611137  105.69999695    0.51999998    2.84999990
   13.76944447  103.70500183    0.50000000    2.86999989
   13.77250004  100.70899963    0.50000000    2.86999989
   13.77583313  103.43599701    0.50000000    2.86999989
   13.77916622  100.82800293    0.50000000    2.84999990
   13.78222179   99.40319824    0.50000000    2.86999989
   13.78555584   99.66649628    0.47999999    2.84999990
   13.78888893  102.27200317    0.47999999    2.86999989
   13.79194450  101.45500183    0.47999999    2.86999989
   13.79527855  107.94699860    0.47999999    2.86999989
   13.79666710   98.59609985    0.47999999    2.86999989
   13.80138874   98.59609985    0.50000000    2.86999989
   13.80555534  100.88600159    0.47999999    2.84999990
   13.80861092  104.12200165    0.47999999    2.84999990
   13.81194496  102.99700165    0.47999999    2.86999989
   13.81527805  106.96800232    0.47999999    2.86999989
   13.81833363  105.21800232    0.47999999    2.86999989
   13.82166672  108.72100067    0.47999999    2.86999989
   13.82499981  107.40299988    0.47999999    2.86999989
   13.82805538  104.49199677    0.47999999    2.86999989
   13.82999992  105.89099884    0.47999999    2.86999989
   13.83166695  114.84300232    0.47999999    2.86999989
   13.83500004  105.06900024    0.47999999    2.86999989
   13.83805561  104.17700195    0.47999999    2.84999990
   13.84416676  104.17700195    0.50000000    2.86999989
   13.84833336  103.77999878    0.50000000    2.86999989
   13.85138893  104.09400177    0.52999997    2.84999990
   13.85472298  100.63899994    0.51999998    2.86999989
   13.85805607  106.87699890    0.51999998    2.86999989
   13.86111164  107.90000153    0.51999998    2.86999989
   13.86333370  105.15699768    0.51999998    2.86999989
   13.86472225   99.89009857    0.51999998    2.86999989
   13.86805534  101.81600189    0.50000000    2.86999989
   13.87111092  102.04000092    0.50000000    2.86999989
   13.87444496  101.39299774    0.51999998    2.86999989
   13.87777805  102.80899811    0.51999998    2.86999989
   13.88083363  103.74400330    0.51999998    2.86999989
   13.88694477  103.74400330    0.52999997    2.84999990
   13.89111137  108.82099915    0.55000001    2.86999989
   13.89444447  105.02300262    0.55000001    2.86999989
   13.89666653  101.92299652    0.55000001    2.86999989
   13.89805508  102.63500214    0.55000001    2.84999990
   13.90138817  105.20700073    0.55000001    2.84999990
   13.90444374   99.58630371    0.55000001    2.84999990
   13.90777779  103.17900085    0.55000001    2.86999989
   13.91111088  101.59400177    0.55000001    2.86999989
   13.91416645  111.27200317    0.55000001    2.86999989
   13.91750050  106.72399902    0.55000001    2.84999990
   13.92083359  101.43599701    0.55000001    2.84999990
   13.92388916  104.28199768    0.55000001    2.86999989
   13.92972279  104.28199768    0.55000001    2.86999989
   13.93388939  102.03399658    0.55000001    2.86999989
   13.93722248  101.97699738    0.55000001    2.86999989
   13.94055557  103.41300201    0.55000001    2.86999989
   13.94361115   98.67970276    0.55000001    2.86999989
   13.94694424  100.73899841    0.55000001    2.86999989
   13.94999981  102.27899933    0.55000001    2.86999989
   13.95333290  102.11100006    0.56999999    2.86999989
   13.95666695  100.19699860    0.56999999    2.86999989
   13.95972157  100.88300323    0.58999997    2.84999990
   13.96305561  102.65299988    0.58999997    2.86999989
   13.96472168  103.49800110    0.58999997    2.86999989
   13.96666622  103.66799927    0.58999997    2.86999989
   13.97277737  103.66799927    0.61000001    2.86999989
   13.97694397  103.59500122    0.64999998    2.86999989
   13.97999954  102.66500092    0.67000002    2.84999990
   13.98333359  106.84999847    0.67000002    2.86999989
   13.98666668  105.99099731    0.64999998    2.86999989
   13.98972225  101.29699707    0.63000000    2.86999989
   13.99305534  100.30500031    0.61000001    2.86999989
   13.99638939   99.30719757    0.61000001    2.86999989
   13.99805546  102.93900299    0.61000001    2.86999989
   14.00000000  102.53800201    0.61000001    2.86999989
   14.00333309  100.48500061    0.58999997    2.86999989
   14.00638866  100.72899628    0.56999999    2.86999989
   14.00972176  100.74299622    0.56999999    2.86999989
   14.01555538  100.74299622    0.52999997    2.86999989
   14.01972198  100.58300018    0.56999999    2.86999989
   14.02305508  100.87599945    0.61000001    2.86999989
   14.02611065  100.29100037    0.61000001    2.86999989
   14.02944374  103.47100067    0.61000001    2.86999989
   14.03166676   98.69830322    0.61000001    2.86999989
   14.03305531  103.96600342    0.61000001    2.86999989
   14.03638935  101.41100311    0.63000000    2.86999989
   14.03944492  100.17600250    0.63000000    2.84999990
   14.04277802  104.71099854    0.63000000    2.86999989
   14.04583359  101.81500244    0.63000000    2.86999989
   14.04916668   99.73919678    0.64999998    2.86999989
   14.05249977   99.15830231    0.64999998    2.86999989
   14.05833340   99.15830231    0.63000000    2.86999989
   14.06250000  102.23100281    0.61000001    2.86999989
   14.06500053  103.66500092    0.61000001    2.86999989
   14.06611156   99.29930115    0.58999997    2.86999989
   14.06944466  102.16600037    0.58999997    2.86999989
   14.07250023  102.15599823    0.56999999    2.86999989
   14.07583332  100.69300079    0.58999997    2.86999989
   14.07888889   99.04429626    0.58999997    2.86999989
   14.08222198  103.61699677    0.58999997    2.86999989
   14.08555508  100.96099854    0.58999997    2.86999989
   14.08861065  105.22799683    0.64999998    2.86999989
   14.09194374   94.13790131    0.67000002    2.86999989
   14.09527779  106.90799713    0.63000000    2.86999989
   14.10111141  106.90799713    0.64999998    2.86999989
   14.10527802  103.31700134    0.63000000    2.86999989
   14.10861111  107.12599945    0.61000001    2.86999989
   14.11194515  106.00099945    0.61000001    2.86999989
   14.11500072   98.27510071    0.64999998    2.86999989
   14.11833382  104.42700195    0.64999998    2.86999989
   14.12166691  104.55799866    0.61000001    2.86999989
   14.12472248  103.14299774    0.63000000    2.86999989
   14.12805557  103.64700317    0.63000000    2.86999989
   14.13111115  101.00399780    0.64999998    2.86999989
   14.13222218  102.94000244    0.61000001    2.86999989
   14.13472176  101.16400146    0.61000001    2.86999989
   14.13805580  104.33899689    0.63000000    2.86999989
   14.14416695  104.33899689    0.75000000    2.86999989
   14.14833355  103.48400116    0.75000000    2.86999989
   14.15166664  102.97599792    0.79000002    2.86999989
   14.15472221  106.01100159    0.75000000    2.86999989
   14.15805531  105.66200256    0.64999998    2.86999989
   14.16138840  100.06099701    0.64999998    2.86999989
   14.16444397  105.41600037    0.67000002    2.86999989
   14.16555500  110.83300018    0.67000002    2.86999989
   14.16805553  102.41500092    0.69000000    2.86999989
   14.17138958  107.97399902    0.64999998    2.86999989
   14.17472267  104.68699646    0.64999998    2.86999989
   14.17777824  102.78299713    0.64999998    2.86999989
   14.18111134  101.63800049    0.64999998    2.86999989
   14.18694496  101.63800049    0.63000000    2.86999989
   14.19111156  105.05100250    0.63000000    2.86999989
   14.19416714  100.90499878    0.63000000    2.86999989
   14.19750023  101.69699860    0.63000000    2.86999989
   14.19888878  103.35399628    0.63000000    2.86999989
   14.20111084   98.75610352    0.61000001    2.89000010
   14.20444393  105.74900055    0.63000000    2.89000010
   14.20749950  105.14099884    0.63000000    2.86999989
   14.21083355  108.23200226    0.63000000    2.86999989
   14.21416664  101.11000061    0.61000001    2.86999989
   14.21722221  104.80999756    0.58999997    2.86999989
   14.22055531  105.62200165    0.58999997    2.86999989
   14.22361088  104.04799652    0.58999997    2.86999989
   14.22972202  104.04799652    0.61000001    2.86999989
   14.24805546   98.75890350    0.61000001    2.89000010
   14.25138855  101.59100342    0.63000000    2.86999989
   14.25472260  104.18299866    0.69000000    2.86999989
   14.25777817   98.91320038    0.67000002    2.86999989
   14.26111126  106.15100098    0.67000002    2.86999989
   14.26416683  100.71099854    0.69000000    2.86999989
   14.26749992  104.31700134    1.00000000    2.86999989
   14.27277756  104.31700134    0.80000001    2.86999989
   14.27694416  104.48400116    0.83999997    2.86999989
   14.28027725  100.51000214    0.79000002    2.86999989
   14.28111076  100.19999695    0.79000002    2.86999989
   14.28388977  107.09100342    0.55000001    2.86999989
   14.28694534  108.40599823    0.52999997    2.89000010
   14.29027843  102.42099762    0.52999997    2.86999989
   14.29361153  102.86699677    0.52999997    2.86999989
   14.29666710  106.39399719    0.51999998    2.86999989
   14.30000019  109.95899963    0.51999998    2.89000010
   14.30333328  105.37500000    0.51999998    2.89000010
   14.30638885   97.95339966    0.50000000    2.89000010
   14.30972195   99.34619904    0.50000000    2.86999989
   14.31555557   99.34619904    0.51999998    2.89000010
   14.31972218  104.72100067    0.51999998    2.86999989
   14.32305527  106.81600189    0.46000001    2.86999989
   14.32638836  100.94300079    0.46000001    2.86999989
   14.32944393  103.44400024    0.46000001    2.89000010
   14.33277798  102.20500183    0.46000001    2.89000010
   14.33611107  102.50000000    0.46000001    2.89000010
   14.33916664  106.20800018    0.46000001    2.89000010
   14.34249973  105.37699890    0.46000001    2.89000010
   14.34583282  108.16400146    0.47999999    2.86999989
   14.34777737  107.31900024    0.46000001    2.89000010
   14.34944439  108.20600128    0.46000001    2.89000010
   14.35277843  106.45800018    0.46000001    2.89000010
   14.35861111  106.45800018    0.47999999    2.89000010
   14.36277771   95.08249664    0.47999999    2.89000010
   14.36583328  105.02899933    0.50000000    2.89000010
   14.36916637  105.36100006    0.50000000    2.86999989
   14.37222195  107.83899689    0.50000000    2.86999989
   14.37555599  110.77200317    0.51999998    2.89000010
   14.37888908  105.58100128    0.51999998    2.86999989
   14.38111115  108.60900116    0.51999998    2.86999989
   14.38249969  104.78500366    0.51999998    2.86999989
   14.38583279  105.55999756    0.50000000    2.86999989
   14.38888836  103.46199799    0.50000000    2.89000010
   14.39222240  105.18499756    0.50000000    2.89000010
   14.39527798  107.17700195    0.50000000    2.86999989
   14.40138817  107.17700195    0.50000000    2.86999989
   14.40555477  110.91500092    0.47999999    2.86999989
   14.40861034  104.06300354    0.47999999    2.89000010
   14.41194439  112.11399841    0.47999999    2.89000010
   14.41444397  106.52700043    0.47999999    2.89000010
   14.41555500  105.31700134    0.47999999    2.89000010
   14.41888905  100.99700165    0.47999999    2.86999989
   14.42194462  101.56099701    0.47999999    2.89000010
   14.42527771  101.69699860    0.52999997    2.89000010
   14.42861176  101.80300140    0.52999997    2.89000010
   14.43166733  107.08000183    0.51999998    2.89000010
   14.43500042  103.78800201    0.50000000    2.89000010
   14.43833351  104.93299866    0.55000001    2.86999989
   14.44416714  104.93299866    0.47999999    2.89000010
   14.44833374  102.61499786    0.46000001    2.86999989
   14.45166683  104.97499847    0.46000001    2.86999989
   14.45472240  108.31800079    0.46000001    2.89000010
   14.45805550  106.91400146    0.47999999    2.89000010
   14.46111107  107.84600067    0.46000001    2.89000010
   14.46444416  108.66300201    0.47999999    2.89000010
   14.46777725  106.73000336    0.47999999    2.86999989
   14.47083282  110.54399872    0.47999999    2.86999989
   14.47416592  107.19899750    0.47999999    2.89000010
   14.47749996  106.37599945    0.47999999    2.89000010
   14.48055553  105.49099731    0.47999999    2.89000010
   14.48111057  100.84600067    0.47999999    2.89000010
   14.48694515  100.84600067    0.47999999    2.86999989
   14.49111176  104.03500366    0.50000000    2.89000010
   14.49444485  104.54199982    0.50000000    2.89000010
   14.49777794  107.65499878    0.50000000    2.89000010
   14.50083351  104.72599792    0.50000000    2.89000010
   14.50416660  102.79799652    0.51999998    2.89000010
   14.50722218  105.18900299    0.51999998    2.86999989
   14.51055527  103.49099731    0.50000000    2.89000010
   14.51388931  107.91400146    0.50000000    2.89000010
   14.51444435  104.40899658    0.50000000    2.89000010
   14.51749992  104.24199677    0.52999997    2.89000010
   14.52083302  100.54699707    0.51999998    2.86999989
   14.52388859  107.08399963    0.51999998    2.89000010
   14.52999973  107.08399963    0.50000000    2.89000010
   14.53388977  102.29399872    0.51999998    2.89000010
   14.53722286  105.44100189    0.51999998    2.89000010
   14.54055595  111.70300293    0.51999998    2.89000010
   14.54361153  103.29199982    0.51999998    2.89000010
   14.54694462  104.35399628    0.51999998    2.86999989
   14.54777813  104.04299927    0.52999997    2.89000010
   14.55055618  108.61399841    0.52999997    2.89000010
   14.55388927  105.81500244    0.51999998    2.89000010
   14.55694485  100.36100006    0.51999998    2.86999989
   14.56055546  100.87500000    0.50000000    2.89000010
   14.56388950  107.13600159    0.50000000    2.86999989
   14.56694412  104.28900146    0.50000000    2.89000010
   14.57277775  104.28900146    0.50000000    2.89000010
   14.57694435  110.01699829    0.51999998    2.89000010
   14.58027744  111.16699982    0.50000000    2.89000010
   14.58111095  114.24900055    0.50000000    2.89000010
   14.58361053  111.11000061    0.50000000    2.86999989
   14.58694458  112.25800323    0.50000000    2.86999989
   14.59000015  108.56600189    0.50000000    2.89000010
   14.59333324  108.78800201    0.51999998    2.89000010
   14.59666634  105.06999969    0.51999998    2.89000010
   14.59972191  111.58000183    0.52999997    2.91000009
   14.60305595  106.96700287    0.55000001    2.89000010
   14.60611153  111.45999908    0.55000001    2.89000010
   14.60944462  109.89900208    0.55000001    2.89000010
   14.61555576  109.89900208    0.55000001    2.89000010
   14.61972237  105.45200348    0.55000001    2.89000010
   14.62305546  111.28299713    0.55000001    2.89000010
   14.62611103  104.85800171    0.55000001    2.89000010
   14.62944412  104.45700073    0.52999997    2.89000010
   14.63249969  106.38400269    0.52999997    2.89000010
   14.63583279  103.22100067    0.52999997    2.91000009
   14.63916683  103.97599792    0.52999997    2.89000010
   14.64222240  109.72100067    0.52999997    2.89000010
   14.64555550  101.26899719    0.56999999    2.91000009
   14.64777756  108.08000183    0.56999999    2.91000009
   14.64916611  107.38700104    0.55000001    2.89000010
   14.65249920  105.67800140    0.55000001    2.89000010
   14.65833282  105.67800140    0.52999997    2.89000010
   14.66249943  106.02300262    0.52999997    2.89000010
   14.66583252  107.89900208    0.52999997    2.89000010
   14.66916656  108.87699890    0.51999998    2.89000010
   14.92972279   -1.00000000   -1.00000000   -1.00000000
   15.17833328   -1.00000000   -1.00000000   -1.00000000
   15.28944492   -1.00000000   -1.00000000   -1.00000000
   15.45444393   -1.00000000   -1.00000000   -1.00000000
   15.64361095   69.82230377    0.55000001    2.91000009
   15.64666653  106.18599701    0.55000001    2.91000009
   15.64999962  107.57499695    0.55000001    2.91000009
   15.65305519  108.87899780    0.55000001    2.91000009
   15.65638828  102.74800110    0.56999999    2.91000009
   15.65972137  103.00299835    0.56999999    2.91000009
   15.66388893  103.00299835    0.58999997    2.91000009
   15.66777802  101.46499634    0.58999997    2.91000009
   15.67111111  101.78700256    0.56999999    2.91000009
   15.67444515  102.84899902    0.56999999    2.91000009
   15.67666721  106.75499725    0.56999999    2.91000009
   15.67777824   99.91590118    0.56999999    2.91000009
   15.68111134  101.07099915    0.55000001    2.91000009
   15.68416691  100.77799988    0.55000001    2.91000009
   15.68750000   98.04360199    0.56999999    2.91000009
   15.69083309   99.83670044    0.56999999    2.91000009
   15.69388866   97.57270050    0.56999999    2.91000009
   15.69722271   98.61190033    0.56999999    2.91000009
   15.70055580   96.35970306    0.56999999    2.91000009
   15.70666695   96.35970306    0.58999997    2.91000009
   15.71083355   96.72789764    0.61000001    2.91000009
   15.71388912  102.59400177    0.61000001    2.91000009
   15.71722221   99.84089661    0.58999997    2.91000009
   15.72055531   97.19229889    0.58999997    2.91000009
   15.72361088  100.97699738    0.56999999    2.91000009
   15.72694397  101.90399933    0.73000002    2.91000009
   15.72999954  100.98000336    0.80000001    2.91000009
   15.73333359  101.59899902    0.80000001    2.91000009
   15.73666668  104.51699829    0.80000001    2.91000009
   15.73972225  103.32800293    0.83999997    2.91000009
   15.74305534  102.16200256    0.76999998    2.91000009
   15.74361134  104.08999634    0.76999998    2.91000009
   15.74944496  104.08999634    0.75000000    2.91000009
   15.75361156  101.76899719    0.83999997    2.91000009
   15.75694466   97.84950256    0.51999998    2.93000007
   15.76000023   99.86129761    0.56999999    2.93000007
   15.76333332   98.21369934    0.56999999    2.93000007
   15.76638889  100.68800354    0.67000002    2.93000007
   15.76972198  102.28800201    0.56999999    2.93000007
   15.77305508   98.86430359    0.64999998    2.91000009
   15.77638817   97.63529968    0.63000000    2.91000009
   15.77694416   99.58830261    0.63000000    2.91000009
   15.77972221   98.75070190    0.58999997    2.91000009
   15.78305531  101.97299957    0.64999998    2.93000007
   15.78638935  102.35900116    0.63000000    2.91000009
   15.79222298  102.35900116    0.69000000    2.91000009
   15.79638958   99.43229675    0.76999998    2.91000009
   15.79972267  101.22799683    0.70999998    2.91000009
   15.80277824  104.70400238    0.76999998    2.93000007
   15.80611134  101.24900055    0.64999998    2.93000007
   15.80944443   98.20600128    0.64999998    2.93000007
   15.81027794  100.84700012    0.64999998    2.93000007
   15.81277752   96.77639771    0.55000001    2.91000009
   15.81611156   96.75779724    0.67000002    2.91000009
   15.81944466  100.42900085    0.58999997    2.91000009
   15.82250023  102.28299713    0.56999999    2.91000009
   15.82583332   95.64170074    0.56999999    2.91000009
   15.82916641   96.22949982    0.63000000    2.93000007
   15.83527756   96.22949982    0.63000000    2.91000009
   15.83916664  105.54299927    0.61000001    2.93000007
   15.84249973  100.76100159    0.61000001    2.91000009
   15.84361076  100.34200287    0.61000001    2.91000009
   15.84611034  102.22399902    0.67000002    2.91000009
   15.84944439  106.26899719    0.69000000    2.91000009
   15.85277843  106.20899963    0.64999998    2.91000009
   15.85583401  102.95700073    0.67000002    2.93000007
   15.85916710  100.49700165    0.63000000    2.91000009
   15.86250019  104.64099884    0.63000000    2.91000009
   15.86555576  105.98500061    0.63000000    2.91000009
   15.86888885  109.28900146    0.64999998    2.91000009
   15.87194443  106.59100342    0.64999998    2.91000009
   15.87805557  106.59100342    0.64999998    2.91000009
   15.88222218   98.42600250    0.64999998    2.91000009
   15.88527775  103.11499786    0.64999998    2.91000009
   15.88861084   98.30829620    0.64999998    2.91000009
   15.89194393  103.37000275    0.67000002    2.91000009
   15.89499950  101.26499939    0.63000000    2.91000009
   15.89833355   98.59829712    0.63000000    2.91000009
   15.90166664  101.20600128    0.64999998    2.91000009
   15.90472221  101.70500183    0.67000002    2.93000007
   15.90805531  103.61499786    0.63000000    2.91000009
   15.91027737  100.35800171    0.58999997    2.93000007
   15.91166592  103.35099792    0.58999997    2.93000007
   15.91472149  102.97499847    0.61000001    2.91000009
   15.92083359  102.97499847    0.63000000    2.91000009
   15.92500019   98.95269775    0.61000001    2.91000009
   15.92833328  106.04299927    0.61000001    2.93000007
   15.93138885  105.16300201    0.61000001    2.93000007
   15.93472195  106.24400330    0.61000001    2.91000009
   15.93777752  107.91600037    0.61000001    2.91000009
   15.94111156  106.79299927    0.58999997    2.91000009
   15.94361115  107.43099976    0.58999997    2.91000009
   15.94499969  104.35600281    0.58999997    2.91000009
   15.94805527  105.63200378    0.61000001    2.91000009
   15.95138836   99.90090179    0.58999997    2.91000009
   15.95444393  103.79299927    0.58999997    2.93000007
   15.95777798  109.35700226    0.58999997    2.93000007
   15.96361065  109.35700226    0.58999997    2.93000007
   15.96777725  100.30999756    0.58999997    2.93000007
   15.97111034  100.73999786    0.58999997    2.93000007
   15.97416592  179.20199585    0.69000000    2.93000007
   15.97694397  100.27100372    0.75000000    2.91000009
   15.97805500  102.21099854    0.75000000    2.91000009
   15.98111057  104.66699982    0.70999998    2.91000009
   15.98444462  105.31900024    0.70999998    2.91000009
   15.98777771  104.69499969    0.75000000    2.91000009
   15.99083328  107.89800262    0.75000000    2.91000009
   15.99416733   99.71600342    0.79000002    2.91000009
   15.99750042  102.99299622    0.83999997    2.93000007
   16.00055504  105.15899658    0.86000001    2.91000009
   16.00666618  105.15899658    0.75000000    2.91000009
   16.01055527  110.18499756    0.76999998    2.91000009
   16.01388931  107.83899689    0.80000001    2.93000007
   16.01722145  105.77300262    0.80000001    2.93000007
   16.02027702  106.15000153    0.89999998    2.91000009
   16.02361107  104.92900085    0.88000000    2.91000009
   16.02694511  103.83599854    0.92000002    2.91000009
   16.03000069  106.58000183    0.88000000    2.91000009
   16.03333282  103.23500061    0.83999997    2.91000009
   16.03638840  102.72299957    0.81999999    2.91000009
   16.03972244  105.70500183    0.81999999    2.91000009
   16.04305458   98.86489868    0.88000000    2.91000009
   16.04361153  100.51999664    0.88000000    2.91000009
   16.04944420  100.51999664    0.92000002    2.91000009
   16.05360985  111.72699738    0.88000000    2.91000009
   16.05666542  103.81999969    1.00000000    2.91000009
   16.05999947  107.44499969    0.94000000    2.91000009
   16.06333351  104.55699921    0.94000000    2.91000009
   16.06638718  101.27300262    0.88000000    2.91000009
   16.06972313  102.55100250    0.89999998    2.91000009
   16.07305717  106.52500153    0.89999998    2.91000009
   16.07611275  104.01399994    0.95999998    2.91000009
   16.07694626  102.81800079    0.95999998    2.91000009
   16.08000183  107.28399658    0.98000002    2.91000009
   16.08305550  103.49299622    1.05999994    2.91000009
   16.08638954  107.26699829    1.14999998    2.91000009
   16.09222221  107.26699829    1.19000006    2.91000009
   16.09638977  102.04799652    1.09000003    2.91000009
   16.09972191  104.05000305    1.09000003    2.91000009
   16.10277748   99.29900360    1.07000005    2.91000009
   16.10611153  106.59100342    1.00000000    2.91000009
   16.10916710  103.94599915    1.05999994    2.91000009
   16.11027908  103.13099670    1.05999994    2.91000009
   16.11305618  104.25399780    1.03999996    2.91000009
   16.11611176  105.44300079    1.05999994    2.91000009
   16.11944389  101.83699799    1.01999998    2.91000009
   16.12249947  109.31900024    1.00000000    2.91000009
   16.12583351  104.20400238    1.00000000    2.91000009
   16.12916756  101.16000366    0.95999998    2.91000009
   16.13500023  101.16000366    0.92000002    2.91000009
   16.13916588   96.40560150    0.94000000    2.91000009
   16.14249992  107.23400116    1.00000000    2.91000009
   16.14361191   97.60900116    1.00000000    2.91000009
   16.14611053  103.32599640    0.95999998    2.91000009
   16.14916611  102.33799744    0.94000000    2.91000009
   16.15250015  101.56199646    0.94000000    2.91000009
   16.15555573  104.52799988    0.94000000    2.93000007
   16.15888786  100.80100250    0.92000002    2.91000009
   16.16222191  101.61000061    0.89999998    2.91000009
   16.16527748  101.66100311    0.89999998    2.91000009
   16.16860962   95.93569946    0.89999998    2.91000009
   16.17194366  100.84600067    0.88000000    2.91000009
   16.17805481  100.84600067    0.89999998    2.91000009
   16.18194389  100.06700134    0.89999998    2.91000009
   16.18527603   95.33460236    0.94000000    2.91000009
   16.18861008   97.64499664    0.94000000    2.91000009
   16.19166565  103.02999878    0.94000000    2.89000010
   16.19499969   98.93779755    0.95999998    2.91000009
   16.19833183  100.35299683    0.94000000    2.89000010
   16.20166779   95.22029877    0.94000000    2.89000010
   16.20472336  101.81099701    1.11000001    2.91000009
   16.20805550  103.68900299    0.88000000    2.91000009
   16.21027946  100.56300354    0.88000000    2.91000009
   16.21138954  108.26200104    0.86000001    2.91000009
   16.21472359   99.99639893    0.86000001    2.91000009
   16.22083473   99.99639893    0.80000001    2.91000009
   16.22500038  101.19899750    0.80000001    2.91000009
   16.22805595  110.89700317    0.81999999    2.91000009
   16.23139000  105.99099731    0.80000001    2.91000009
   16.23472214  105.37500000    0.81999999    2.91000009
   16.23777771  101.28199768    0.81999999    2.91000009
   16.24111176  100.35900116    0.83999997    2.91000009
   16.24361229  100.09500122    0.95999998    2.91000009
   16.24472237  104.68099976    0.95999998    2.91000009
   16.24777794   98.87950134    0.95999998    2.91000009
   16.25111198  100.12200165    0.95999998    2.91000009
   16.25416756   97.88610077    0.95999998    2.91000009
   16.25749969  100.28700256    0.86000001    2.91000009
   16.26361084  100.28700256    0.89999998    2.91000009
   16.26777840  100.17400360    0.92000002    2.91000009
   16.27111053   98.16069794    0.95999998    2.91000009
   16.27416611  101.54399872    0.98000002    2.91000009
   16.27694511   97.98120117    0.98000002    2.91000009
   16.27805519   96.94819641    0.98000002    2.91000009
   16.28111076   99.48220062    1.01999998    2.91000009
   16.28444481  100.79599762    1.11000001    2.91000009
   16.28777695  100.50399780    1.21000004    2.91000009
   16.29083252  101.65399933    1.21000004    2.91000009
   16.29416656  101.61900330    1.19000006    2.91000009
   16.29722214  102.26799774    1.19000006    2.91000009
   16.30055428  104.35299683    1.19000006    2.91000009
   16.30638885  104.35299683    1.14999998    2.91000009
   16.31055450   99.40299988    1.14999998    2.91000009
   16.31388855   97.98719788    1.14999998    2.91000009
   16.31694603   97.10769653    1.14999998    2.89000010
   16.32027817  101.38200378    1.19000006    2.91000009
   16.32361221  100.74500275    1.19000006    2.91000009
   16.32666779   99.40550232    1.21000004    2.91000009
   16.33000183   95.49729919    1.16999996    2.91000009
   16.33333397   99.80899811    1.19000006    2.91000009
   16.33638954  101.76599884    1.16999996    2.89000010
   16.33972359   95.56670380    1.14999998    2.89000010
   16.34277916  102.44300079    1.16999996    2.89000010
   16.34361267  105.15499878    1.16999996    2.89000010
   16.34944534  105.15499878    1.14999998    2.91000009
   16.35333443  104.06900024    1.11000001    2.91000009
   16.35666656  102.82499695    1.05999994    2.91000009
   16.36000061  103.85700226    1.00000000    2.91000009
   16.36305618  107.61599731    1.00000000    2.91000009
   16.36638832  103.21499634    0.98000002    2.91000009
   16.36972237  110.83100128    0.98000002    2.91000009
   16.37277794   99.07790375    1.00000000    2.91000009
   16.37611198   96.98079681    1.01999998    2.91000009
   16.37694550   96.72350311    1.01999998    2.91000009
   16.37972260   97.51100159    1.01999998    2.91000009
   16.38277817   99.76779938    1.05999994    2.91000009
   16.38611031  101.66899872    1.01999998    2.91000009
   16.39222145  101.66899872    1.00000000    2.91000009
   16.39638901   98.00180054    1.01999998    2.91000009
   16.39972115   98.52709961    1.00000000    2.91000009
   16.40277672   99.76519775    1.01999998    2.93000007
   16.40611076   97.82659912    1.01999998    2.91000009
   16.40916634  102.31600189    1.00000000    2.91000009
   16.41027832  102.87599945    1.00000000    2.91000009
   16.41305542  102.90100098    0.95999998    2.93000007
   16.41611099  103.98799896    0.95999998    2.93000007
   16.41944313  102.47299957    0.94000000    2.91000009
   16.42277718  106.33499908    0.86000001    2.93000007
   16.42583275  106.20600128    0.88000000    2.93000007
   16.42916679  104.31700134    0.86000001    2.93000007
   16.43499947  104.31700134    0.92000002    2.93000007
   16.43916512  100.26499939    0.94000000    2.93000007
   16.44249916   98.40920258    1.00000000    2.91000009
   16.44361115  101.06900024    1.00000000    2.91000009
   16.44610977  101.13700104    1.03999996    2.93000007
   16.44916534  102.11000061    1.03999996    2.93000007
   16.45250130   94.91519928    0.92000002    2.91000009
   16.45555687  103.52899933    0.75000000    2.93000007
   16.45916748  107.96199799    0.76999998    2.93000007
   16.46250153  100.61499786    0.79000002    2.93000007
   16.46583366  104.62799835    0.92000002    2.91000009
   16.46888924  101.85800171    0.92000002    2.91000009
   16.47222328  103.47699738    1.01999998    2.91000009
   16.47777748  103.47699738    1.16999996    2.91000009
   16.48194504   98.10389709    1.33000004    2.91000009
   16.48527718  103.51799774    1.30999994    2.91000009
   16.48861122  104.62899780    1.25000000    2.91000009
   16.49166679  104.21800232    1.25000000    2.91000009
   16.49500084  105.20200348    1.16999996    2.93000007
   16.49805641  104.07599640    1.09000003    2.91000009
   16.50138855   97.27919769    1.09000003    2.91000009
   16.50472260   97.85199738    1.05999994    2.91000009
   16.50777817   99.88790131    1.11000001    2.93000007
   16.51027870   98.11029816    1.11000001    2.93000007
   16.51166725   93.07959747    1.11000001    2.93000007
   16.51472282   97.02330017    0.98000002    2.93000007
   16.52055550   97.02330017    1.00000000    2.91000009
   16.52472115   99.56600189    1.03999996    2.91000009
   16.52805519  100.74500275    1.03999996    2.91000009
   16.53138924   96.19509888    1.03999996    2.91000009
   16.53444481   94.39990234    1.03999996    2.93000007
   16.53777695  107.06400299    1.01999998    2.93000007
   16.54083252  104.05699921    1.39999998    2.91000009
   16.54361153  105.31900024    1.66999996    2.93000007
   16.54472160  103.42900085    1.66999996    2.93000007
   16.54777718  105.44599915    1.76999998    2.91000009
   16.55111122  102.08200073    1.60000002    2.91000009
   16.55444336  106.49900055    1.60000002    2.91000009
   16.55749893  101.35399628    1.55999994    2.91000009
   16.56361008  101.35399628    1.60000002    2.91000009
   16.56777954  101.99099731    1.51999998    2.91000009
   16.57083511   96.84110260    1.60000002    2.91000009
   16.57416725   99.62349701    1.66999996    2.91000009
   16.57694626   98.60890198    1.55999994    2.91000009
   16.57777786  102.18299866    1.55999994    2.91000009
   16.58111191   98.24629974    1.60000002    2.91000009
   16.58416748   98.48139954    1.53999996    2.91000009
   16.58750153  100.36000061    1.53999996    2.91000009
   16.59055710  101.06600189    1.33000004    2.91000009
   16.59388924  100.40100098    1.39999998    2.91000009
   16.59722328   97.53040314    1.34000003    2.91000009
   16.60027885   97.83370209    1.34000003    2.91000009
   16.60666656   97.83370209    1.30999994    2.91000009
   16.61055565  100.36599731    1.51999998    2.91000009
   16.61388969   98.95300293    1.39999998    2.91000009
   16.61722183  101.33599854    1.13000000    2.93000007
   16.62027740   98.53009796    1.13000000    2.93000007
   16.62361145  104.85700226    1.25000000    2.93000007
   16.62694550  101.25000000    1.26999998    2.91000009
   16.63000107   97.02839661    1.16999996    2.91000009
   16.63333321   97.70400238    1.13000000    2.91000009
   16.63638878  100.69999695    1.05999994    2.93000007
   16.63972282   93.50140381    1.05999994    2.93000007
   16.64305496   91.32230377    1.03999996    2.91000009
   16.64361191   94.43669891    1.03999996    2.91000009
   16.66444397   94.43669891    1.34000003    2.91000009
   16.66860962   99.26210022    1.48000002    2.91000009
   16.67166519   95.85649872    1.63000000    2.91000009
   16.67499924   97.55529785    1.80999994    2.91000009
   16.67694473  104.06700134    1.80999994    2.91000009
   16.67860985  103.18199921    1.94000006    2.91000009
   16.68166542  103.92299652    1.94000006    2.91000009
   16.68499947   98.61180115    1.91999996    2.91000009
   16.68833160   95.45010376    1.83000004    2.91000009
   16.69138718   99.60359955    1.80999994    2.89000010
   16.69472122   99.29989624    1.69000006    2.91000009
   16.69777679   99.61160278    1.69000006    2.91000009
   16.70111275   97.78369904    1.69000006    2.91000009
   16.70722389   97.78369904    1.51999998    2.91000009
   16.71111107   96.11640167    1.05999994    2.93000007
   16.71444511  100.74299622    1.09000003    2.91000009
   16.71777916   98.20989990    1.23000002    2.91000009
   16.72083473   97.67269897    1.23000002    2.91000009
   16.72416687   99.00309753    1.26999998    2.91000009
   16.72750092   96.99559784    1.38000000    2.91000009
   16.73055649   97.25659943    1.39999998    2.91000009
   16.73388863  101.70999908    1.39999998    2.91000009
   16.73694420  102.79000092    1.28999996    2.91000009
   16.74027824   99.81130219    1.16999996    2.91000009
   16.74361229  101.77799988    1.16999996    2.91000009
   16.74416733  104.24099731    1.16999996    2.91000009
   16.75000000  104.24099731    1.19000006    2.91000009
   16.75416756  100.23400116    1.14999998    2.91000009
   16.75722313   97.51989746    1.16999996    2.91000009
   16.76055527   97.41419983    1.16999996    2.91000009
   16.76388931   99.47070313    1.28999996    2.91000009
   16.76694489   97.81549835    1.44000006    2.91000009
   16.77027702  105.11799622    1.46000004    2.91000009
   16.77361107   97.08679962    1.33000004    2.91000009
   16.77666664  104.29399872    1.33000004    2.91000009
   16.77750015   95.72480011    1.30999994    2.91000009
   16.78027725  103.83799744    1.30999994    2.91000009
   16.78361130  101.37599945    1.16999996    2.91000009
   16.78694344  100.63600159    1.30999994    2.91000009
   16.79277802  100.63600159    1.46000004    2.89000010
   16.79694366  101.68299866    1.53999996    2.91000009
   16.80027771   98.75189972    1.44000006    2.91000009
   16.80333328  102.47200012    1.44000006    2.91000009
   16.80666542   97.80130005    1.46000004    2.89000010
   16.80999947  101.29499817    1.50000000    2.91000009
   16.81083298  100.51100159    1.50000000    2.91000009
   16.81333351  104.07900238    1.30999994    2.91000009
   16.81666756  107.58699799    1.28999996    2.89000010
   16.82000160   95.50890350    1.26999998    2.91000009
   16.82305717  103.94000244    1.26999998    2.91000009
   16.82638931  101.93900299    1.28999996    2.91000009
   16.82944489  100.13200378    1.34000003    2.91000009
   16.83583450  100.13200378    1.28999996    2.91000009
   16.83972359   99.33270264    1.19000006    2.91000009
   16.84305573  100.60900116    1.28999996    2.91000009
   16.84416771   97.24729919    1.28999996    2.91000009
   16.84666824   97.29360199    1.21000004    2.91000009
   16.85000038  100.86699677    1.21000004    2.91000009
   16.85333443  100.11299896    1.28999996    2.91000009
   16.85639000  103.36499786    1.34000003    2.91000009
   16.85972214   98.40599823    1.41999996    2.91000009
   16.86277771  104.72200012    1.41999996    2.91000009
   16.86611176  101.18800354    1.55999994    2.91000009
   16.86944389  100.29100037    1.41999996    2.91000009
   16.87249947  100.80599976    1.33000004    2.91000009
   16.87861061  100.80599976    1.41999996    2.91000009
   16.88249969  106.54699707    1.41999996    2.91000009
   16.88583374  102.21800232    1.46000004    2.91000009
   16.88916588  101.27899933    1.46000004    2.91000009
   16.89222145  104.71700287    1.51999998    2.91000009
   16.89555550  100.06500244    1.51999998    2.91000009
   16.89888954   97.94850159    1.50000000    2.91000009
   16.90194321   97.16600037    1.41999996    2.91000009
   16.90527725   99.79910278    1.50000000    2.91000009
   16.90833282   99.63580322    1.50000000    2.91000009
   16.91083336  101.52400208    1.25000000    2.91000009
   16.91194344  101.56099701    1.25000000    2.91000009
   16.91527748   97.43800354    1.09000003    2.91000009
   16.92138863   97.43800354    1.03999996    2.91000009
   16.92555428  104.58100128    1.03999996    2.91000009
   16.92860985   98.08899689    0.94000000    2.91000009
   16.93194389  104.40299988    0.92000002    2.93000007
   16.93527603   99.75969696    0.83999997    2.91000009
   16.93833160   96.84339905    0.81999999    2.91000009
   16.94166565   98.51580048    0.81999999    2.91000009
   16.94416618  100.11499786    0.80000001    2.93000007
   16.94527626  102.25700378    0.80000001    2.93000007
   16.94861031  103.36199951    0.83999997    2.91000009
   16.95166779   96.09609985    0.83999997    2.91000009
   16.95499992  102.23699951    0.81999999    2.91000009
   16.95833397  102.70099640    0.83999997    2.91000009
   16.96416664  102.70099640    0.86000001    2.91000009
   16.96833420  104.47899628    0.86000001    2.93000007
   16.97166634  104.00299835    0.92000002    2.93000007
   16.97472191  100.98699951    0.94000000    2.91000009
   16.97750092  106.78500366    0.89999998    2.91000009
   16.97861099  102.12699890    0.89999998    2.91000009
   16.98166656  105.57900238    1.00000000    2.91000009
   16.98500061  102.99600220    1.00000000    2.91000009
   16.98833275   96.77100372    1.23000002    2.91000009
   16.99138832   97.36360168    1.21000004    2.91000009
   16.99472237   99.12039948    1.11000001    2.91000009
   16.99805641  103.60600281    1.05999994    2.93000007
   17.00111198   95.88569641    1.13000000    2.91000009
   17.00694466   95.88569641    1.16999996    2.91000009
   17.01111031   98.98370361    1.34000003    2.91000009
   17.01444435   98.58450317    1.51999998    2.91000009
   17.01749992  100.77200317    1.51999998    2.91000009
   17.02083397   95.23229980    1.61000001    2.91000009
   17.02416611   97.80960083    1.66999996    2.89000010
   17.02722168  100.72000122    1.73000002    2.91000009
   17.03055573  108.16300201    1.66999996    2.91000009
   17.03388786  101.08300018    1.60000002    2.91000009
   17.03694344  103.32499695    1.50000000    2.91000009
   17.04027748  101.11100006    1.50000000    2.91000009
   17.04333305  107.72699738    1.46000004    2.91000009
   17.04416656  104.42900085    1.46000004    2.91000009
   17.04999924  104.42900085    1.48000002    2.91000009
   17.05416679  107.63500214    1.53999996    2.91000009
   17.05722237   99.31359863    1.61000001    2.91000009
   17.06055450  103.51699829    1.66999996    2.91000009
   17.06361008  106.79399872    1.66999996    2.91000009
   17.06694603  105.12000275    1.61000001    2.91000009
   17.07027817  110.91400146    1.60000002    2.93000007
   17.07333374  103.06400299    2.03999996    2.91000009
   17.07666779   98.75939941    2.19000006    2.89000010
   17.07750130   99.49019623    2.21000004    2.89000010
   17.08027840   99.11789703    2.13000011    2.91000009
   17.08361244   96.79679871    2.15000010    2.89000010
   17.08694458   96.75949860    2.32999992    2.89000010
   17.09277916   96.75949860    2.55999994    2.91000009
   17.09694481   99.70790100    2.59999990    2.91000009
   17.10000038   99.69809723    2.67000008    2.89000010
   17.10333443   97.58560181    2.78999996    2.89000010
   17.10666656   96.73200226    2.80999994    2.89000010
   17.10972214  100.41799927    2.67000008    2.91000009
   17.11083412   95.60729980    2.67000008    2.89000010
   17.11333466  102.81099701    2.57999992    2.89000010
   17.11666679  103.84300232    2.59999990    2.89000010
   17.12000084   98.16870117    2.57999992    2.89000010
   17.12305641  102.77899933    2.67000008    2.89000010
   17.12638855  101.16100311    3.05999994    2.86999989
   17.12944412  104.70300293    3.23000002    2.89000010
   17.13555527  104.70300293    3.26999998    2.89000010
   17.13972282  101.67299652    3.41000009    2.86999989
   17.14305496   98.77429962    3.43000007    2.86999989
   17.14416695  104.01100159    3.50000000    2.89000010
   17.14638901  102.19100189    3.89000010    2.86999989
   17.14972115  107.59400177    4.71999979    2.84999990
   17.15305519  104.84500122    4.90999985    2.82999992
   17.15611076   99.42739868    4.90999985    2.82999992
   17.15944481  100.67099762    4.90999985    2.80999994
   17.16250038  106.48100281    4.90999985    2.80999994
   17.16583252  100.53600311    4.90999985    2.80999994
   17.16916656  103.06600189    4.90999985    2.80999994
   17.17222214   99.17990112    4.90999985    2.78999996
   17.17833328   99.17990112    4.90999985    2.78999996
   17.18249893  100.17900085    4.90999985    2.78999996
   17.18583298  100.68800354    4.90999985    2.78999996
   17.18888855  103.73899841    4.90999985    2.78999996
   17.19222069  106.17199707    4.90999985    2.78999996
   17.19555473   94.87590027    4.90999985    2.80999994
   17.19861031   93.13819885    4.90999985    2.80999994
   17.20194435  103.31700134    4.90999985    2.78999996
   17.20527840  100.37300110    4.90999985    2.80999994
   17.20833397   94.90280151    4.90999985    2.76999998
   17.21083450  104.62000275    4.90999985    2.78999996
   17.21194458   96.21700287    4.90999985    2.78999996
   17.21527863   95.73989868    4.90999985    2.80999994
   17.22138977   95.73989868    4.90999985    2.78999996
   17.22527885   93.88600159    4.90999985    2.76999998
   17.22861099   95.34790039    4.90999985    2.80999994
   17.23194504   94.79299927    4.90999985    2.82999992
   17.23500061   95.76499939    4.90999985    2.86999989
   17.23833275   94.82559967    4.69999981    2.86999989
   17.24166679   84.06140137    4.07999992    2.86999989
   17.24416733   93.50859833    4.11999989    2.84999990
   17.24500084   95.51080322    4.15999985    2.86999989
   17.24833298   90.55609894    3.32999992    2.86999989
   17.25166702  101.17800140    3.01999998    2.86999989
   17.25472260   92.11470032    2.69000006    2.89000010
   17.25805473   96.09510040    2.71000004    2.89000010
   17.26416588   96.09510040    3.03999996    2.86999989
   17.26833344   99.64209747    3.32999992    2.86999989
   17.27138901   96.01450348    3.89000010    2.86999989
   17.27472115  101.60700226    3.78999996    2.86999989
   17.27750015   96.98320007    3.55999994    2.86999989
   17.27833366   94.11560059    3.32999992    2.86999989
   17.28166580   95.91870117    3.32999992    2.86999989
   17.28499985  100.39199829    4.30999994    2.86999989
   17.28805542   98.67410278    3.51999998    2.86999989
   17.29138756   98.35759735    3.21000004    2.86999989
   17.29444313   95.12699890    2.78999996    2.89000010
   17.29777718   97.42790222    2.55999994    2.89000010
   17.30111122   98.64739990    2.34999990    2.91000009
   17.30694389   98.64739990    2.61999989    2.89000010
   17.31110954  101.49400330    2.76999998    2.89000010
   17.31444359  101.76100159    2.69000006    2.89000010
   17.31750107   97.87159729    2.69000006    2.89000010
   17.32083511   92.21929932    2.84999990    2.89000010
   17.32389069  102.47000122    3.11999989    2.86999989
   17.32722282   99.40309906    3.05999994    2.89000010
   17.33055687  103.21900177    3.20000005    2.89000010
   17.33361244  100.19699860    3.05999994    2.89000010
   17.33694458  102.62100220    3.28999996    2.86999989
   17.34027863  103.40200043    3.48000002    2.86999989
   17.34333420   99.96620178    3.41000009    2.86999989
   17.34416771   97.18229675    3.41000009    2.86999989
   17.34972191   97.18229675    3.07999992    2.86999989
   17.35388947   94.41619873    3.03999996    2.89000010
   17.35722351  100.92500305    3.01999998    2.89000010
   17.36027908   95.88490295    2.86999989    2.86999989
   17.36361122   93.82299805    2.96000004    2.86999989
   17.36694527   97.36930084    2.96000004    2.86999989
   17.37000084   98.14700317    3.32999992    2.86999989
   17.37333298   95.43399811    3.21000004    2.86999989
   17.37666702   92.01850128    3.03999996    2.89000010
   17.37750053   90.37079620    2.91000009    2.91000009
   17.38000107   95.71479797    2.94000006    2.86999989
   17.38333321   98.17320251    2.89000010    2.89000010
   17.38666725   94.61650085    2.64000010    2.89000010
   17.39277840   94.61650085    2.86999989    2.89000010
   17.39666748   95.40630341    2.89000010    2.89000010
   17.39999962  100.11900330    3.30999994    2.86999989
   17.40333366   97.44010162    3.72000003    2.86999989
   17.40638924  105.00199890    4.59999990    2.86999989
   17.40972137   94.09760284    4.90999985    2.84999990
   17.41083336  100.20500183    4.90999985    2.84999990
   17.41305542   97.22209930    4.90999985    2.82999992
   17.41638756  100.81600189    4.90999985    2.84999990
   17.41972160   95.73079681    4.90999985    2.82999992
   17.42277718   93.99780273    4.82999992    2.84999990
   17.42611122   99.31469727    3.86999989    2.86999989
   17.42944336   95.67590332    3.55999994    2.86999989
   17.43555450   95.67590332    3.93000007    2.86999989
   17.43972206   95.53440094    3.26999998    2.89000010
   17.44277763   90.46759796    2.96000004    2.86999989
   17.44416618   92.51329803    2.78999996    2.86999989
   17.44638824   90.06729889    2.71000004    2.89000010
   17.44972038   91.43560028    2.67000008    2.89000010
   17.45305634   97.15650177    2.84999990    2.89000010
   17.45611191   96.66519928    3.00000000    2.89000010
   17.45944595   95.31379700    3.18000007    2.89000010
   17.46277809   95.76920319    3.51999998    2.89000010
   17.46583366   97.11340332    4.09999990    2.86999989
   17.46916771   96.09510040    4.90999985    2.84999990
   17.47222328   99.75090027    4.90999985    2.82999992
   17.47833443   99.75090027    4.90999985    2.82999992
   17.48250008   98.50019836    4.90999985    2.84999990
   17.48583412   93.72059631    4.76000023    2.84999990
   17.48888969  100.47000122    4.90999985    2.84999990
   17.49222183  100.39600372    4.90999985    2.82999992
   17.49527740   99.00450134    4.90999985    2.84999990
   17.49861145   92.60900116    4.90999985    2.84999990
   17.50194359   95.27660370    4.90999985    2.84999990
   17.50527763   96.51409912    4.90999985    2.84999990
   17.50833321   93.06980133    4.90999985    2.82999992
   17.51083374   96.08529663    4.78000021    2.84999990
   17.51194382   94.45279694    4.63999987    2.84999990
   17.51555634   87.66220093    4.26000023    2.86999989
   17.52111053   87.66220093    3.91000009    2.86999989
   17.52527809   90.19280243    3.68000007    2.86999989
   17.52861023   90.62580109    3.66000009    2.86999989
   17.53166580   99.50060272    4.01999998    2.84999990
   17.53499985   96.96469879    4.34999990    2.84999990
   17.53833199   92.82219696    4.90999985    2.84999990
   17.54138756   91.34719849    4.90999985    2.82999992
   17.54416656   95.93620300    4.90999985    2.80999994
   17.54500008  101.31999969    4.90999985    2.76999998
   17.54833221  109.51000214    4.90999985    2.71000004
   17.55166626  125.18699646    4.90999985    2.50000000
   17.55472183  155.33599854    4.90999985    2.39000010
   17.55805397  106.83000183    4.90999985    2.46000004
   17.56416512  106.83000183    4.90999985    2.75000000
   17.56805611   99.07610321    4.90999985    2.84999990
   17.57139015  101.66500092    2.98000002    2.86999989
   17.57472229  101.95500183    2.61999989    2.89000010
   17.57750130  104.40399933    2.32999992    2.89000010
   17.57805634   98.64459991    2.19000006    2.89000010
   17.58139038   98.30570221    2.13000011    2.89000010
   17.58472252   96.80190277    2.19000006    2.89000010
   17.58777809   94.31359863    2.32999992    2.89000010
   17.59111214   96.19619751    2.40000010    2.86999989
   17.59444427   96.78919983    2.53999996    2.89000010
   17.59749985  102.57099915    2.91000009    2.86999989
   17.60083389   95.39289856    2.51999998    2.86999989
   17.60694504   95.39289856    2.32999992    2.89000010
   17.61111069   98.82730103    2.53999996    2.89000010
   17.61416626  100.93599701    2.40000010    2.89000010
   17.61750031  109.32599640    2.39000010    2.89000010
   17.62083435   98.07740021    2.23000002    2.89000010
   17.62388992   94.00730133    2.19000006    2.86999989
   17.62722206   97.73999786    2.26999998    2.89000010
   17.63055611   94.78759766    2.25000000    2.89000010
   17.63361168   98.16230011    2.19000006    2.89000010
   17.63694382   97.37870026    2.13000011    2.89000010
   17.63999939   98.76360321    2.09999990    2.89000010
   17.64333344   98.76360321    1.98000002    2.89000010
   17.64444351   98.76360321    1.96000004    2.89000010
   17.64999962   98.76360321    1.86000001    2.86999989
   17.65472221   98.76360321    1.85000002    2.86999989
   17.65805435   98.76360321    2.09999990    2.86999989
   17.66166687   98.76360321    2.17000008    2.86999989
   17.67888832   98.76360321    2.42000008    2.89000010
   17.68194389   98.76360321    2.51999998    2.89000010
   17.68555450   98.76360321    2.57999992    2.89000010
   17.68888855   98.76360321    3.48000002    2.86999989
   17.69333267   98.76360321    4.82999992    2.84999990
   17.69805527   98.76360321    4.90999985    2.78999996
   17.70138931   98.76360321    4.90999985    2.76999998
   17.70499992   98.76360321    4.90999985    2.78999996
   17.70833397   98.76360321    4.90999985    2.82999992
   17.71194458   98.76360321    3.70000005    2.86999989
   17.71250153   98.76360321    3.70000005    2.86999989
   17.71611214   98.76360321    4.19999981    2.86999989
   17.71944427   98.76360321    4.90999985    2.82999992
   17.72305679   98.76360321    4.90999985    2.82999992
   17.72638893   98.76360321    4.90999985    2.82999992
   17.73000145   98.76360321    4.90999985    2.80999994
   17.73611069   98.76360321    4.90999985    2.82999992
   17.74083328   98.76360321    4.90999985    2.82999992
   17.74444389   98.76360321    4.48999977    2.86999989
   17.74583435   98.76360321    3.73000002    2.84999990
   17.74888992   98.76360321    3.86999989    2.86999989
   17.75222206   98.76360321    3.41000009    2.86999989
   17.75583267   98.76360321    3.59999990    2.84999990
   17.75916672   98.76360321    4.26000023    2.84999990
   17.76277733   98.76360321    4.69999981    2.84999990
   17.76611137   98.76360321    4.46999979    2.84999990
   17.76972198   98.76360321    4.90999985    2.78999996
   17.77305603   98.76360321    4.90999985    2.78999996
   17.77916718   98.76360321    4.90999985    2.78999996
   17.78388786   98.76360321    4.90999985    2.76999998
   17.78750038   98.76360321    4.90999985    2.73000002
   17.79083252   98.76360321    4.90999985    2.66000009
   17.79444313   98.76360321    4.90999985    2.67000008
   17.79777718   98.76360321    4.90999985    2.73000002
   17.80138779   98.76360321    4.90999985    2.76999998
   17.80472183   98.76360321    4.90999985    2.82999992
   17.80833244   98.76360321    4.90999985    2.82999992
   17.81166649   98.76360321    4.90999985    2.82999992
   17.81250000   98.76360321    4.90999985    2.84999990
   17.81611061   98.76360321    4.90999985    2.84999990
   17.82222366   98.76360321    4.26000023    2.84999990
   17.82694626   98.76360321    4.63999987    2.84999990
   19.73722267   -1.00000000   -1.00000000   -1.00000000
   19.76333427   87.49530029    3.23000002    2.84999990
   19.76666641   87.37979889    3.23000002    2.84999990
   19.76972198   88.43550110    3.23000002    2.84999990
   19.77305603   87.30709839    3.23000002    2.84999990
   19.77611160   86.74890137    3.23000002    2.84999990
   19.77944374   86.36509705    3.23000002    2.84999990
   19.78361130   86.36509705    3.23000002    2.84999990
   19.78777695   81.93969727    3.23000002    2.84999990
   19.79083252   86.80860138    3.23000002    2.84999990
   19.79416656   85.71800232    3.23000002    2.84999990
   19.79666710   86.91449738    3.23000002    2.84999990
   19.79777718   88.45220184    3.23000002    2.84999990
   19.80111122   88.74140167    3.23000002    2.84999990
   19.80444336   88.08309937    3.23000002    2.84999990
   19.80749893   85.63439941    3.23000002    2.84999990
   19.81083298   86.25669861    3.23000002    2.84999990
   19.81388855   88.62329865    3.23000002    2.84999990
   19.81722260   89.09349823    3.23000002    2.84999990
   19.82055664   85.38610077    3.23000002    2.84999990
   19.82638931   85.38610077    3.23000002    2.84999990
   19.83055687   85.61139679    3.23000002    2.84999990
   19.83388901   90.68560028    3.23000002    2.84999990
   19.83694458   87.35369873    3.23000002    2.84999990
   19.84027863   87.03530121    3.23000002    2.84999990
   19.84333420   86.43620300    3.23000002    2.84999990
   19.84666824   82.18730164    3.23000002    2.84999990
   19.85000038   89.43869781    3.23000002    2.84999990
   19.85305595   83.14689636    3.23000002    2.84999990
   19.85639000   86.98529816    3.23000002    2.84999990
   19.85972214   84.89129639    3.23000002    2.84999990
   19.86277771   82.33200073    3.23000002    2.84999990
   19.86333466   83.06770325    3.23000002    2.84999990
   19.86916733   83.06770325    3.23000002    2.84999990
   19.87333298   84.77529907    3.23000002    2.84999990
   19.87666702   84.03079987    3.23000002    2.84999990
   19.87972260   82.19529724    3.23000002    2.84999990
   19.88305473   80.61969757    3.23000002    2.84999990
   19.88638878   82.97119904    3.23000002    2.84999990
   19.88944435   84.51709747    3.23000002    2.84999990
   19.89277840   83.15260315    3.23000002    2.84999990
   19.89611053   86.74500275    3.23000002    2.84999990
   19.89666748   84.18199921    3.23000002    2.84999990
   19.89972115   86.36849976    3.23000002    2.84999990
   19.90277672   82.85839844    3.23000002    2.84999990
   19.90611076   83.27369690    3.23000002    2.84999990
   19.91222191   83.27369690    3.23000002    2.84999990
   19.91611099   85.99150085    3.23000002    2.84999990
   19.91944313   88.25029755    3.23000002    2.84999990
   19.92277718   86.21440125    3.23000002    2.84999990
   19.92611122   81.80690002    3.23000002    2.84999990
   19.92916679   81.93769836    3.23000002    2.84999990
   19.93000031   85.08409882    3.23000002    2.84999990
   19.93305397   86.09049988    3.23000002    2.84999990
   19.93610954   85.00189972    3.23000002    2.84999990
   19.93944359   86.88359833    3.23000002    2.84999990
   19.94277763   88.58719635    3.23000002    2.84999990
   19.94583321   89.27739716    3.23000002    2.84999990
   19.94916534   92.00610352    3.23000002    2.84999990
   19.95499992   92.00610352    3.23000002    2.84999990
   19.95916748   92.58789825    3.23000002    2.84999990
   19.96222305   89.51170349    3.23000002    2.84999990
   19.96333504   90.93689728    3.23000002    2.84999990
   19.96611214   83.59940338    3.23000002    2.84999990
   19.96916771   87.46990204    3.23000002    2.84999990
   19.97249985   85.94450378    3.23000002    2.84999990
   19.97583389   86.40390015    3.23000002    2.84999990
   19.97888947   84.62000275    3.23000002    2.84999990
   19.98222351   86.21970367    3.23000002    2.84999990
   19.98527718   84.73609924    3.23000002    2.84999990
   19.98861122   84.43879700    3.23000002    2.84999990
   19.99194527   82.63610077    3.23000002    2.84999990
   19.99777794   82.63610077    3.23000002    2.84999990
   20.00194359   84.51840210    3.23000002    2.84999990
   20.00527763   87.53859711    3.23000002    2.84999990
   20.00833321   86.68520355    3.23000002    2.84999990
   20.01166725   88.39550018    3.23000002    2.84999990
   20.01472282   85.02819824    3.23000002    2.84999990
   20.01805496   87.17720032    3.23000002    2.84999990
   20.02138901   91.42549896    3.23000002    2.84999990
   20.02444458   92.46859741    3.23000002    2.84999990
   20.02777672   91.88700104    3.23000002    2.84999990
   20.03000069   92.68299866    3.23000002    2.84999990
   20.03138924   84.79319763    3.23000002    2.84999990
   20.03444481   84.33229828    3.23000002    2.84999990
   20.04055595   84.33229828    3.23000002    2.84999990
   20.04472160   81.33699799    3.23000002    2.84999990
   20.04805565   87.21920013    3.23000002    2.84999990
   20.05111122   85.59899902    3.23000002    2.84999990
   20.05444336   84.92379761    3.23000002    2.84999990
   20.05777740   82.77860260    3.23000002    2.84999990
   20.06083298   86.73989868    3.23000002    2.84999990
   20.06333351   89.61389923    3.23000002    2.84999990
   20.06472206   85.45439911    3.23000002    2.84999990
   20.06777954   84.79340363    3.23000002    2.84999990
   20.07111168   87.72830200    3.23000002    2.84999990
   20.07444572   85.84020233    3.23000002    2.84999990
   20.07750130   85.54750061    3.23000002    2.84999990
   20.08333397   85.54750061    3.23000002    2.84999990
   20.08750153   89.02570343    3.23000002    2.84999990
   20.09083366   87.18959808    3.23000002    2.84999990
   20.09416771   94.40840149    3.23000002    2.84999990
   20.09666824   74.17289734    3.23000002    2.84999990
   20.09777832   88.80729675    3.23000002    2.84999990
   20.10083389   90.23040009    3.23000002    2.84999990
   20.10416794   83.34609985    3.23000002    2.84999990
   20.10750008   95.12079620    3.23000002    2.84999990
   20.11055565   92.37709808    3.23000002    2.84999990
   20.11388969   90.17109680    3.23000002    2.84999990
   20.11694527   88.40019989    3.23000002    2.84999990
   20.12027740   95.97219849    3.23000002    2.84999990
   20.12638855   95.97219849    3.23000002    2.84999990
   20.13055611   92.24060059    3.23000002    2.84999990
   20.13361168   92.40679932    3.23000002    2.84999990
   20.13694382   90.05780029    3.23000002    2.84999990
   20.13999939   88.58350372    3.23000002    2.84999990
   20.14333344   91.70410156    3.23000002    2.84999990
   20.14666748   91.44969940    3.23000002    2.84999990
   20.14972115   88.48419952    3.23000002    2.84999990
   20.15305519   96.14710236    3.23000002    2.84999990
   20.15638924   79.59490204    3.23000002    2.84999990
   20.15944481   83.05750275    3.23000002    2.84999990
   20.16277695   98.57230377    3.23000002    2.84999990
   20.16333389   92.33360291    3.23000002    2.84999990
   20.16916656   92.33360291    3.23000002    2.84999990
   20.17333221   90.78119659    3.23000002    2.84999990
   20.17638779   93.09629822    3.23000002    2.84999990
   20.17972183   85.12059784    3.23000002    2.84999990
   20.18305397   91.30090332    3.23000002    2.84999990
   20.18610954   91.42440033    3.23000002    2.84999990
   20.18944359   88.61399841    3.23000002    2.84999990
   20.19277763   86.65750122    3.23000002    2.84999990
   20.19583321   89.01820374    3.23000002    2.84999990
   20.19666672   86.36329651    3.23000002    2.84999990
   20.19944382   87.84970093    3.23000002    2.84999990
   20.20250130   88.27980042    3.23000002    2.84999990
   20.20583344   80.62059784    3.23000002    2.84999990
   20.21194458   80.62059784    3.23000002    2.84999990
   20.21611214   98.76509857    3.23000002    2.84999990
   20.21944427   86.17400360    3.23000002    2.84999990
   20.22249985   88.57710266    3.23000002    2.84999990
   20.22583389   87.39119720    3.23000002    2.84999990
   20.22916794   87.70819855    3.23000002    2.84999990
   20.23000145   89.07589722    3.23000002    2.84999990
   20.23277855   90.88529968    3.23000002    2.84999990
   20.23583412   94.45410156    3.23000002    2.84999990
   20.23916626   89.10430145    3.23000002    2.84999990
   20.24250031   79.89389801    3.23000002    2.84999990
   20.24555588   93.52210236    3.23000002    2.84999990
   20.24888992   92.95739746    3.23000002    2.84999990
   20.25472260   92.95739746    3.23000002    2.84999990
   20.25888824   91.99389648    3.23000002    2.84999990
   20.26222229   91.59750366    3.23000002    2.84999990
   20.26333427   90.82810211    3.23000002    2.84999990
   20.26583290   97.86669922    3.23000002    2.84999990
   20.26888847   92.07830048    3.23000002    2.84999990
   20.27222252   89.94570160    3.23000002    2.84999990
   20.27555466   91.77629852    3.23000002    2.84999990
   20.27861023   94.11139679    3.23000002    2.84999990
   20.28194427   87.33439636    3.23000002    2.84999990
   20.28499985   91.66899872    3.23000002    2.84999990
   20.28833199   89.27919769    3.23000002    2.84999990
   20.29166603   94.28929901    3.23000002    2.84999990
   20.29777718   94.28929901    3.23000002    2.84999990
   20.30194283   91.68910217    3.23000002    2.84999990
   20.30499840   93.50240326    3.23000002    2.84999990
   20.30833244   88.20410156    3.23000002    2.84999990
   20.31138802   91.33550262    3.23000002    2.84999990
   20.31472206  102.70099640    3.23000002    2.84999990
   20.31805611   93.12139893    3.23000002    2.84999990
   20.32111168   89.55580139    3.23000002    2.84999990
   20.32444572   93.96890259    3.23000002    2.84999990
   20.32777786   92.95169830    3.23000002    2.84999990
   20.33000183   92.39929962    3.23000002    2.84999990
   20.33139038   94.66539764    3.23000002    2.84999990
   20.33444595   93.32599640    3.23000002    2.84999990
   20.34055710   93.32599640    3.23000002    2.84999990
   20.34472275   96.42610168    3.23000002    2.84999990
   20.34777832   95.30349731    3.23000002    2.84999990
   20.35111237   97.53520203    3.23000002    2.84999990
   20.35444450   92.56109619    3.23000002    2.84999990
   20.35777855   95.12879944    3.23000002    2.84999990
   20.36083412   93.16950226    3.23000002    2.84999990
   20.36333466  101.29599762    3.23000002    2.84999990
   20.36472321   96.39009857    3.23000002    2.84999990
   20.36777878   90.65840149    3.23000002    2.84999990
   20.37111092   85.69339752    3.23000002    2.84999990
   20.37444496   93.55799866    3.23000002    2.84999990
   20.37750053   94.03990173    3.23000002    2.84999990
   20.38333321   94.03990173    3.23000002    2.84999990
   20.38750076   92.53829956    3.23000002    2.84999990
   20.39083290   93.06580353    3.23000002    2.84999990
   20.39388847   87.52130127    3.23000002    2.84999990
   20.39666748   92.94349670    3.23000002    2.84999990
   20.39777756   88.21900177    3.23000002    2.84999990
   20.40083313   88.76779938    3.23000002    2.84999990
   20.40416718   95.78780365    3.23000002    2.84999990
   20.40749931   89.81870270    3.23000002    2.84999990
   20.41055489   84.62760162    3.23000002    2.84999990
   20.41388893   90.17690277    3.23000002    2.84999990
   20.41694450   94.17340088    3.23000002    2.84999990
   20.42027664   85.31179810    3.23000002    2.84999990
   20.42611122   85.31179810    3.23000002    2.84999990
   20.43027687   88.32270050    3.23000002    2.84999990
   20.43361092   87.33570099    3.23000002    2.84999990
   20.43694305   90.33789825    3.23000002    2.84999990
   20.43999863   94.19819641    3.23000002    2.84999990
   20.44444275   91.43119812    3.23000002    2.84999990
   20.44777679   89.17040253    3.23000002    2.84999990
   20.45083427   90.37580109    3.23000002    2.84999990
   20.45416832   97.27349854    3.23000002    2.84999990
   20.45750046   88.93679810    3.23000002    2.84999990
   20.46083450   94.99669647    3.23000002    2.84999990
   20.46333504   91.93759918    3.23000002    2.84999990
   20.46444511   91.68280029    3.23000002    2.84999990
   20.46916771   91.68280029    3.23000002    2.84999990
   20.47333336   87.05259705    3.23000002    2.84999990
   20.47638893   94.34870148    3.23000002    2.84999990
   20.47972298   93.06089783    3.23000002    2.84999990
   20.48277855   94.66919708    3.23000002    2.84999990
   20.48611069   86.75229645    3.23000002    2.84999990
   20.48944473   88.47689819    3.23000002    2.84999990
   20.49250031   91.89009857    3.23000002    2.84999990
   20.49583435   95.44380188    3.23000002    2.84999990
   20.49666786   92.88379669    3.23000002    2.84999990
   20.49944496   95.03309631    3.23000002    2.84999990
   20.50250053   96.38619995    3.23000002    2.84999990
   20.50583267   93.72720337    3.23000002    2.84999990
   20.51194382   93.72720337    3.23000002    2.84999990
   20.51611137   93.72779846    3.23000002    2.84999990
   20.51916695   91.59400177    3.23000002    2.84999990
   20.52249908   91.45819855    3.23000002    2.84999990
   20.52583313   94.57399750    3.23000002    2.84999990
   20.52888870   95.12290192    3.23000002    2.84999990
   20.53000069   92.79129791    3.23000002    2.84999990
   20.53249931   90.68260193    3.23000002    2.84999990
   20.53555489   92.32270050    3.23000002    2.84999990
   20.53888893   95.52680206    3.23000002    2.84999990
   20.54194450   98.59770203    3.23000002    2.84999990
   20.54527664   92.86990356    3.23000002    2.84999990
   20.54861069   87.93180084    3.23000002    2.84999990
   20.55472183   87.93180084    3.23000002    2.84999990
   20.55888748   91.80780029    3.23000002    2.84999990
   20.56222153  102.18199921    3.23000002    2.84999990
   20.56333351   97.51260376    3.23000002    2.84999990
   20.56583214   92.99490356    3.23000002    2.84999990
   20.56888962   99.08750153    3.23000002    2.84999990
   20.57222366   95.83660126    3.23000002    2.84999990
   20.57527924   88.43699646    3.23000002    2.84999990
   20.57861137   97.99800110    3.23000002    2.84999990
   20.58194542   92.11910248    3.23000002    2.84999990
   20.58500099   88.47059631    3.23000002    2.84999990
   20.58833313   87.96990204    3.23000002    2.84999990
   20.59138870   88.03649902    3.23000002    2.84999990
   20.59777832   88.03649902    3.23000002    2.84999990
   20.60166740   94.27149963    3.23000002    2.84999990
   20.60499954   88.02670288    3.23000002    2.84999990
   20.60805511   88.41850281    3.23000002    2.84999990
   20.61138916   89.97039795    3.23000002    2.84999990
   20.61472321   98.85359955    3.23000002    2.84999990
   20.61777878   95.16529846    3.23000002    2.84999990
   20.62111092   90.06330109    3.23000002    2.84999990
   20.62416649   90.24210358    3.23000002    2.84999990
   20.62750053   89.94740295    3.23000002    2.84999990
   20.63000107   95.51750183    3.23000002    2.84999990
   20.63111115   89.55740356    3.23000002    2.84999990
   20.63416672   91.83820343    3.23000002    2.84999990
   20.64055634   91.83820343    3.23000002    2.84999990
   20.64472198   96.98840332    3.23000002    2.84999990
   20.64777756   97.26869965    3.23000002    2.84999990
   20.65111160   96.66870117    3.23000002    2.84999990
   20.65416718   98.48310089    3.23000002    2.84999990
   20.65749931   99.91690063    3.23000002    2.84999990
   20.66055489  102.98200226    3.23000002    2.84999990
   20.66361046   93.01619720    3.23000002    2.84999990
   20.66416550   98.94889832    3.23000002    2.84999990
   20.66749954   93.26889801    3.23000002    2.84999990
   20.67055511  103.14800262    3.23000002    2.84999990
   20.67388916   93.83570099    3.23000002    2.84999990
   20.67694473   89.13610077    3.23000002    2.84999990
   20.68333244   89.13610077    3.23000002    2.84999990
   20.68750000   93.72219849    3.23000002    2.84999990
   20.69055557   91.39270020    3.23000002    2.84999990
   20.69388771   87.38379669    3.23000002    2.84999990
   20.69666672   94.16629791    3.23000002    2.84999990
   20.69749832   91.82569885    3.23000002    2.84999990
   20.70055580   94.14530182    3.23000002    2.84999990
   20.70388985   88.14179993    3.23000002    2.84999990
   20.70722389   86.97380066    3.23000002    2.84999990
   20.71027946   93.15940094    3.23000002    2.84999990
   20.71361160   88.81999969    3.23000002    2.84999990
   20.71694565   92.51260376    3.23000002    2.84999990
   20.72000122   92.37570190    3.23000002    2.84999990
   20.72611237   92.37570190    3.23000002    2.84999990
   20.73027802   91.19419861    3.23000002    2.84999990
   20.73361206   91.45020294    3.23000002    2.84999990
   20.73666763   90.92350006    3.23000002    2.84999990
   20.73999977   96.83149719    3.23000002    2.84999990
   20.74305534   90.72779846    3.23000002    2.84999990
   20.74638939  100.81800079    3.23000002    2.84999990
   20.74972153   94.99009705    3.23000002    2.84999990
   20.75277710   97.94830322    3.23000002    2.84999990
   20.75611115   97.46810150    3.23000002    2.84999990
   20.75916672   98.26629639    3.23000002    2.84999990
   20.76250076   86.71970367    3.23000002    2.84999990
   20.76333427   93.32700348    3.23000002    2.84999990
   20.78416634   93.32700348    3.23000002    2.84999990
   20.78833199   94.22720337    3.23000002    2.84999990
   20.79138756   98.07129669    3.23000002    2.84999990
   20.79472160   94.46579742    3.23000002    2.84999990
   20.79666710   92.63950348    3.23000002    2.84999990
   20.79833221   92.42610168    3.23000002    2.84999990
   20.80166626  102.97299957    3.23000002    2.84999990
   20.80472183   99.40979767    3.23000002    2.84999990
   20.80805397   94.21240234    3.23000002    2.84999990
   20.81110954   88.68109894    3.23000002    2.84999990
   20.81444359   87.63819885    3.23000002    2.84999990
   20.81777954   91.79709625    3.23000002    2.84999990
   20.82083511   90.36689758    3.23000002    2.84999990
   20.82694626   90.36689758    3.23000002    2.84999990
   20.83111191   87.33409882    3.23000002    2.84999990
   20.83416748   87.07579803    3.23000002    2.84999990
   20.83750153   99.82720184    3.23000002    2.84999990
   20.84055710  100.51100159    3.23000002    2.84999990
   20.84388924   86.31999969    3.23000002    2.84999990
   20.84722328   90.63999939    3.23000002    2.84999990
   20.85027885   86.74690247    3.23000002    2.84999990
   20.85361099   84.26039886    3.23000002    2.84999990
   20.85666656   86.24210358    3.23000002    2.84999990
   20.86000061   88.73269653    3.23000002    2.84999990
   20.86305618   92.31939697    3.23000002    2.84999990
   20.86361122   91.24379730    3.23000002    2.84999990
   20.86972237   91.24379730    3.23000002    2.84999990
   20.87388992   91.73850250    3.23000002    2.84999990
   20.87694550   89.56529999    3.23000002    2.84999990
   20.88027763   92.64150238    3.23000002    2.84999990
   20.88361168   91.66539764    3.23000002    2.84999990
   20.88666725   91.43859863    3.23000002    2.84999990
   20.88999939   96.43170166    3.23000002    2.84999990
   20.89305496   91.81860352    3.23000002    2.84999990
   20.89638901   99.90429688    3.23000002    2.84999990
   20.89694405  100.62799835    3.23000002    2.84999990
   20.89999962  106.90599823    3.23000002    2.84999990
   20.90305519  100.05000305    3.23000002    2.84999990
   20.90638924   94.16000366    3.23000002    2.84999990
   20.91250038   94.16000366    3.23000002    2.84999990
   20.91666603  115.43900299    3.23000002    2.84999990
   20.92000008  103.44499969    3.23000002    2.84999990
   20.92305565   95.13700104    3.23000002    2.84999990
   20.92638779   93.57369995    3.23000002    2.84999990
   20.92944336   93.56210327    3.23000002    2.84999990
   20.93027687   91.55460358    3.23000002    2.84999990
   20.93333244   97.19270325    3.23000002    2.84999990
   20.93638802   88.54560089    3.23000002    2.84999990
   20.93972206   90.95770264    3.23000002    2.84999990
   20.94277763   94.23719788    3.23000002    2.84999990
   20.94610977   95.26370239    3.23000002    2.84999990
   20.94916534   93.31659698    3.23000002    2.84999990
   20.95555687   93.31659698    3.23000002    2.84999990
   20.95944595   95.74520111    3.23000002    2.84999990
   20.96277809   94.04170227    3.23000002    2.84999990
   20.96361160   98.86579895    3.23000002    2.84999990
   20.96638870   97.55310059    3.23000002    2.84999990
   20.96944427   97.83110046    3.23000002    2.84999990
   20.97277832   98.50170135    3.23000002    2.84999990
   20.97583389   95.26280212    3.23000002    2.84999990
   20.97916794   90.07009888    3.23000002    2.84999990
   20.98222351  102.22799683    3.23000002    2.84999990
   20.98555565   99.10610199    3.23000002    2.84999990
   20.98888969   98.64700317    3.23000002    2.84999990
   20.99194527   93.98930359    3.23000002    2.84999990
   20.99833298   93.98930359    3.23000002    2.84999990
   21.00250053  100.52899933    3.23000002    2.84999990
   21.00555611   98.20089722    3.23000002    2.84999990
   21.00888824   98.91130066    3.23000002    2.84999990
   21.01194382   98.14299774    3.23000002    2.84999990
   21.01527786   96.78140259    3.23000002    2.84999990
   21.01833344   94.35919952    3.23000002    2.84999990
   21.02166557  100.84400177    3.23000002    2.84999990
   21.02499962   97.39739990    3.23000002    2.84999990
   21.02805519  104.24800110    3.23000002    2.84999990
   21.03027725  100.22799683    3.23000002    2.84999990
   21.03166580  101.29000092    3.23000002    2.84999990
   21.03499985  100.59799957    3.23000002    2.84999990
   21.04111099  100.59799957    3.23000002    2.84999990
   21.04527664  100.51100159    3.23000002    2.84999990
   21.04833221   99.07929993    3.23000002    2.84999990
   21.05166626   99.74829865    3.23000002    2.84999990
   21.05499840   97.89649963    3.23000002    2.84999990
   21.05805397  103.68900299    3.23000002    2.84999990
   21.06138802   97.40760040    3.23000002    2.84999990
   21.06361008   98.91519928    3.23000002    2.84999990
   21.06499863   96.86830139    3.23000002    2.84999990
   21.06805611   97.21640015    3.23000002    2.84999990
   21.07139015   94.87110138    3.23000002    2.84999990
   21.07444572  107.95999908    3.23000002    2.84999990
   21.07777786  104.59700012    3.23000002    2.84999990
   21.08388901  104.59700012    3.23000002    2.84999990
   21.08805656  102.30500031    3.23000002    2.84999990
   21.09138870   97.62149811    3.23000002    2.84999990
   21.09444427   94.61990356    3.23000002    2.84999990
   21.09694481   94.57959747    3.23000002    2.84999990
   21.09805679   95.75930023    3.23000002    2.84999990
   21.10111237   92.21540070    3.23000002    2.84999990
   21.10444450   98.09020233    3.23000002    2.84999990
   21.10750008  105.32900238    3.23000002    2.84999990
   21.11083412   97.70200348    3.23000002    2.84999990
   21.11416626   96.29000092    3.23000002    2.84999990
   21.11722183   89.93199921    3.23000002    2.84999990
   21.12055588  100.96900177    3.23000002    2.84999990
   21.12694550  100.96900177    3.23000002    2.84999990
   21.13083267   99.22229767    3.23000002    2.84999990
   21.13416672   98.22889709    3.23000002    2.84999990
   21.13722229   99.45780182    3.23000002    2.84999990
   21.14055634  100.48699951    3.23000002    2.84999990
   21.14388847  100.66500092    3.23000002    2.84999990
   21.14694405  100.00499725    3.23000002    2.84999990
   21.15027809   95.09420013    3.23000002    2.84999990
   21.15333366  103.41200256    3.23000002    2.84999990
   21.15666580   96.23480225    3.23000002    2.84999990
   21.15972137   99.20050049    3.23000002    2.84999990
   21.16305542  102.70800018    3.23000002    2.84999990
   21.16361046   97.18969727    3.23000002    2.84999990
   21.16972160   97.18969727    3.23000002    2.84999990
   21.17388916   91.05380249    3.23000002    2.84999990
   21.17694473   91.95520020    3.23000002    2.84999990
   21.18027687   95.89040375    3.23000002    2.84999990
   21.18333244   90.68750000    3.23000002    2.84999990
   21.18666649   92.86920166    3.23000002    2.84999990
   21.18972206   96.53029633    3.23000002    2.84999990
   21.19305420   97.67109680    3.23000002    2.84999990
   21.19638824  103.15899658    3.23000002    2.84999990
   21.19694328   94.92130280    3.23000002    2.84999990
   21.19972038   95.90609741    3.23000002    2.84999990
   21.20277786   95.12689972    3.23000002    2.84999990
   21.20611191  100.14900208    3.23000002    2.84999990
   21.21250153  100.14900208    3.23000002    2.84999990
   21.21666718   96.51080322    3.23000002    2.84999990
   21.21972275   91.41580200    3.23000002    2.84999990
   21.22305679  100.72699738    3.23000002    2.84999990
   21.22638893   97.12979889    3.23000002    2.84999990
   21.22944450  103.30100250    3.23000002    2.84999990
   21.23027802   96.63749695    3.23000002    2.84999990
   21.23305511   93.67019653    3.23000002    2.84999990
   21.23611069   95.15799713    3.23000002    2.84999990
   21.23944473   98.27349854    3.23000002    2.84999990
   21.24277878  103.55200195    3.23000002    2.84999990
   21.24583435   93.66970062    3.23000002    2.84999990
   21.24916649   94.98490143    3.23000002    2.84999990
   21.25527763   94.98490143    3.23000002    2.84999990
   21.25944519  102.49099731    3.23000002    2.84999990
   21.26277733   92.60759735    3.23000002    2.84999990
   21.26361084  103.65000153    3.23000002    2.84999990
   21.26638794   98.02839661    3.23000002    2.84999990
   21.26944351  101.08499908    3.23000002    2.84999990
   21.27277756  100.99600220    3.23000002    2.84999990
   21.27611160  101.95700073    3.23000002    2.84999990
   21.27916718   96.59059906    3.23000002    2.84999990
   21.28249931   96.09159851    3.23000002    2.84999990
   21.28555489  107.87899780    3.23000002    2.84999990
   21.28888893  106.05400085    3.23000002    2.84999990
   21.29194450  105.03399658    3.23000002    2.84999990
   21.29833221  105.03399658    3.23000002    2.84999990
   21.30222130  105.44200134    3.23000002    2.84999990
   21.30555534   97.84110260    3.23000002    2.84999990
   21.30861092  109.07900238    3.23000002    2.84999990
   21.31194305  113.62699890    3.23000002    2.84999990
   21.31527710  104.73300171    3.23000002    2.84999990
   21.31861115  105.38500214    3.23000002    2.84999990
   21.32194519  101.41999817    3.23000002    2.84999990
   21.32500076  113.45800018    3.23000002    2.84999990
   21.32833481  109.57199860    3.23000002    2.84999990
   21.33027840  103.06099701    3.23000002    2.84999990
   21.33194542  102.11499786    3.23000002    2.84999990
   21.33527756   89.76039886    3.23000002    2.84999990
   21.34111214   89.76039886    3.23000002    2.84999990
   21.34527779  103.48200226    3.23000002    2.84999990
   21.34833336  100.51000214    3.23000002    2.84999990
   21.35166740  103.36599731    3.23000002    2.84999990
   21.35472298  101.53199768    3.23000002    2.84999990
   21.35805511  100.35299683    3.23000002    2.84999990
   21.36111069  103.03399658    3.23000002    2.84999990
   21.36361122  104.75299835    3.23000002    2.84999990
   21.36472321  100.49500275    3.23000002    2.84999990
   21.36805534   95.54129791    3.23000002    2.84999990
   21.37111092  101.17500305    3.23000002    2.84999990
   21.37444496  107.67700195    3.23000002    2.84999990
   21.37750053  109.65200043    3.23000002    2.84999990
   21.38388824  109.65200043    3.23000002    2.84999990
   21.38805580  102.82800293    3.23000002    2.84999990
   21.39111137  103.08999634    3.23000002    2.84999990
   21.39444351   98.21320343    3.23000002    2.84999990
   21.39694405   96.60820007    3.23000002    2.84999990
   21.39805603   98.71330261    3.23000002    2.84999990
   21.40138817  103.19799805    3.23000002    2.84999990
   21.40444374  102.20999908    3.23000002    2.84999990
   21.40777779   98.72209930    3.23000002    2.84999990
   21.41083336   98.27899933    3.23000002    2.84999990
   21.41416550  101.04399872    3.23000002    2.84999990
   21.41722107   98.96839905    3.23000002    2.84999990
   21.42055511   98.33409882    3.23000002    2.84999990
   21.42666626   98.33409882    3.23000002    2.84999990
   21.43083191   97.75630188    3.23000002    2.84999990
   21.43416595  108.19599915    3.23000002    2.84999990
   21.43722153  100.79299927    3.23000002    2.84999990
   21.44055557   94.85070038    3.23000002    2.84999990
   21.44249916   97.37629700    3.23000002    2.84999990
   21.44583321  101.58300018    3.23000002    2.84999990
   21.44916534  100.16999817    3.23000002    2.84999990
   21.45222282   96.79019928    3.23000002    2.84999990
   21.45555687   93.79579926    3.23000002    2.84999990
   21.45861244  101.59300232    3.23000002    2.84999990
   21.46194458   96.25810242    3.23000002    2.84999990
   21.46250153   98.45570374    3.23000002    2.84999990
   21.46833420   98.45570374    3.23000002    2.84999990
   21.47249985  105.02799988    3.23000002    2.84999990
   21.47583389  117.84799957    3.23000002    2.84999990
   21.47888947  111.61100006    3.23000002    2.84999990
   21.48222351  117.47299957    3.23000002    2.84999990
   21.48555565  117.55000305    3.23000002    2.84999990
   21.48861122  109.68000031    3.23000002    2.84999990
   21.49194527  114.17199707    3.23000002    2.84999990
   21.49500084  106.32299805    3.23000002    2.84999990
   21.49583435  115.15200043    3.23000002    2.84999990
   21.49888992  114.48799896    3.23000002    2.84999990
   21.50194359  109.95099640    3.23000002    2.84999990
   21.50527763  109.11000061    3.23000002    2.84999990
   21.51111031  109.11000061    3.23000002    2.84999990
   21.51527786  117.37200165    3.23000002    2.84999990
   21.51861000  114.79599762    3.23000002    2.84999990
   21.52194405  110.76100159    3.23000002    2.84999990
   21.52638817  110.33999634    3.23000002    2.84999990
   21.52944374  111.08799744    3.23000002    2.84999990
   21.53027725  111.18399811    3.23000002    2.84999990
   21.53305435  101.51899719    3.23000002    2.84999990
   21.53638840  107.83999634    3.23000002    2.84999990
   21.53944397  107.15000153    3.23000002    2.84999990
   21.54277802  102.79799652    3.23000002    2.84999990
   21.54611015  107.50499725    3.23000002    2.84999990
   21.54916573  111.61000061    3.23000002    2.84999990
   21.55527687  111.61000061    3.23000002    2.84999990
   21.55944443  112.19699860    3.23000002    2.84999990
   21.56250000  116.15499878    3.23000002    2.84999990
   21.56361008  107.51799774    3.23000002    2.84999990
   21.56611061  104.33599854    3.23000002    2.84999990
   21.56944466  114.45999908    3.23000002    2.84999990
   21.57250023  105.66999817    3.23000002    2.84999990
   21.57583427  125.24600220    3.23000002    2.84999990
   21.57916832  112.31999969    3.23000002    2.84999990
   21.58222389  126.22200012    3.23000002    2.84999990
   21.58555603  109.15100098    3.23000002    2.84999990
   21.58861160  114.31800079    3.23000002    2.84999990
   21.59194565  121.97699738    3.23000002    2.84999990
   21.59805679  121.97699738    3.23000002    2.84999990
   21.60222244  135.72500610    3.23000002    2.84999990
   21.60555649  164.85099792    3.23000002    2.84999990
   21.60861206  186.25700378    3.23000002    2.84999990
   21.61194420  235.03799438    3.23000002    2.84999990
   21.61527824  306.17700195    3.23000002    2.84999990
   21.61888885  330.11300659    3.23000002    2.84999990
   21.62194443  186.93499756    3.23000002    2.84999990
   21.62527847  104.26499939    3.23000002    2.84999990
   21.62833405   72.41739655    3.23000002    2.84999990
   21.63194466   -1.00000000    3.23000002    2.84999990
   21.63527679   -1.00000000    3.23000002    2.84999990
   21.64500046   -1.00000000    3.23000002    2.84999990
