    HOUR (UT)   FLARE FACTOR    SKY TESTER    SUN TESTER
   11.11694431   -1.00000000   -1.00000000   -1.00000000
   11.13722229  193.74200439    4.90999985    1.48000002
   11.14194393  214.92900085    4.90999985    1.48000002
   11.14583302  194.95500183    4.90999985    1.50000000
   11.14888859  191.61300659    4.90999985    1.50000000
   11.15222168  191.95599365    4.90999985    1.50000000
   11.15555477  187.38299561    4.90999985    1.50000000
   11.15861034  174.58700562    4.90999985    1.50000000
   11.16194439  177.88299561    4.90999985    1.51999998
   11.16499996  182.77000427    4.90999985    1.51999998
   11.16833401  183.72399902    4.90999985    1.51999998
   11.17055607  145.26100159    4.90999985    1.53999996
   11.17222214  159.86300659    4.90999985    1.53999996
   11.17527771  151.56399536    4.90999985    1.53999996
   11.17861176  161.06599426    4.90999985    1.53999996
   11.18166733  148.52400208    4.90999985    1.55999994
   11.18500042  191.45100403    4.90999985    1.53999996
   11.18833351  151.12600708    4.90999985    1.55999994
   11.19138908  157.14199829    4.90999985    1.55999994
   11.19472218  150.39799500    4.90999985    1.55999994
   11.19805527  140.08399963    4.90999985    1.58000004
   11.20111084  168.23100281    4.90999985    1.58000004
   11.20388889  147.95599365    4.90999985    1.60000002
   11.20499992  144.15499878    4.90999985    1.60000002
   11.20805550  135.14500427    4.90999985    1.60000002
   11.21138859  147.05200195    4.90999985    1.60000002
   11.21444416  145.85699463    4.90999985    1.61000001
   11.21777725  154.33900452    4.90999985    1.61000001
   11.22111034  142.27099609    4.90999985    1.61000001
   11.22416592  146.37899780    4.90999985    1.61000001
   11.22749996  133.94700623    4.90999985    1.61000001
   11.23083305  145.08099365    4.90999985    1.61000001
   11.23388958  149.72599792    4.90999985    1.63000000
   11.23722267  159.90400696    4.90999985    1.63000000
   11.23750019  145.37800598    4.90999985    1.63000000
   11.24083328  136.69599915    4.90999985    1.64999998
   11.24416733  158.56799316    4.90999985    1.64999998
   11.24722290  144.75399780    4.90999985    1.64999998
   11.25055599  144.94400024    4.90999985    1.64999998
   11.25388908  130.66799927    4.90999985    1.64999998
   11.25694466  133.25199890    4.90999985    1.64999998
   11.26027775  130.97599792    4.90999985    1.66999996
   11.26361084  141.48300171    4.90999985    1.66999996
   11.26666641  138.49099731    4.90999985    1.66999996
   11.26999950  130.63200378    4.90999985    1.66999996
   11.27055550  139.35099792    4.90999985    1.66999996
   11.27361107  126.37300110    4.90999985    1.69000006
   11.27666664  115.30200195    4.90999985    1.69000006
   11.27999973  120.30100250    4.90999985    1.69000006
   11.28305531  121.74400330    4.90999985    1.69000006
   11.28638935  119.58399963    4.90999985    1.71000004
   11.28972244  125.02600098    4.90999985    1.71000004
   11.29277802  117.20800018    4.90999985    1.71000004
   11.29611111  120.90499878    4.90999985    1.71000004
   11.29944515  144.60899353    4.90999985    1.73000002
   11.30249977  146.45199585    4.90999985    1.73000002
   11.30388927  137.66900635    4.90999985    1.71000004
   11.30638885  132.84300232    4.90999985    1.73000002
   11.30944443  134.17500305    4.90999985    1.73000002
   11.31277752  130.01400757    4.90999985    1.73000002
   11.31583309  122.76399994    4.90999985    1.73000002
   11.31916618  107.28299713    4.90999985    1.75000000
   11.32250023  126.92299652    4.90999985    1.75000000
   11.32555580  115.84300232    4.90999985    1.75000000
   11.32888889  106.60199738    4.90999985    1.76999998
   11.33222198  123.82700348    4.90999985    1.76999998
   11.33527756  126.79399872    4.90999985    1.76999998
   11.33722210  120.31500244    4.90999985    1.76999998
   11.33916664  120.20200348    4.90999985    1.76999998
   11.34222221  120.33799744    4.90999985    1.78999996
   11.34555531  121.98200226    4.90999985    1.78999996
   11.34861088  115.52999878    4.90999985    1.78999996
   11.35194492  127.00499725    4.90999985    1.78999996
   11.35527802  122.20200348    4.90999985    1.78999996
   11.35833359  133.40899658    4.90999985    1.80999994
   11.36166668  116.61199951    4.90999985    1.80999994
   11.36500072  140.00199890    4.90999985    1.80999994
   11.36805534  117.19499969    4.90999985    1.83000004
   11.37055588  106.36399841    4.90999985    1.80999994
   11.37194443  112.35199738    4.90999985    1.83000004
   11.37500000  117.59999847    4.90999985    1.83000004
   11.37833309  113.53600311    4.90999985    1.83000004
   11.38138866  125.09500122    4.90999985    1.83000004
   11.38472176  124.34100342    4.90999985    1.85000002
   11.38805580  112.39399719    4.90999985    1.83000004
   11.39111137  120.15599823    4.90999985    1.85000002
   11.39444447  125.07199860    4.90999985    1.85000002
   11.39777756  112.03900146    4.90999985    1.85000002
   11.40083313  113.31700134    4.90999985    1.85000002
   11.40388870  128.11999512    4.90999985    1.86000001
   11.40472221  123.84400177    4.90999985    1.85000002
   11.40777779  126.25299835    4.90999985    1.86000001
   11.41111088  118.78299713    4.90999985    1.86000001
   11.41416645  118.57099915    4.90999985    1.86000001
   11.41750050  121.91300201    4.90999985    1.86000001
   11.42083359  116.76899719    4.90999985    1.86000001
   11.42388916  113.51699829    4.90999985    1.88000000
   11.42722225  112.54599762    4.90999985    1.88000000
   11.43055630  117.73600006    4.90999985    1.88000000
   11.43361092  117.28600311    4.90999985    1.88000000
   11.43694496  110.29100037    4.90999985    1.88000000
   11.43750000  107.68099976    4.90999985    1.89999998
   11.44055557  108.95500183    4.90999985    1.89999998
   11.44388866  101.41200256    4.90999985    1.89999998
   11.44694424  107.70800018    4.90999985    1.89999998
   11.45027733  101.13800049    4.90999985    1.89999998
   11.45361137  101.87300110    4.90999985    1.89999998
   11.45666695  104.48699951    4.90999985    1.91999996
   11.46000004  100.53800201    4.90999985    1.91999996
   11.46333313  105.09500122    4.90999985    1.91999996
   11.46638870  106.22299957    4.90999985    1.91999996
   11.46972179  116.01399994    4.90999985    1.91999996
   11.47083282  118.86900330    4.90999985    1.91999996
   11.47333336  124.39800262    4.90999985    1.94000006
   11.47666645  117.30000305    4.90999985    1.94000006
   11.47972202  125.76100159    4.90999985    1.94000006
   11.48305511  125.99900055    4.90999985    1.94000006
   11.48638916  114.44300079    4.90999985    1.94000006
   11.48944473  115.46700287    4.90999985    1.94000006
   11.49277782  106.78199768    4.90999985    1.94000006
   11.49611092  107.18199921    4.90999985    1.94000006
   11.49916649  110.62200165    4.90999985    1.96000004
   11.50249958  114.95800018    4.90999985    1.96000004
   11.50416660  108.23899841    4.90999985    1.96000004
   11.50583363  113.53299713    4.90999985    1.96000004
   11.50916672  105.85299683    4.90999985    1.96000004
   11.51222229  118.37899780    4.90999985    1.98000002
   11.51555538  113.78900146    4.90999985    1.98000002
   11.51888847  114.42199707    4.90999985    1.96000004
   11.52194405  125.30699921    4.90999985    1.98000002
   11.52527714  108.74299622    4.90999985    1.98000002
   11.52861118  117.56900024    4.90999985    1.98000002
   11.53166676  118.79199982    4.90999985    1.98000002
   11.53500080  117.94599915    4.90999985    1.98000002
   11.53750038  112.24400330    4.90999985    2.00000000
   11.53861141  108.56900024    4.90999985    1.98000002
   11.54194450  120.69799805    4.90999985    2.00000000
   11.54500008  117.91100311    4.90999985    2.00000000
   11.54833412  117.09200287    4.90999985    2.00000000
   11.55166721  114.77100372    4.90999985    1.98000002
   11.55472279  119.01300049    4.90999985    1.98000002
   11.55805588  117.12699890    4.90999985    2.00000000
   11.56138897  115.94000244    4.90999985    2.00000000
   11.56444454  107.14800262    4.90999985    2.00000000
   11.56777763  111.82599640    4.90999985    2.00000000
   11.57083321  117.99600220    4.90999985    2.00000000
   11.57111073  123.36699677    4.90999985    2.00000000
   11.57444477  123.30400085    4.90999985    2.01999998
   11.57750034  122.66999817    4.90999985    2.01999998
   11.58083344  128.55400085    4.90999985    2.01999998
   11.58416653  114.50000000    4.90999985    2.01999998
   11.58722210  119.12200165    4.90999985    2.01999998
   11.59055519  118.82399750    4.90999985    2.03999996
   11.59388828  104.99400330    4.90999985    2.03999996
   11.59694386  114.49900055    4.90999985    2.03999996
   11.60027790  112.68099976    4.90999985    2.03999996
   11.60333347  111.91000366    4.90999985    2.03999996
   11.60416698  121.81400299    4.90999985    2.03999996
   11.60694504  114.87599945    4.90999985    2.05999994
   11.61027813  109.10399628    4.90999985    2.03999996
   11.61361122  104.58100128    4.90999985    2.05999994
   11.61666679  111.47599792    4.90999985    2.05999994
   11.61999989  108.22100067    4.90999985    2.05999994
   11.62305546  107.36900330    4.90999985    2.05999994
   11.62638855  107.62999725    4.90999985    2.05999994
   11.62972260  102.06400299    4.90999985    2.07999992
   11.63277817   99.44490051    4.90999985    2.05999994
   11.63611126  100.39099884    4.90999985    2.05999994
   11.63749981   89.50379944    4.90999985    2.07999992
   11.63972187  102.90100098    4.90999985    2.07999992
   11.64305496  108.86299896    4.90999985    2.07999992
   11.64638901  114.10099792    4.90999985    2.07999992
   11.64944458  103.98400116    4.90999985    2.07999992
   11.65277767  108.94699860    4.90999985    2.07999992
   11.65583324  112.70800018    4.90999985    2.09999990
   11.65916634  112.59600067    4.90999985    2.07999992
   11.66249943  111.55000305    4.90999985    2.07999992
   11.66555500  114.56199646    4.90999985    2.07999992
   11.66888905  113.62500000    4.90999985    2.09999990
   11.67083359  114.72899628    4.90999985    2.09999990
   11.67250061  107.48100281    4.90999985    2.09999990
   11.67583370  127.23600006    4.90999985    2.09999990
   11.67916679  108.39900208    4.90999985    2.09999990
   11.68222237  115.28099823    4.90999985    2.09999990
   11.68555546  111.46700287    4.90999985    2.11999989
   11.68861103  115.39199829    4.90999985    2.11999989
   11.69194412  117.29299927    4.90999985    2.11999989
   11.69527817  114.94499969    4.90999985    2.11999989
   11.69833374  115.02100372    4.90999985    2.11999989
   11.70166683  111.90399933    4.90999985    2.11999989
   11.70416641  112.00900269    4.90999985    2.13000011
   11.70527744  114.29900360    4.90999985    2.11999989
   11.70861053  105.47399902    4.90999985    2.11999989
   11.71194458  116.03600311    4.90999985    2.11999989
   11.71500015  113.55200195    4.90999985    2.13000011
   11.71833324  120.13600159    4.90999985    2.13000011
   11.72166634  108.38999939    4.90999985    2.13000011
   11.72472191  118.40399933    4.90999985    2.13000011
   11.72805500  120.99500275    4.90999985    2.13000011
   11.73138809  116.68900299    4.90999985    2.13000011
   11.73444462  111.38099670    4.90999985    2.15000010
   11.73750019  114.61900330    4.90999985    2.13000011
   11.73805618  115.81400299    4.90999985    2.13000011
   11.74138927  124.10099792    4.90999985    2.15000010
   11.74472237  118.72899628    4.90999985    2.15000010
   11.74777794  113.05200195    4.90999985    2.15000010
   11.75111103  128.28100586    4.90999985    2.15000010
   11.75416660  121.28800201    4.90999985    2.17000008
   11.75749969  116.02600098    4.90999985    2.15000010
   11.76083374  123.89499664    4.90999985    2.15000010
   11.76388931  121.97799683    4.90999985    2.17000008
   11.76722240  121.62899780    4.90999985    2.17000008
   11.77055550  120.61499786    4.90999985    2.17000008
   11.77083302  119.52700043    4.90999985    2.17000008
   11.77416611  123.43599701    4.90999985    2.17000008
   11.77722168  126.12999725    4.90999985    2.17000008
   11.78055573  127.09500122    4.90999985    2.17000008
   11.78388977  122.05100250    4.90999985    2.17000008
   11.78694534  124.54599762    4.90999985    2.17000008
   11.79027843  117.52899933    4.90999985    2.17000008
   11.79361153  118.15699768    4.90999985    2.17000008
   11.79666710  115.45200348    4.90999985    2.17000008
   11.80000019  119.04000092    4.90999985    2.19000006
   11.80305576  117.23000336    4.90999985    2.19000006
   11.80416679  112.76899719    4.90999985    2.19000006
   11.80666733  116.33599854    4.90999985    2.19000006
   11.80972195  121.71299744    4.90999985    2.19000006
   11.81305599  117.32700348    4.90999985    2.19000006
   11.81638908  118.39099884    4.90999985    2.19000006
   11.81944466  119.67600250    4.90999985    2.19000006
   11.82277775  122.40200043    4.90999985    2.19000006
   11.82611084  120.54699707    4.90999985    2.21000004
   11.82916641  116.58200073    4.90999985    2.19000006
   11.83249950  117.25299835    4.90999985    2.19000006
   11.83555508  121.73200226    4.90999985    2.19000006
   11.83749962  119.81199646    4.90999985    2.21000004
   11.83944416  113.31600189    4.90999985    2.21000004
   11.84249973  132.55599976    4.90999985    2.19000006
   11.84583282  116.60800171    4.90999985    2.21000004
   11.84916592  129.29899597    4.90999985    2.21000004
   11.85222244  119.93699646    4.90999985    2.21000004
   11.85555553  126.16600037    4.90999985    2.21000004
   11.85888958  121.73000336    4.90999985    2.21000004
   11.86194515  125.46900177    4.90999985    2.21000004
   11.86527824  125.68000031    4.90999985    2.23000002
   11.86833382  120.58699799    4.90999985    2.23000002
   11.87083340  118.62200165    4.90999985    2.21000004
   11.87222195  115.79599762    4.90999985    2.21000004
   11.87555599  125.29399872    4.90999985    2.23000002
   11.87861156  119.63099670    4.90999985    2.21000004
   11.88194466  119.06700134    4.90999985    2.23000002
   11.88527775  119.38800049    4.90999985    2.23000002
   11.88833332  117.17800140    4.90999985    2.25000000
   11.89166641  117.99900055    4.90999985    2.23000002
   11.89472198  115.15699768    4.90999985    2.25000000
   11.89805508  121.73899841    4.90999985    2.23000002
   11.90138817  113.38500214    4.90999985    2.25000000
   11.90416622  111.84500122    4.90999985    2.25000000
   11.90499973  104.38200378    4.90999985    2.23000002
   11.90805531  118.70899963    4.90999985    2.25000000
   11.91138840  117.51999664    4.90999985    2.25000000
   11.91472149  115.26300049    4.90999985    2.25000000
   11.91777802  111.27200317    4.90999985    2.25000000
   11.92111111  117.25499725    4.90999985    2.23000002
   11.92444515  113.97299957    4.90999985    2.25000000
   11.92750072  114.50900269    4.90999985    2.26999998
   11.93083382  125.41200256    4.90999985    2.25000000
   11.93388939  113.33000183    4.90999985    2.25000000
   11.93722248  119.27600098    4.90999985    2.25000000
   11.93777752  129.63499451    4.90999985    2.25000000
   11.94083309  119.09700012    4.90999985    2.26999998
   11.94388866  128.32899475    4.90999985    2.26999998
   11.94722271  123.14900208    4.90999985    2.26999998
   11.95027733  123.10500336    4.90999985    2.26999998
   11.95361137  128.02900696    4.90999985    2.26999998
   11.95694447  135.08500671    4.90999985    2.28999996
   11.96000004  119.23000336    4.90999985    2.26999998
   11.96333313  116.36399841    4.90999985    2.26999998
   11.96666622  124.81199646    4.90999985    2.26999998
   11.96972179  126.15399933    4.90999985    2.26999998
   11.97111034  121.99800110    4.90999985    2.26999998
   11.97361088  109.90699768    4.90999985    2.26999998
   11.97666645  124.08499908    4.90999985    2.26999998
   11.97999954  115.15100098    4.90999985    2.28999996
   11.98305511  112.24900055    4.90999985    2.26999998
   11.98638916  128.76600647    4.90999985    2.26999998
   11.98972225  121.60700226    4.90999985    2.28999996
   11.99277782  137.52299500    4.90999985    2.28999996
   11.99611092  133.66200256    4.90999985    2.28999996
   11.99916649  130.64300537    4.90999985    2.26999998
   12.00249958  126.95999908    4.90999985    2.28999996
   12.00444412  130.26699829    4.90999985    2.26999998
   12.00611115  135.21099854    4.90999985    2.28999996
   12.00916672  131.99699402    4.90999985    2.28999996
   12.01249981  133.58900452    4.90999985    2.28999996
   12.01555538  131.10899353    4.90999985    2.30999994
   12.01888847  134.93099976    4.90999985    2.28999996
   12.02222157  132.30000305    4.90999985    2.28999996
   12.02555561  115.08200073    4.90999985    2.28999996
   12.02861118  136.91200256    4.90999985    2.30999994
   12.03194427  134.55700684    4.90999985    2.28999996
   12.03527832  134.65199280    4.90999985    2.30999994
   12.03777790  130.23300171    4.90999985    2.30999994
   12.03888893  125.47799683    4.90999985    2.30999994
   12.04194450  122.70800018    4.90999985    2.30999994
   12.04527855  136.58200073    4.90999985    2.30999994
   12.04833412  127.37100220    4.90999985    2.30999994
   12.05166721  131.75700378    4.90999985    2.30999994
   12.05500031  129.38400269    4.90999985    2.30999994
   12.05805588  116.82499695    4.90999985    2.30999994
   12.06138897  122.88400269    4.90999985    2.28999996
   12.06444454  131.51800537    4.90999985    2.30999994
   12.06777763  122.98899841    4.90999985    2.30999994
   12.07111073  122.76399994    4.90999985    2.30999994
   12.07138920  118.85299683    4.90999985    2.30999994
   12.07472229  119.37699890    4.90999985    2.32999992
   12.07805538  122.77999878    4.90999985    2.32999992
   12.08111095  121.26399994    4.90999985    2.32999992
   12.08444405  124.95500183    4.90999985    2.30999994
   12.08777714  117.20700073    4.90999985    2.32999992
   12.09083271  116.25299835    4.90999985    2.32999992
   12.09416676  115.27400208    4.90999985    2.32999992
   12.09722233  114.09799957    4.90999985    2.32999992
   12.10055637  119.20899963    4.90999985    2.32999992
   12.10388947  119.02400208    4.90999985    2.32999992
   12.10472298  126.42400360    4.90999985    2.32999992
   12.10722256  118.26300049    4.90999985    2.32999992
   12.11055565  123.95600128    4.90999985    2.34999990
   12.11361122  126.43499756    4.90999985    2.32999992
   12.11694431  115.17900085    4.90999985    2.34999990
   12.12027836  126.61199951    4.90999985    2.34999990
   12.12333393  128.81700134    4.90999985    2.34999990
   12.12666702  121.86599731    4.90999985    2.34999990
   12.12972260  119.34500122    4.90999985    2.34999990
   12.13305569  125.45899963    4.90999985    2.36999989
   12.13638878  121.26999664    4.90999985    2.34999990
   12.15388870  115.30200195    4.90999985    2.36999989
   12.15638828  135.66499329    4.90999985    2.36999989
   12.15944386  129.18099976    4.90999985    2.36999989
   12.16277695  125.21299744    4.90999985    2.34999990
   12.16583252  123.42700195    4.90999985    2.36999989
   12.16916656  133.28199768    4.90999985    2.36999989
   12.17250061  114.19699860    4.90999985    2.36999989
   12.17555618  116.13600159    4.90999985    2.36999989
   12.17888927  116.65299988    4.90999985    2.36999989
   12.18194485  121.23200226    4.90999985    2.36999989
   12.18527794  121.86900330    4.90999985    2.36999989
   12.18694496  113.53299713    4.90999985    2.36999989
   12.18888855  127.69799805    4.90999985    2.36999989
   12.19222260  125.24700165    4.90999985    2.36999989
   12.19527817  117.00499725    4.90999985    2.39000010
   12.19861126  121.80400085    4.90999985    2.36999989
   12.20194435  117.52500153    4.90999985    2.39000010
   12.20499992  117.01300049    4.90999985    2.36999989
   12.20833302  121.12999725    4.90999985    2.36999989
   12.21138859  120.95999908    4.90999985    2.39000010
   12.21472168  131.52000427    4.90999985    2.36999989
   12.21805477  126.40399933    4.90999985    2.39000010
   12.22055531  122.32499695    4.90999985    2.39000010
   12.22166634  117.16999817    4.90999985    2.36999989
   12.22499943  118.29299927    4.90999985    2.39000010
   12.22833252  123.11199951    4.90999985    2.39000010
   12.23138809  118.55799866    4.90999985    2.40000010
   12.23472214  126.39900208    4.90999985    2.39000010
   12.23805618  131.08999634    4.90999985    2.40000010
   12.24111176  128.75900269    4.90999985    2.39000010
   12.24444485  129.00300598    4.90999985    2.39000010
   12.24750042  127.00399780    4.90999985    2.40000010
   12.25083351  118.45899963    4.90999985    2.39000010
   12.25388908  124.03800201    4.90999985    2.39000010
   12.25444412  124.56900024    4.90999985    2.39000010
   12.25777817  123.49299622    4.90999985    2.39000010
   12.26111126  124.96499634    4.90999985    2.39000010
   12.26416683  127.57900238    4.90999985    2.39000010
   12.26749992  121.76899719    4.90999985    2.40000010
   12.27055550  117.76699829    4.90999985    2.40000010
   12.27388859  122.04000092    4.90999985    2.40000010
   12.27722168  116.65299988    4.90999985    2.39000010
   12.28027725  116.16200256    4.90999985    2.40000010
   12.28361130  115.30699921    4.90999985    2.40000010
   12.28694534  113.66500092    4.90999985    2.40000010
   12.28722286  116.08799744    4.90999985    2.40000010
   12.29027843  109.15299988    4.90999985    2.40000010
   12.29361153  118.30899811    4.90999985    2.40000010
   12.29666710  114.66500092    4.90999985    2.40000010
   12.30000019  124.83200073    4.90999985    2.40000010
   12.30305576  129.24699402    4.90999985    2.40000010
   12.30638885  123.12400055    4.90999985    2.40000010
   12.30972195  116.30699921    4.90999985    2.40000010
   12.31277752  130.02099609    4.90999985    2.40000010
   12.31611156  123.83100128    4.90999985    2.40000010
   12.31944466  124.55400085    4.90999985    2.40000010
   12.32055569  119.01699829    4.90999985    2.40000010
   12.32305527  120.41000366    4.90999985    2.40000010
   12.32638836  125.83699799    4.90999985    2.42000008
   12.32944393  126.86100006    4.90999985    2.42000008
   12.33277798  123.28399658    4.90999985    2.42000008
   12.33583260  130.99099731    4.90999985    2.40000010
   12.33916664  117.75900269    4.90999985    2.44000006
   12.34249973  129.18099976    4.90999985    2.42000008
   12.34555531  116.17700195    4.90999985    2.42000008
   12.34888840  111.94200134    4.90999985    2.42000008
   12.35222244  109.96399689    4.90999985    2.42000008
   12.35388947  117.11000061    4.90999985    2.42000008
   12.35583401  119.08200073    4.90999985    2.42000008
   12.35916710  122.94699860    4.90999985    2.42000008
   12.36222267  112.78800201    4.90999985    2.42000008
   12.36555576  122.53700256    4.90999985    2.42000008
   12.36861134  114.95999908    4.90999985    2.42000008
   12.37194443  126.27799988    4.90999985    2.42000008
   12.37527752  114.10600281    4.90999985    2.42000008
   12.37833309  110.01599884    4.90999985    2.42000008
   12.38166714  103.78600311    4.90999985    2.42000008
   12.38500023  119.55999756    4.90999985    2.44000006
   12.38722229  115.77300262    4.90999985    2.44000006
   12.38861084  116.83499908    4.90999985    2.42000008
   12.39194393  109.58100128    4.90999985    2.44000006
   12.39527798  110.96299744    4.90999985    2.42000008
   12.39833355  117.38200378    4.90999985    2.44000006
   12.40166664  112.66500092    4.90999985    2.44000006
   12.40472221  113.49400330    4.90999985    2.42000008
   12.40805531  115.56800079    4.90999985    2.44000006
   12.41138840  116.77999878    4.90999985    2.44000006
   12.41444397  111.01100159    4.90999985    2.44000006
   12.41777802  110.80799866    4.90999985    2.44000006
   12.42055607  111.58499908    4.90999985    2.42000008
   12.42138958  115.13400269    4.90999985    2.44000006
   12.42472267  114.82900238    4.90999985    2.44000006
   12.42777824  114.44400024    4.90999985    2.44000006
   12.43111134  115.29199982    4.90999985    2.44000006
   12.43444443  111.41000366    4.90999985    2.42000008
   12.43750000  116.55899811    4.90999985    2.46000004
   12.44083309  106.40399933    4.90999985    2.44000006
   12.44388866  119.54299927    4.90999985    2.46000004
   12.44722271  117.51799774    4.90999985    2.44000006
   12.45055580  112.92099762    4.90999985    2.44000006
   12.45361137  119.44899750    4.90999985    2.44000006
   12.45416641  114.01799774    4.90999985    2.44000006
   12.45749950  126.51399994    4.90999985    2.44000006
   12.46055508  116.16799927    4.90999985    2.44000006
   12.46388912  125.47799683    4.90999985    2.44000006
   12.46722221  107.92800140    4.90999985    2.44000006
   12.47027779  111.12899780    4.90999985    2.44000006
   12.47361088  118.23300171    4.90999985    2.44000006
   12.47694397  116.25000000    4.90999985    2.42000008
   12.47999954  112.56099701    4.90999985    2.44000006
   12.48333359  115.19899750    4.90999985    2.44000006
   12.48666668  116.90899658    4.90999985    2.44000006
   12.48750019  116.31400299    4.90999985    2.44000006
   12.49027824  116.25499725    4.90999985    2.40000010
   12.49333382  117.78299713    4.90999985    2.42000008
   12.49666691  120.88200378    4.90999985    2.44000006
   12.50000000  117.30999756    4.90999985    2.42000008
   12.50305557  124.58799744    4.90999985    2.42000008
   12.50638866  119.55300140    4.90999985    2.42000008
   12.50944424  128.27099609    4.90999985    2.44000006
   12.51277733  132.53399658    4.90999985    2.42000008
   12.51611137  124.07700348    4.90999985    2.42000008
   12.51916599  128.73399353    4.90999985    2.42000008
   12.52083302  125.34200287    4.90999985    2.42000008
   12.52305508  120.25000000    4.90999985    2.42000008
   12.52611065  123.04599762    4.90999985    2.40000010
   12.52944374  122.59600067    4.90999985    2.40000010
   12.53277779  118.51100159    4.90999985    2.42000008
   12.53583336  123.66400146    4.90999985    2.42000008
   12.53916740  118.28299713    4.90999985    2.40000010
   12.54250050  108.96499634    4.90999985    2.44000006
   12.54555607  115.86799622    4.90999985    2.42000008
   12.54888916  118.23999786    4.90999985    2.42000008
   12.55194473  120.12100220    4.90999985    2.44000006
   12.55416679  117.58200073    4.90999985    2.42000008
   12.55583382  119.92299652    4.90999985    2.44000006
   12.55888939  117.68900299    4.90999985    2.44000006
   12.56222248  109.61000061    4.90999985    2.44000006
   12.56555557  109.49299622    4.90999985    2.44000006
   12.56861115  113.80899811    4.90999985    2.46000004
   12.57194424  120.29900360    4.90999985    2.44000006
   12.57527733  116.00900269    4.90999985    2.46000004
   12.57833290  117.70200348    4.90999985    2.46000004
   12.58166695  110.37500000    4.90999985    2.46000004
   12.58472157  117.56999969    4.90999985    2.44000006
   12.58749962  118.91200256    4.90999985    2.46000004
   12.58861065  112.27500153    4.90999985    2.46000004
   12.59166622  113.91000366    4.90999985    2.46000004
   12.59499931  124.39900208    4.90999985    2.46000004
   12.59833336  118.19499969    4.90999985    2.46000004
   12.60138893  155.97999573    4.90999985    2.46000004
   12.60472298  123.25000000    4.90999985    2.46000004
   12.60805607  116.22399902    4.90999985    2.46000004
   12.61111164  111.37699890    4.90999985    2.46000004
   12.61444473  108.26599884    4.90999985    2.48000002
   12.61750031  108.08000183    4.90999985    2.48000002
   12.62083340  111.90200043    4.90999985    2.48000002
   12.62138939  109.41899872    4.90999985    2.48000002
   12.62444496  116.13700104    4.90999985    2.48000002
   12.62777805  101.17500305    4.90999985    2.48000002
   12.63111115  118.22799683    4.90999985    2.48000002
   12.63416672  115.48300171    4.90999985    2.48000002
   12.63749981  125.60199738    4.90999985    2.48000002
   12.64083290  112.31600189    4.90999985    2.48000002
   12.64416695  113.70800018    4.90999985    2.48000002
   12.64722252  119.52999878    4.90999985    2.48000002
   12.65055561  114.31999969    4.90999985    2.48000002
   12.65361118  112.42600250    4.90999985    2.48000002
   12.65416622  113.46099854    4.90999985    2.48000002
   12.65722179  115.06800079    4.90999985    2.50000000
   12.66027737  118.52400208    4.90999985    2.50000000
   12.66361046  114.74900055    4.90999985    2.50000000
   12.66694450  111.15599823    4.90999985    2.50000000
   12.67000008  118.97899628    4.90999985    2.50000000
   12.67333412  127.43199921    4.90999985    2.50000000
   12.67666721  130.40299988    4.90999985    2.48000002
   12.67972279  121.86499786    4.90999985    2.50000000
   12.68305588  109.73400116    4.90999985    2.50000000
   12.68611145  118.01300049    4.90999985    2.48000002
   12.68750000  112.25299835    4.90999985    2.48000002
   12.69000053  118.17500305    4.90999985    2.48000002
   12.69333363  109.19000244    4.90999985    2.51999998
   12.69638920  116.39900208    4.90999985    2.50000000
   12.69972229  130.72000122    4.90999985    2.50000000
   12.70277786  112.73600006    4.90999985    2.48000002
   12.70611095  109.30200195    4.90999985    2.50000000
   12.70944405  106.41300201    4.90999985    2.50000000
   12.71249962  120.11399841    4.90999985    2.48000002
   12.71583271  115.02500153    4.90999985    2.50000000
   12.71916580  114.14399719    4.90999985    2.48000002
   12.72083282  117.44599915    4.90999985    2.48000002
   12.72277737  110.23500061    4.90999985    2.50000000
   12.72611046  119.64199829    4.90999985    2.50000000
   12.72916603  112.89099884    4.90999985    2.50000000
   12.73249912  109.17400360    4.90999985    2.50000000
   12.73555565  107.18199921    4.90999985    2.50000000
   12.73888874  111.59700012    4.90999985    2.50000000
   12.74222279  120.54900360    4.90999985    2.51999998
   12.74527836  114.97699738    4.90999985    2.50000000
   12.74861145  114.16300201    4.90999985    2.50000000
   12.75194454  114.99700165    4.90999985    2.50000000
   12.75416660  122.23899841    4.90999985    2.50000000
   12.75555515  122.58499908    4.90999985    2.48000002
   12.75888920  119.66600037    4.90999985    2.48000002
   12.76194477  124.76000214    4.90999985    2.50000000
   12.76527786  121.07499695    4.90999985    2.48000002
   12.76833344  115.24500275    4.90999985    2.46000004
   12.77166653  119.90699768    4.90999985    2.48000002
   12.77499962  125.98999786    4.90999985    2.46000004
   12.77805519  122.82700348    4.90999985    2.50000000
   12.78138828  122.10700226    4.90999985    2.50000000
   12.78472233  115.67700195    4.90999985    2.50000000
   12.78750038  111.86599731    4.90999985    2.50000000
   12.78833389  114.95300293    4.90999985    2.50000000
   12.79166698  110.20999908    4.90999985    2.48000002
   12.79472256  117.86399841    4.90999985    2.48000002
   12.79805565  117.16400146    4.90999985    2.50000000
   12.80111122  117.87599945    4.90999985    2.51999998
   12.80444431  115.75099945    4.90999985    2.50000000
   12.80777836  115.27899933    4.90999985    2.50000000
   12.81111145  120.91899872    4.90999985    2.51999998
   12.81416702  113.23100281    4.90999985    2.50000000
   12.81750011  113.66999817    4.90999985    2.48000002
   12.82083321  109.32900238    4.90999985    2.50000000
   12.82111073  115.84400177    4.90999985    2.50000000
   12.82444477  118.02600098    4.90999985    2.50000000
   12.82777786  121.09100342    4.90999985    2.48000002
   12.83083344  123.33399963    4.90999985    2.50000000
   12.83416653  125.03800201    4.90999985    2.48000002
   12.83722210  121.31199646    4.90999985    2.48000002
   12.84055519  124.09999847    4.90999985    2.48000002
   12.84388828  129.62600708    4.90999985    2.48000002
   12.84694386  134.55200195    4.90999985    2.48000002
   12.85027790  123.59100342    4.90999985    2.50000000
   12.85361195  114.84500122    4.90999985    2.48000002
   12.85444450  115.77200317    4.90999985    2.51999998
   12.85694504  128.29100037    4.90999985    2.50000000
   12.86027813  131.46000671    4.90999985    2.50000000
   12.86333370  147.17100525    4.90999985    2.50000000
   12.86666679  162.80599976    4.90999985    2.48000002
   12.86999989  259.21499634    4.90999985    2.50000000
   12.87305546  231.77699280    4.90999985    2.50000000
   12.87638855  255.35000610    4.90999985    2.51999998
   12.87944412  254.90499878    4.90999985    2.51999998
   12.88277817  261.29000854    4.90999985    2.51999998
   12.88611126  249.47399902    4.90999985    2.48000002
   12.88777733  272.89801025    4.90999985    2.51999998
   12.88972187  249.62399292    4.90999985    2.50000000
   12.89305496  255.47700500    4.90999985    2.50000000
   12.89638901  182.28799438    4.90999985    2.51999998
   12.89944458  160.46400452    4.90999985    2.50000000
   12.90277767  253.64500427    4.90999985    2.48000002
   12.90583324  209.63499451    4.90999985    2.50000000
   12.90916634  238.67700195    4.90999985    2.50000000
   12.91249943  231.54200745    4.90999985    2.50000000
   12.91555500  190.91600037    4.90999985    2.50000000
   12.91888905  164.14599609    4.90999985    2.50000000
   12.92111111  172.25500488    4.90999985    2.51999998
   12.92250061  249.98599243    4.90999985    2.50000000
   12.92583370  248.90299988    4.90999985    2.51999998
   12.92888927  203.05499268    4.90999985    2.50000000
   12.93222237  197.12600708    4.90999985    2.50000000
   12.93555546  220.39799500    4.90999985    2.48000002
   12.93861103  201.97300720    4.90999985    2.48000002
   12.94194412  201.16999817    4.90999985    2.50000000
   12.94499969  210.41299438    4.90999985    2.48000002
   12.94833374  216.96499634    4.90999985    2.50000000
   12.95166683  195.55499268    4.90999985    2.50000000
   12.95444393  200.34500122    4.90999985    2.50000000
   12.95527744  201.76600647    4.90999985    2.50000000
   12.95861053  206.44799805    4.90999985    2.48000002
   12.96166611  204.67700195    4.90999985    2.50000000
   12.96500015  157.47500610    4.90999985    2.42000008
   12.96833324  171.29499817    4.90999985    2.48000002
   12.97138882  196.99899292    4.90999985    2.50000000
   12.97472191  137.07400513    4.90999985    2.51999998
   12.97805500  151.98800659    4.90999985    2.53999996
   12.98111057  170.67599487    4.90999985    2.53999996
   12.98444462  158.93200684    4.90999985    2.55999994
   12.98777771  123.27500153    4.90999985    2.55999994
   12.98833370  145.88900757    4.90999985    2.53999996
   12.99138927  163.95199585    4.90999985    2.53999996
   12.99472237  144.01199341    4.90999985    2.53999996
   12.99777794  186.58900452    4.90999985    2.55999994
   13.00111103  138.00599670    4.90999985    2.53999996
   13.00444412  117.44200134    4.90999985    2.51999998
   13.00749969  134.11599731    4.90999985    2.53999996
   13.01083374  141.39399719    4.90999985    2.51999998
   13.01416683  136.23800659    4.90999985    2.53999996
   13.01722240  117.35600281    4.90999985    2.51999998
   13.02055550  117.02500153    4.90999985    2.51999998
   13.02166653  128.12100220    4.90999985    2.53999996
   13.02416611  149.70899963    4.90999985    2.53999996
   13.02750015  150.49699402    4.90999985    2.50000000
   13.03055573  140.14700317    4.90999985    2.48000002
   13.03388977  132.52999878    4.90999985    2.48000002
   13.03722286  157.58299255    4.90999985    2.48000002
   13.04027843  130.05499268    4.90999985    2.48000002
   13.04361153  138.80999756    4.90999985    2.50000000
   13.04694462  113.78199768    4.90999985    2.50000000
   13.05000019  125.94000244    4.90999985    2.51999998
   13.05333328  129.44400024    4.90999985    2.51999998
   13.05500031  126.80400085    4.90999985    2.51999998
   13.05694485  121.95899963    4.90999985    2.51999998
   13.06027794  139.64100647    4.90999985    2.48000002
   13.06361103  127.66799927    4.90999985    2.51999998
   13.06666660  125.29699707    4.90999985    2.48000002
   13.06999969  123.79499817    4.90999985    2.50000000
   13.07333374  119.36000061    4.90999985    2.50000000
   13.07638836  126.15899658    4.90999985    2.51999998
   13.07972240  119.99199677    4.90999985    2.51999998
   13.08277798  130.93499756    4.90999985    2.51999998
   13.08611107  126.15299988    4.90999985    2.53999996
   13.08833313  125.27300262    4.90999985    2.51999998
   13.08972168  134.61500549    4.90999985    2.51999998
   13.09305477  122.31800079    4.90999985    2.48000002
   13.09611034  116.05699921    4.90999985    2.46000004
   13.09944439  119.55300140    4.90999985    2.50000000
   13.10277843  138.15499878    4.90999985    2.48000002
   13.10583401  117.16600037    4.90999985    2.46000004
   13.10916710  117.77500153    4.90999985    2.46000004
   13.11250019  129.66299438    4.90999985    2.46000004
   13.11555576  124.72799683    4.90999985    2.46000004
   13.11888885  117.31700134    4.90999985    2.46000004
   13.12166691  117.44000244    4.90999985    2.44000006
   13.12250042  119.28199768    4.90999985    2.44000006
   13.12583351  117.65499878    4.90999985    2.44000006
   13.12888908  119.91000366    4.90999985    2.46000004
   13.13222218  114.58499908    4.90999985    2.46000004
   13.13555527  123.30899811    4.90999985    2.48000002
   13.13861084  121.48600006    4.90999985    2.48000002
   13.14194393  111.73500061    4.90999985    2.48000002
   13.14527798  116.28399658    4.90999985    2.51999998
   13.14833355  124.65699768    4.90999985    2.53999996
   13.15166664  132.77099609    4.90999985    2.53999996
   13.17055607  114.51100159    4.90999985    2.55999994
   13.17138958  114.15200043    4.90999985    2.53999996
   13.17472267  118.02700043    4.90999985    2.55999994
   13.17777824  115.51799774    4.90999985    2.53999996
   13.18111134  111.28500366    4.90999985    2.53999996
   13.18444443  115.90100098    4.90999985    2.53999996
   13.18750000  114.95700073    4.90999985    2.53999996
   13.19083309  113.12500000    4.90999985    2.53999996
   13.19416714  116.00599670    4.90999985    2.55999994
   13.19722271  113.89900208    4.90999985    2.55999994
   13.20055580  107.37599945    4.90999985    2.57999992
   13.20361137  117.98500061    4.90999985    2.57999992
   13.20416641  119.86199951    4.90999985    2.57999992
   13.20722198  114.53199768    4.90999985    2.57999992
   13.21055508  130.61999512    4.90999985    2.57999992
   13.21388912  113.10800171    4.90999985    2.55999994
   13.21694374  126.00199890    4.90999985    2.55999994
   13.22027779  120.83899689    4.90999985    2.55999994
   13.22333336  107.85099792    4.90999985    2.57999992
   13.22666645  121.71399689    4.90999985    2.57999992
   13.22999954  113.33899689    4.90999985    2.57999992
   13.23305511  118.93800354    4.90999985    2.55999994
   13.23638916  127.79499817    4.90999985    2.57999992
   13.23694515  116.31700134    4.90999985    2.59999990
   13.24000072  105.99099731    4.90999985    2.55999994
   13.24333382  122.96499634    4.90999985    2.57999992
   13.24638939  118.89900208    4.90999985    2.57999992
   13.24972248  121.44100189    4.90999985    2.55999994
   13.25305557  116.98100281    4.90999985    2.55999994
   13.25611115  121.41400146    4.90999985    2.57999992
   13.25944424  118.46099854    4.90999985    2.57999992
   13.26277733  114.10500336    4.90999985    2.55999994
   13.26583290  110.16000366    4.90999985    2.57999992
   13.26916599  111.30300140    4.90999985    2.57999992
   13.27027798  121.21499634    4.90999985    2.57999992
   13.27277756  117.60900116    4.90999985    2.59999990
   13.27583313  112.51100159    4.90999985    2.57999992
   13.27916622  115.04599762    4.90999985    2.57999992
   13.28249931   99.42579651    4.90999985    2.59999990
   13.28555584  112.53299713    4.90999985    2.59999990
   13.28888893  108.45999908    4.90999985    2.59999990
   13.29222298  119.76200104    4.90999985    2.59999990
   13.29527855  121.32900238    4.90999985    2.59999990
   13.29861164  118.51499939    4.90999985    2.59999990
   13.30166721  116.04699707    4.90999985    2.61999989
   13.30361176  116.52999878    4.90999985    2.61999989
   13.30555534  112.68000031    4.90999985    2.61999989
   13.30861092  112.60600281    4.90999985    2.61999989
   13.31194496  103.79299927    4.90999985    2.59999990
   13.31527805  119.05599976    4.90999985    2.61999989
   13.31833363  115.80500031    4.90999985    2.59999990
   13.32166672  103.34999847    4.90999985    2.61999989
   13.32499981  110.22899628    4.90999985    2.61999989
   13.32805538  116.26300049    4.90999985    2.61999989
   13.33138847  112.62500000    4.90999985    2.61999989
   13.33444405  117.15699768    4.90999985    2.64000010
   13.33694458  111.18099976    4.90999985    2.61999989
   13.33833313  108.46800232    4.90999985    2.61999989
   13.34138870  112.44899750    4.90999985    2.61999989
   13.34472179  122.38999939    4.90999985    2.61999989
   13.34805489  119.16999817    4.90999985    2.61999989
   13.35111141  117.25099945    4.90999985    2.64000010
   13.35444450  120.62200165    4.90999985    2.61999989
   13.35777855  127.67800140    4.90999985    2.61999989
   13.36083412  115.26599884    4.90999985    2.61999989
   13.36416721  113.00099945    4.90999985    2.59999990
   13.36722279  117.74600220    4.90999985    2.59999990
   13.37027836  112.68800354    4.90999985    2.59999990
   13.37111092  112.65299988    4.90999985    2.59999990
   13.37416649  116.79000092    4.90999985    2.61999989
   13.37750053  105.75099945    4.90999985    2.61999989
   13.38083363  115.23300171    4.90999985    2.59999990
   13.38388920  114.11799622    4.90999985    2.59999990
   13.38722229  115.95500183    4.90999985    2.61999989
   13.39055538  113.88800049    4.90999985    2.61999989
   13.39361095  121.85600281    4.90999985    2.61999989
   13.39694405  110.26999664    4.90999985    2.61999989
   13.39999962  118.94599915    4.90999985    2.64000010
   13.40333271  121.57399750    4.90999985    2.64000010
   13.40388870  113.38500214    4.90999985    2.64000010
   13.40694427  110.81099701    4.90999985    2.61999989
   13.41027737  118.79299927    4.90999985    2.61999989
   13.41361046  118.72799683    4.90999985    2.64000010
   13.41666698  122.77500153    4.90999985    2.64000010
   13.42000008  116.91600037    4.90999985    2.64000010
   13.42333412  118.46600342    4.90999985    2.61999989
   13.42638874  114.87699890    4.90999985    2.64000010
   13.42972279  116.54100037    4.90999985    2.64000010
   13.43277836  114.13999939    4.90999985    2.61999989
   13.43611145  118.63999939    4.90999985    2.64000010
   13.43722248  116.48699951    4.90999985    2.64000010
   13.43972206  117.05999756    4.90999985    2.64000010
   13.44277763  112.39299774    4.90999985    2.61999989
   13.44611073  117.64099884    4.90999985    2.64000010
   13.44916630  118.52300262    4.90999985    2.64000010
   13.45249939  122.91400146    4.90999985    2.64000010
   13.45583344  115.89499664    4.90999985    2.66000009
   13.45888901  105.86000061    4.90999985    2.64000010
   13.46222210  118.15299988    4.90999985    2.64000010
   13.46555519  115.93499756    4.90999985    2.64000010
   13.46861076  106.32399750    4.90999985    2.66000009
   13.47055531  111.59100342    4.90999985    2.64000010
   13.47249985  118.91400146    4.90999985    2.64000010
   13.47555542  115.31700134    4.90999985    2.64000010
   13.47888851  111.73799896    4.90999985    2.64000010
   13.48194408  112.06099701    4.90999985    2.64000010
   13.48527813  125.22499847    4.90999985    2.64000010
   13.48861122  107.00199890    4.90999985    2.64000010
   13.49166679  110.81300354    4.90999985    2.64000010
   13.49499989  115.58499908    4.90999985    2.64000010
   13.49833393  120.28099823    4.90999985    2.64000010
   13.50138855  102.86299896    4.90999985    2.64000010
   13.50388908  114.87899780    4.90999985    2.64000010
   13.50500011  117.05500031    4.90999985    2.64000010
   13.50833321  116.26000214    4.90999985    2.64000010
   13.51166630  118.49500275    4.90999985    2.57999992
   13.51472187  114.37500000    4.90999985    2.57999992
   13.51805496  117.44999695    4.90999985    2.57999992
   13.52138901  116.91699982    4.90999985    2.61999989
   13.52444458  112.51100159    4.90999985    2.64000010
   13.52777767  119.52300262    4.90999985    2.64000010
   13.53083324  115.77899933    4.90999985    2.64000010
   13.53416729  106.05500031    4.90999985    2.64000010
   13.53722286  111.65100098    4.90999985    2.64000010
   13.53750038  109.34500122    4.90999985    2.64000010
   13.54083347  107.73699951    4.90999985    2.64000010
   13.54416752  111.04799652    4.90999985    2.64000010
   13.54722309  101.24900055    4.90999985    2.64000010
   13.55055618  114.20899963    4.90999985    2.64000010
   13.55388927  103.14700317    4.90999985    2.66000009
   13.55694485  110.11199951    4.90999985    2.66000009
   13.56027794  107.68900299    4.90999985    2.64000010
   13.56333351  102.57199860    4.90999985    2.66000009
   13.56666660  106.70099640    4.90999985    2.64000010
   13.56999969  114.07900238    4.90999985    2.64000010
   13.57055569  120.36499786    4.90999985    2.64000010
   13.57361126  108.52999878    4.90999985    2.64000010
   13.57666683  105.11499786    4.90999985    2.64000010
   13.57999992  115.55100250    4.90999985    2.61999989
   13.58305550  106.85800171    4.90999985    2.61999989
   13.58638859  112.87699890    4.90999985    2.61999989
   13.58972168  103.43000031    4.90999985    2.64000010
   13.59277725  113.28099823    4.90999985    2.64000010
   13.59611034  117.69300079    4.90999985    2.64000010
   13.59944439  111.69699860    4.90999985    2.64000010
   13.60249996  108.37400055    4.90999985    2.64000010
   13.60388947  111.78600311    4.90999985    2.64000010
   13.60638905  111.43199921    4.90999985    2.66000009
   13.60944462  115.28500366    4.90999985    2.64000010
   13.61277771  110.00700378    4.90999985    2.66000009
   13.61583328  115.41400146    4.90999985    2.64000010
   13.61916637  120.83499908    4.90999985    2.66000009
   13.62250042  107.18299866    4.90999985    2.66000009
   13.62555599  111.99700165    4.90999985    2.64000010
   13.62888908  115.73899841    4.90999985    2.66000009
   13.63222218  114.13899994    4.90999985    2.66000009
   13.63527775  119.53900146    4.90999985    2.66000009
   13.63722229  112.52899933    4.90999985    2.64000010
   13.63916683  112.03900146    4.90999985    2.64000010
   13.64222240  104.45300293    4.90999985    2.64000010
   13.64555550  111.00499725    4.90999985    2.66000009
   13.64861107  102.56700134    4.90999985    2.66000009
   13.65194416  109.89800262    4.90999985    2.64000010
   13.65527725  124.15000153    4.90999985    2.64000010
   13.65833282  106.84100342    4.90999985    2.61999989
   13.66166592  115.11299896    4.90999985    2.61999989
   13.66499996  106.59799957    4.90999985    2.61999989
   13.66805553  110.81500244    4.90999985    2.61999989
   13.67055607  103.49900055    4.90999985    2.61999989
   13.67194462  115.21499634    4.90999985    2.61999989
   13.67500019  111.83499908    4.90999985    2.61999989
   13.67833328  112.30300140    4.90999985    2.64000010
   13.68138885  111.74900055    4.90999985    2.57999992
   13.68472195  112.10099792    4.90999985    2.59999990
   13.68805599  117.68399811    4.90999985    2.42000008
   13.69111156  106.93599701    4.90999985    2.53999996
   13.69444466  106.80599976    4.90999985    2.51999998
   13.69777775  117.17199707    4.90999985    2.46000004
   13.70083332  117.64199829    4.90999985    2.50000000
   13.70388889  131.43699646    4.90999985    2.44000006
   13.70472240  129.42500305    4.90999985    2.44000006
   13.70777798  115.92700195    4.90999985    2.34999990
   13.71111107  129.11999512    4.90999985    2.44000006
   13.71416664  125.94100189    4.90999985    2.44000006
   13.71749973  122.16200256    4.90999985    2.44000006
   13.72083282  123.32099915    4.90999985    2.44000006
   13.72388840  125.29599762    4.90999985    2.42000008
   13.72722149  123.04699707    4.90999985    2.39000010
   13.73055553  127.15299988    4.90999985    2.46000004
   13.73361111  142.54800415    4.90999985    2.40000010
   13.73694515  109.69899750    4.90999985    2.46000004
   13.73750019  122.81900024    4.90999985    2.46000004
   13.74055576  112.18000031    4.90999985    2.48000002
   13.74388885  121.75399780    4.90999985    2.44000006
   13.74694443  117.89900208    4.90999985    2.46000004
   13.75027752  131.38299561    4.90999985    2.40000010
   13.75361156  144.68200684    4.90999985    2.30999994
   13.75666714  123.82499695    4.90999985    2.32999992
   13.76000023  115.29599762    4.90999985    2.51999998
   13.76333332  111.93499756    4.90999985    2.55999994
   13.76638889  119.03600311    4.90999985    2.53999996
   13.76972198  121.58100128    4.90999985    2.51999998
   13.77083302  118.94599915    4.90999985    2.46000004
   13.77305508  119.13700104    4.90999985    2.40000010
   13.77638817  111.13999939    4.90999985    2.40000010
   13.77972221  116.18199921    4.90999985    2.51999998
   13.78277779  119.62400055    4.90999985    2.46000004
   13.78611183  146.45100403    4.90999985    2.40000010
   13.78916740  128.50100708    4.90999985    2.28999996
   13.79250050  127.48400116    4.90999985    2.34999990
   13.79583359  123.27200317    4.90999985    2.42000008
   13.79888916  125.21399689    4.90999985    2.46000004
   13.80222225  121.84500122    4.90999985    2.46000004
   13.80416679  122.73400116    4.90999985    2.46000004
   13.80583382  118.88700104    4.90999985    2.40000010
   13.80916691  120.61299896    4.90999985    2.39000010
   13.81250000  127.53099823    4.90999985    2.42000008
   13.81555557  128.10099792    4.90999985    2.44000006
   13.81888866  121.59600067    4.90999985    2.44000006
   13.82194424  108.77300262    4.90999985    2.50000000
   13.82527733  107.74299622    4.90999985    2.48000002
   13.82861137  120.43499756    4.90999985    2.48000002
   13.83166695  125.35299683    4.90999985    2.48000002
   13.83500004  114.22599792    4.90999985    2.50000000
   13.83749962  119.26899719    4.90999985    2.51999998
   13.83861065  110.76000214    4.90999985    2.53999996
   13.84194374  116.25199890    4.90999985    2.55999994
   13.84527779  123.36699677    4.90999985    2.53999996
   13.84833336  119.01599884    4.90999985    2.55999994
   13.85166740  110.83899689    4.90999985    2.55999994
   13.85472298  108.56999969    4.90999985    2.57999992
   13.85805607  101.76300049    4.90999985    2.61999989
   13.86138916  117.54699707    4.90999985    2.59999990
   13.86444473  118.86499786    4.90999985    2.55999994
   13.86777782  114.61699677    4.90999985    2.55999994
   13.87083340  110.66300201    4.90999985    2.59999990
   13.87138939   99.98549652    4.90999985    2.61999989
   13.87472248  105.42900085    4.90999985    2.59999990
   13.87777805  112.56500244    4.90999985    2.61999989
   13.88111115  102.83000183    4.90999985    2.59999990
   13.88444424  105.52200317    4.90999985    2.61999989
   13.88749981  100.23999786    4.90999985    2.61999989
   13.89083290  110.95800018    4.90999985    2.59999990
   13.89416695  105.54699707    4.90999985    2.59999990
   13.89722252  105.46099854    4.90999985    2.57999992
   13.90055561  100.19599915    4.90999985    2.55999994
   13.90361118  103.27999878    4.90999985    2.53999996
   13.90416622  105.05000305    4.90999985    2.53999996
   13.90722179  113.01100159    4.90999985    2.50000000
   13.91027737  109.36299896    4.90999985    2.51999998
   13.91361046  111.54000092    4.90999985    2.46000004
   13.91694450  117.87799835    4.90999985    2.46000004
   13.92000008  110.54699707    4.90999985    2.40000010
   13.92333412  111.80100250    4.90999985    2.32999992
   13.92666721  108.58000183    4.90999985    2.40000010
   13.92972279  117.82399750    4.90999985    2.40000010
   13.93305588  105.47899628    4.90999985    2.40000010
   13.93611145  112.07700348    4.90999985    2.48000002
   13.93750000  106.54399872    4.90999985    2.50000000
   13.94000053  113.91899872    4.90999985    2.53999996
   13.94333363  100.79900360    4.90999985    2.55999994
   13.94638920  109.73500061    4.90999985    2.59999990
   13.94972229  107.25599670    4.90999985    2.57999992
   13.95277786  113.74099731    4.90999985    2.59999990
   13.95611095  105.58399963    4.90999985    2.59999990
   13.95944405  108.71399689    4.90999985    2.59999990
   13.96249962  110.81700134    4.90999985    2.57999992
   13.96583271  107.90200043    4.90999985    2.59999990
   13.96916580   98.33799744    4.90999985    2.61999989
   13.97083282  108.18800354    4.90999985    2.61999989
   13.97277737  106.26599884    4.90999985    2.61999989
   13.97583294  117.25099945    4.90999985    2.61999989
   13.97916603  102.67400360    4.90999985    2.66000009
   13.98249912  101.81900024    4.90999985    2.66000009
   13.98555565   98.36100006    4.90999985    2.67000008
   13.98888874  101.03600311    4.90999985    2.67000008
   13.99222279  110.27500153    4.90999985    2.67000008
   13.99527836   99.80619812    4.90999985    2.67000008
   13.99861145  101.08699799    4.90999985    2.67000008
   14.00166702   93.12979889    4.90999985    2.66000009
   14.00416660   90.96340179    4.90999985    2.64000010
   14.00555515   90.62809753    4.90999985    2.61999989
   14.00861073  102.56099701    4.90999985    2.64000010
   14.01194477   96.76429749    4.90999985    2.64000010
   14.01527786  107.08000183    4.90999985    2.66000009
   14.01833344  108.39299774    4.90999985    2.66000009
   14.02166653  103.50499725    4.90999985    2.66000009
   14.02499962   98.93710327    4.90999985    2.67000008
   14.02805519   98.76409912    4.90999985    2.66000009
   14.03138828  103.25900269    4.90999985    2.66000009
   14.03444481  102.89299774    4.90999985    2.61999989
   14.03750038   95.99009705    4.90999985    2.66000009
   14.03805637   97.60230255    4.90999985    2.66000009
   14.04111195  105.51200104    4.90999985    2.66000009
   14.04444504   98.53119659    4.90999985    2.66000009
   14.04777813   95.21720123    4.90999985    2.67000008
   14.05083370   95.69889832    4.90999985    2.67000008
   14.05416679  107.28600311    4.90999985    2.67000008
   14.05749989  111.41699982    4.90999985    2.64000010
   14.06055546   95.91860199    4.90999985    2.64000010
   14.06388950  113.82800293    4.90999985    2.64000010
   14.06694412  102.94599915    4.90999985    2.66000009
   14.07027817  107.32499695    4.90999985    2.64000010
   14.07083321  111.89399719    4.90999985    2.64000010
   14.07388878   98.96070099    4.90999985    2.66000009
   14.07722187  112.49800110    4.90999985    2.66000009
   14.08027744  109.38099670    4.90999985    2.64000010
   14.08361053  107.04100037    4.90999985    2.64000010
   14.08694458   99.42019653    4.90999985    2.64000010
   14.09000015  109.49800110    4.90999985    2.59999990
   14.09333324  105.60700226    4.90999985    2.59999990
   14.09638882  103.07900238    4.90999985    2.57999992
   14.09972191   98.70349884    4.90999985    2.61999989
   14.10305595  110.62999725    4.90999985    2.64000010
   14.10416698  106.01699829    4.90999985    2.64000010
   14.10666752  109.77200317    4.90999985    2.66000009
   14.11000061  101.98200226    4.90999985    2.64000010
   14.11305618  101.35600281    4.90999985    2.64000010
   14.11638927  109.90899658    4.90999985    2.59999990
   14.11944485  105.50700378    4.90999985    2.61999989
   14.12277794  111.37899780    4.90999985    2.61999989
   14.12611103  104.88300323    4.90999985    2.59999990
   14.12916660  104.98799896    4.90999985    2.61999989
   14.13249969  110.06099701    4.90999985    2.61999989
   14.13583279  111.58499908    4.90999985    2.57999992
   14.13749981  115.37699890    4.90999985    2.57999992
   14.13944435  112.56800079    4.90999985    2.57999992
   14.14277744  113.48400116    4.90999985    2.55999994
   14.14583302  108.92500305    4.90999985    2.59999990
   14.14916611  107.23200226    4.90999985    2.61999989
   14.15222168  108.68199921    4.90999985    2.61999989
   14.15555477  111.48999786    4.90999985    2.55999994
   14.15888882  100.65100098    4.90999985    2.59999990
   14.16222191  107.92199707    4.90999985    2.61999989
   14.16527748  108.88800049    4.90999985    2.59999990
   14.16861153  107.93099976    4.90999985    2.59999990
   14.18694496  110.34300232    4.90999985    2.64000010
   14.18833351  107.08300018    4.90999985    2.61999989
   14.19166660  112.30799866    4.90999985    2.61999989
   14.19472218  103.78399658    4.90999985    2.67000008
   14.19805527  106.91799927    4.90999985    2.64000010
   14.20138836  103.58399963    4.90999985    2.64000010
   14.20444393  105.40799713    4.90999985    2.64000010
   14.20777798  108.16500092    4.90999985    2.55999994
   14.21083355   91.57430267    4.90999985    2.59999990
   14.21416664  102.30000305    4.90999985    2.59999990
   14.21749973  108.55999756    4.90999985    2.61999989
   14.22027779  102.78900146    4.90999985    2.59999990
   14.22111034   98.76909637    4.90999985    2.61999989
   14.22416592  105.56199646    4.90999985    2.59999990
   14.22749996  101.48000336    4.90999985    2.55999994
   14.23083305  111.68900299    4.90999985    2.55999994
   14.23388958  103.21499634    4.90999985    2.53999996
   14.23722267  105.67199707    4.90999985    2.59999990
   14.24027824  108.28900146    4.90999985    2.61999989
   14.24361134  105.62400055    4.90999985    2.66000009
   14.24694443  108.22299957    4.90999985    2.64000010
   14.25000000  110.41200256    4.90999985    2.61999989
   14.25333309  110.60199738    4.90999985    2.64000010
   14.25388908  107.56600189    4.90999985    2.64000010
   14.25722218  107.81800079    4.90999985    2.59999990
   14.26027775  106.99199677    4.90999985    2.64000010
   14.26361084  103.23000336    4.90999985    2.55999994
   14.26694393  114.63700104    4.90999985    2.55999994
   14.26999950   94.89089966    4.90999985    2.57999992
   14.27333355  104.30100250    4.90999985    2.59999990
   14.27638817  110.87300110    4.90999985    2.64000010
   14.27972221  103.51300049    4.90999985    2.71000004
   14.28305531  105.50800323    4.90999985    2.67000008
   14.28611183  110.47299957    4.90999985    2.69000006
   14.28722286  108.42099762    4.90999985    2.69000006
   14.29000092  105.29000092    4.90999985    2.69000006
   14.29305553   93.61769867    4.90999985    2.66000009
   14.29638958   98.14320374    4.90999985    2.64000010
   14.29972267  108.90799713    4.90999985    2.64000010
   14.30277824  106.29699707    4.90999985    2.59999990
   14.30611134  105.84600067    4.90999985    2.61999989
   14.30916691  106.74600220    4.90999985    2.64000010
   14.31250000  113.60900116    4.90999985    2.61999989
   14.31583309  109.59700012    4.90999985    2.59999990
   14.31888866  112.23500061    4.90999985    2.66000009
   14.32055569  109.66400146    4.90999985    2.67000008
   14.32277775  111.85299683    4.90999985    2.67000008
   14.32583332  107.08399963    4.90999985    2.66000009
   14.32916641  109.99299622    4.90999985    2.64000010
   14.33249950  105.80799866    4.90999985    2.66000009
   14.33555508  102.57299805    4.90999985    2.66000009
   14.33888817   98.62180328    4.90999985    2.69000006
   14.34222221  111.02700043    4.90999985    2.67000008
   14.34527779  110.32800293    4.90999985    2.66000009
   14.34861088  100.55699921    4.90999985    2.67000008
   14.35194492  109.23200226    4.90999985    2.69000006
   14.35388947  108.27200317    4.90999985    2.66000009
   14.35555553  108.53900146    4.90999985    2.69000006
   14.35861111  109.34300232    4.90999985    2.67000008
   14.36194515  109.26799774    4.90999985    2.69000006
   14.36527824  111.27700043    4.90999985    2.69000006
   14.36833382  109.12000275    4.90999985    2.67000008
   14.37166691  109.73400116    4.90999985    2.67000008
   14.37472248  107.26699829    4.90999985    2.69000006
   14.37805557  109.31600189    4.90999985    2.69000006
   14.38138866  112.57599640    4.90999985    2.67000008
   14.38444424  112.92600250    4.90999985    2.71000004
   14.38722229  102.93699646    4.90999985    2.69000006
   14.38833332   98.42649841    4.90999985    2.69000006
   14.39138889  108.24600220    4.90999985    2.69000006
   14.39472198  109.32499695    4.90999985    2.67000008
   14.39805508  103.73300171    4.90999985    2.71000004
   14.40111065   93.77279663    4.90999985    2.69000006
   14.40444374  110.88099670    4.90999985    2.69000006
   14.40749931  108.01100159    4.90999985    2.69000006
   14.41083336  115.73300171    4.90999985    2.69000006
   14.41416645   98.15260315    4.90999985    2.69000006
   14.41722298   98.69789886    4.90999985    2.69000006
   14.42055607  109.38300323    4.90999985    2.69000006
   14.42111111  103.19599915    4.90999985    2.69000006
   14.42444515  111.40100098    4.90999985    2.67000008
   14.42750072  111.87400055    4.90999985    2.67000008
   14.43083382  111.27500153    4.90999985    2.71000004
   14.43388939  109.29599762    4.90999985    2.64000010
   14.43722248  104.49199677    4.90999985    2.69000006
   14.44055557  105.57499695    4.90999985    2.67000008
   14.44361115  117.56999969    4.90999985    2.59999990
   14.44694424  105.81800079    4.90999985    2.55999994
   14.45027733  100.62599945    4.90999985    2.64000010
   14.45333290  102.77899933    4.90999985    2.67000008
   14.45388889  109.67900085    4.90999985    2.69000006
   14.45694447  101.30899811    4.90999985    2.73000002
   14.46000004  120.56300354    4.90999985    2.71000004
   14.46333313  109.28099823    4.90999985    2.69000006
   14.46666622  108.42400360    4.90999985    2.71000004
   14.46972179  100.90899658    4.90999985    2.69000006
   14.47305489  105.02899933    4.90999985    2.69000006
   14.47638798  102.93800354    4.90999985    2.71000004
   14.47944355  104.06400299    4.90999985    2.71000004
   14.48277760  104.42199707    4.90999985    2.71000004
   14.48583317  100.95300293    4.90999985    2.71000004
   14.48722267  104.94599915    4.90999985    2.71000004
   14.48972225  111.90200043    4.90999985    2.71000004
   14.49277782  109.47000122    4.90999985    2.71000004
   14.49611092  104.89900208    4.90999985    2.71000004
   14.49944496   91.13569641    4.90999985    2.71000004
   14.50249958   94.14800262    4.90999985    2.71000004
   14.50583363   97.45230103    4.90999985    2.71000004
   14.50888920  105.78800201    4.90999985    2.71000004
   14.51222229   95.45970154    4.90999985    2.71000004
   14.51555538  105.88200378    4.90999985    2.71000004
   14.51861095   93.14099884    4.90999985    2.71000004
   14.52055550  104.03500366    4.90999985    2.71000004
   14.52250004  107.68199921    4.90999985    2.73000002
   14.52555561  108.06900024    4.90999985    2.73000002
   14.52888870  108.79000092    4.90999985    2.71000004
   14.53222179  105.99400330    4.90999985    2.73000002
   14.53527832   93.70110321    4.90999985    2.71000004
   14.53861141  110.91500092    4.90999985    2.71000004
   14.54194450  100.52100372    4.90999985    2.71000004
   14.54500008  107.33999634    4.90999985    2.71000004
   14.54833412  102.38600159    4.90999985    2.73000002
   14.55138874  106.69499969    4.90999985    2.71000004
   14.55388927  104.11900330    4.90999985    2.71000004
   14.55527782  100.33799744    4.90999985    2.73000002
   14.55833340  106.02700043    4.90999985    2.73000002
   14.56166649   95.40280151    4.90999985    2.73000002
   14.56500053  113.96700287    4.90999985    2.71000004
   14.56805515  101.02200317    4.90999985    2.73000002
   14.57138920  100.36299896    4.90999985    2.71000004
   14.57472229  114.51599884    4.90999985    2.73000002
   14.57777786  101.18299866    4.90999985    2.73000002
   14.58111095  104.31600189    4.90999985    2.69000006
   14.58416653  155.98899841    4.90999985    2.71000004
   14.58722210  101.93599701    4.90999985    2.71000004
   14.58805561  103.32399750    4.90999985    2.71000004
   14.59111118  106.25199890    4.90999985    2.73000002
   14.59444427  102.96299744    4.90999985    2.71000004
   14.59777737  107.63700104    4.90999985    2.69000006
   14.60083389  102.44000244    4.90999985    2.69000006
   14.60416698  104.52300262    4.90999985    2.71000004
   14.60722256  108.60299683    4.90999985    2.71000004
   14.61055565  108.92900085    4.90999985    2.69000006
   14.61388969  100.93099976    4.90999985    2.71000004
   14.61694431  106.09500122    4.90999985    2.71000004
   14.62027836  109.50700378    4.90999985    2.71000004
   14.62083340  107.46800232    4.90999985    2.71000004
   14.62361145  114.76899719    4.90999985    2.71000004
   14.62694454  116.49400330    4.90999985    2.71000004
   14.63027763   98.25839996    4.90999985    2.71000004
   14.63333321  111.84799957    4.90999985    2.71000004
   14.63666630  109.15799713    4.90999985    2.73000002
   14.63972187  107.97000122    4.90999985    2.71000004
   14.64305496  100.34799957    4.90999985    2.73000002
   14.64638901  103.73200226    4.90999985    2.73000002
   14.64944458  108.05599976    4.90999985    2.69000006
   14.65277767  113.50499725    4.90999985    2.69000006
   14.65416622  106.50399780    4.90999985    2.69000006
   14.65638828  107.68499756    4.90999985    2.69000006
   14.65972137  107.65899658    4.90999985    2.69000006
   14.66305542  104.57399750    4.90999985    2.69000006
   14.66611099  106.86499786    4.90999985    2.69000006
   14.66944504  114.64600372    4.90999985    2.67000008
   14.67250061  113.68199921    4.90999985    2.71000004
   14.67583370  109.69799805    4.90999985    2.71000004
   14.67916679  117.08599854    4.90999985    2.71000004
   14.68222237  111.19999695    4.90999985    2.69000006
   14.68555546  106.59100342    4.90999985    2.69000006
   14.68750000  119.00199890    4.90999985    2.69000006
   14.68916702  107.65799713    4.90999985    2.69000006
   14.69250011  117.06099701    4.90999985    2.69000006
   14.69583321  116.64600372    4.90999985    2.71000004
   14.69888878  102.31300354    4.90999985    2.67000008
   14.70222187  106.50599670    4.90999985    2.67000008
   14.70527744  101.92500305    4.90999985    2.67000008
   14.70861053  101.88999939    4.90999985    2.67000008
   14.71194458  126.61599731    4.90999985    2.67000008
   14.71500015  119.58699799    4.90999985    2.66000009
   14.71833324  106.96800232    4.90999985    2.64000010
   14.72083282  105.78700256    4.90999985    2.67000008
   14.72194386  104.91000366    4.90999985    2.67000008
   14.72527695  105.89499664    4.90999985    2.66000009
   14.72861099  113.53900146    4.90999985    2.66000009
   14.73166656  106.14800262    4.90999985    2.66000009
   14.73500061  117.83000183    4.90999985    2.67000008
   14.73833370  107.87200165    4.90999985    2.67000008
   14.74138927  113.17400360    4.90999985    2.66000009
   14.74472237  112.58899689    4.90999985    2.64000010
   14.74777794  108.73100281    4.90999985    2.66000009
   14.75111103  117.46900177    4.90999985    2.71000004
   14.75416660  105.73000336    4.90999985    2.69000006
   14.75472260  121.87300110    4.90999985    2.69000006
   14.75805569  114.91000366    4.90999985    2.69000006
   14.76138878  114.15299988    4.90999985    2.71000004
   14.76444435  109.10600281    4.90999985    2.71000004
   14.76777744  108.18800354    4.90999985    2.71000004
   14.77083302  112.29599762    4.90999985    2.71000004
   14.77416611  110.51399994    4.90999985    2.71000004
   14.77750015  105.38600159    4.90999985    2.71000004
   14.78055573   92.40820313    4.90999985    2.73000002
   14.78388977  104.17199707    4.90999985    2.71000004
   14.78722286   98.80570221    4.90999985    2.71000004
   14.78750038  101.62100220    4.90999985    2.71000004
   14.79055595  102.55500031    4.90999985    2.73000002
   14.79388905  106.99199677    4.90999985    2.73000002
   14.79694462  112.91400146    4.90999985    2.73000002
   14.80027771  109.64499664    4.90999985    2.73000002
   14.80361176  109.10099792    4.90999985    2.71000004
   14.80666733  109.13400269    4.90999985    2.71000004
   14.81000042  102.62699890    4.90999985    2.71000004
   14.81305599   99.13069916    4.90999985    2.71000004
   14.81638908   91.42169952    4.90999985    2.71000004
   14.81972218  106.26699829    4.90999985    2.69000006
   14.82083321  115.17299652    4.90999985    2.69000006
   14.82333374   98.23500061    4.90999985    2.71000004
   14.82666683   98.66889954    4.90999985    2.73000002
   14.82972240  100.21299744    4.90999985    2.73000002
   14.83305550  109.05899811    4.90999985    2.71000004
   14.83611107  110.52799988    4.90999985    2.73000002
   14.83944416  108.18900299    4.90999985    2.71000004
   14.84277725  116.76399994    4.90999985    2.69000006
   14.84583282  100.70200348    4.90999985    2.71000004
   14.84916592  110.39700317    4.90999985    2.71000004
   14.85249996  115.12799835    4.90999985    2.75000000
   14.85416698  109.71499634    4.90999985    2.73000002
   14.85611153  103.31400299    4.90999985    2.73000002
   14.85944462  106.21299744    4.90999985    2.73000002
   14.86250019   92.58010101    4.90999985    2.73000002
   14.86583328  100.24400330    4.90999985    2.73000002
   14.86916637   88.49739838    4.90999985    2.73000002
   14.87222195  102.24500275    4.90999985    2.73000002
   14.87555599  106.91500092    4.90999985    2.73000002
   14.87861156  112.96199799    4.90999985    2.73000002
   14.88194466  112.29499817    4.90999985    2.73000002
   14.88527775  111.25099945    4.90999985    2.71000004
   14.88749981  100.36199951    4.90999985    2.71000004
   14.88888836  103.53600311    4.90999985    2.73000002
   14.89222240  108.75199890    4.90999985    2.71000004
   14.89527798  104.64800262    4.90999985    2.73000002
   14.89861107  111.57399750    4.90999985    2.73000002
   14.90194416  109.51399994    4.90999985    2.71000004
   14.90499973  111.07499695    4.90999985    2.71000004
   14.90833282  114.19000244    4.90999985    2.73000002
   14.91138840  103.49500275    4.90999985    2.71000004
   14.91472149  111.18299866    4.90999985    2.73000002
   14.91805553  108.59700012    4.90999985    2.73000002
   14.92083359  109.04199982    4.90999985    2.73000002
   14.92166710  105.20200348    4.90999985    2.71000004
   14.92500019  111.45999908    4.90999985    2.71000004
   14.92805576  116.24500275    4.90999985    2.73000002
   14.93138885  111.74800110    4.90999985    2.71000004
   14.93444443  104.89499664    4.90999985    2.73000002
   14.93777752  111.93299866    4.90999985    2.73000002
   14.94111156  101.10700226    4.90999985    2.73000002
   14.94416714  109.36599731    4.90999985    2.71000004
   14.94750023  109.56800079    4.90999985    2.73000002
   14.95083332  111.43599701    4.90999985    2.73000002
   14.95388889  115.20999908    4.90999985    2.71000004
   14.95444393  112.11199951    4.90999985    2.71000004
   14.95749950  121.19300079    4.90999985    2.71000004
   14.96055508  115.74299622    4.90999985    2.71000004
   14.96388912  116.98100281    4.90999985    2.71000004
   14.96694374  115.74800110    4.90999985    2.71000004
   14.97027779  118.35900116    4.90999985    2.69000006
   14.97361088  112.16500092    4.90999985    2.71000004
   14.97666645  115.21399689    4.90999985    2.71000004
   14.97999954  117.76100159    4.90999985    2.71000004
   14.98333359  113.69000244    4.90999985    2.71000004
   14.98638916  113.12200165    4.90999985    2.71000004
   14.98777771  112.86900330    4.90999985    2.71000004
   14.99027824  118.35099792    4.90999985    2.71000004
   14.99333382  116.70400238    4.90999985    2.71000004
   14.99666691  111.24500275    4.90999985    2.71000004
   14.99972248  109.08100128    4.90999985    2.71000004
   15.00305557  100.94999695    4.90999985    2.71000004
   15.00638866  119.02100372    4.90999985    2.71000004
   15.00944424  115.89199829    4.90999985    2.71000004
   15.01277733  115.81600189    4.90999985    2.73000002
   15.01611137  113.37000275    4.90999985    2.71000004
   15.01916599  117.68800354    4.90999985    2.71000004
   15.02111053  103.33599854    4.90999985    2.73000002
   15.02305508  110.56500244    4.90999985    2.71000004
   15.02611065  109.66899872    4.90999985    2.73000002
   15.02944374  111.02700043    4.90999985    2.73000002
   15.03277779  108.76699829    4.90999985    2.73000002
   15.03583336  115.33799744    4.90999985    2.73000002
   15.03916740  114.86599731    4.90999985    2.73000002
   15.04222298  115.68299866    4.90999985    2.73000002
   15.04555607  112.98300171    4.90999985    2.73000002
   15.04888916  106.85700226    4.90999985    2.73000002
   15.05194473  111.48899841    4.90999985    2.73000002
   15.05444431  112.70400238    4.90999985    2.75000000
   15.05583382  108.17700195    4.90999985    2.71000004
   15.05888939  117.44899750    4.90999985    2.73000002
   15.06222248  120.53099823    4.90999985    2.73000002
   15.06555557  110.76899719    4.90999985    2.75000000
   15.06861115  115.10900116    4.90999985    2.73000002
   15.07194424  113.90000153    4.90999985    2.73000002
   15.07499981  111.68099976    4.90999985    2.75000000
   15.07833290  118.76200104    4.90999985    2.75000000
   15.08166695  116.11299896    4.90999985    2.75000000
   15.08472157  112.62500000    4.90999985    2.75000000
   15.08777714   96.19670105    4.90999985    2.75000000
   15.08861065  109.61599731    4.90999985    2.75000000
   15.09166622  115.54900360    4.90999985    2.75000000
   15.09499931  109.13099670    4.90999985    2.75000000
   15.09805489  112.55999756    4.90999985    2.71000004
   15.10138893  110.65699768    4.90999985    2.69000006
   15.10472298  104.02799988    4.90999985    2.69000006
   15.10777855  109.70500183    4.90999985    2.69000006
   15.11111164  112.02400208    4.90999985    2.69000006
   15.11416721  110.12699890    0.13000000    0.47999999
   15.11750031  110.91100311    0.09000000    0.20999999
   15.12083340  101.50900269    0.09000000    0.03000000
   15.12138939  101.05400085    0.09000000    0.03000000
   15.12416649  105.94200134    0.09000000    0.03000000
   15.12750053  110.14199829    0.09000000    0.03000000
   15.13055611  111.52700043    0.09000000    0.03000000
   15.13388920  113.43900299    0.09000000    0.03000000
   15.13722229  105.65699768    0.09000000    0.03000000
   15.14027786  100.72200012    0.09000000    0.03000000
   15.14361095  113.58699799    0.09000000    0.03000000
   15.14666653  101.44499969    0.09000000    0.03000000
   15.14999962  105.83899689    0.09000000    0.03000000
   15.15333271  103.20200348    0.09000000    0.03000000
   15.15444374  110.34200287    0.09000000    0.03000000
   15.15694427  115.14700317    0.09000000    0.03000000
   15.16027737  106.03199768    0.09000000    0.03000000
   15.16333294  106.68900299    0.09000000    0.03000000
   15.16666698  104.58599854    0.09000000    0.03000000
   15.17000008  106.98999786    0.09000000    0.03000000
   15.17305565   89.44640350    0.09000000    0.03000000
   15.17638874  106.12899780    0.09000000    0.03000000
   15.17944431  103.36799622    0.09000000    0.03000000
   15.18277836   97.86380005    0.09000000    0.03000000
   15.18611145  107.81099701    0.09000000    0.03000000
   15.20361137  107.14700317    0.09000000    0.03000000
   15.20583344  107.68499756    0.09000000    0.03000000
   15.20888901  101.42600250    0.09000000    0.03000000
   15.21222210  111.81199646    0.09000000    0.03000000
   15.21555519  112.85900116    0.09000000    0.03000000
   15.21861076  111.13700104    0.09000000    0.03000000
   15.22194386  107.45200348    0.09000000    0.03000000
   15.22499943  102.34100342    0.09000000    0.03000000
   15.22833252  115.13700104    0.09000000    0.03000000
   15.23166656  102.42199707    0.09000000    0.03000000
   15.23472214  102.26899719    0.09000000    0.03000000
   15.23694515  106.21299744    0.09000000    0.03000000
   15.23833370  114.49199677    0.09000000    0.03000000
   15.24166679  112.04599762    0.09000000    0.03000000
   15.24499989  116.40200043    0.09000000    0.03000000
   15.24805546  105.58599854    0.09000000    0.03000000
   15.25138855  117.08599854    0.09000000    0.03000000
   15.25444412  110.31600189    0.09000000    0.03000000
   15.25777817  115.00000000    0.09000000    0.03000000
   15.26111126  109.17600250    0.09000000    0.03000000
   15.26416683  108.28600311    0.09000000    0.03000000
   15.26749992  110.41300201    0.09000000    0.03000000
   15.27027798  109.57900238    0.09000000    0.03000000
   15.27083302  104.74199677    0.09000000    0.03000000
   15.27416611  108.91600037    0.09000000    0.03000000
   15.27750015  115.03399658    0.09000000    0.03000000
   15.28055573  107.84899902    0.09000000    0.03000000
   15.28388977  115.20999908    0.09000000    0.03000000
   15.28722286  112.87200165    0.09000000    0.03000000
   15.29027843  107.74700165    0.09000000    0.03000000
   15.29361153  115.65799713    0.09000000    0.03000000
   15.29666710  108.14700317    0.09000000    0.03000000
   15.30000019  112.99700165    0.09000000    0.03000000
   15.30333328  106.96900177    0.09000000    0.03000000
   15.30361176  101.42099762    0.09000000    0.03000000
   15.30666733  110.50099945    0.09000000    0.03000000
   15.31000042  115.45099640    0.09000000    0.03000000
   15.31305599  110.77999878    0.09000000    0.03000000
   15.31638908  103.31800079    0.09000000    0.03000000
   15.31972218  114.24299622    0.09000000    0.03000000
   15.32277775  105.77799988    0.09000000    0.03000000
   15.32611084  111.37000275    0.09000000    0.03000000
   15.32944393  107.48300171    0.09000000    0.03000000
   15.33249950  116.35099792    0.09000000    0.03000000
   15.33583260  108.62200165    0.09000000    0.03000000
   15.33694458  117.59100342    0.09000000    0.03000000
   15.33944416  115.04199982    0.09000000    0.03000000
   15.34277725  106.22699738    0.09000000    0.03000000
   15.34583282  114.82299805    0.09000000    0.03000000
   15.34916592  111.69300079    0.09000000    0.03000000
   15.35249996  106.99600220    0.09000000    0.03000000
   15.35583401  109.27100372    0.09000000    0.03000000
   15.35888958  116.87699890    0.09000000    0.03000000
   15.36222267  118.80699921    0.09000000    0.03000000
   15.36527824  111.28299713    0.09000000    0.03000000
   15.36861134  111.55300140    0.09000000    0.03000000
   15.37027836  111.41899872    0.09000000    0.03000000
   15.37222195  113.94100189    0.09000000    0.03000000
   15.37555599  104.07399750    0.09000000    0.03000000
   15.37861156  118.73000336    0.09000000    0.03000000
   15.38194466  113.67900085    0.09000000    0.03000000
   15.38527775  113.92400360    0.09000000    0.03000000
   15.38833332  111.24700165    0.09000000    0.03000000
   15.39166641  105.85399628    0.09000000    0.03000000
   15.39499950  107.86499786    0.09000000    0.03000000
   15.39805508  112.98699951    0.09000000    0.03000000
   15.40138817  106.18800354    0.09000000    0.03000000
   15.40361118  114.25199890    0.09000000    0.03000000
   15.40499973  114.74199677    0.09000000    0.03000000
   15.40833282  123.46499634    0.09000000    0.03000000
   15.41138840  112.71900177    0.09000000    0.03000000
   15.41472149  112.04399872    0.09000000    0.03000000
   15.41805553  112.03399658    0.09000000    0.03000000
   15.42111111  119.66799927    0.09000000    0.03000000
   15.42444515  110.76999664    0.09000000    0.03000000
   15.42750072  113.45099640    0.09000000    0.03000000
   15.43083382  120.69300079    0.09000000    0.03000000
   15.43416691  110.97000122    0.09000000    0.03000000
   15.43694496  113.97699738    0.09000000    0.03000000
   15.43777752  127.49099731    0.09000000    0.03000000
   15.44111156  110.36799622    0.09000000    0.03000000
   15.44416714  109.52100372    0.09000000    0.03000000
   15.44750023  113.25499725    0.09000000    0.03000000
   15.45055580  126.96600342    0.09000000    0.03000000
   15.45388889  123.60700226    0.09000000    0.03000000
   15.45722198  121.76499939    0.09000000    0.03000000
   15.46027756  116.20400238    0.09000000    0.03000000
   15.46361065  116.45600128    0.09000000    0.03000000
   15.46694374  123.47699738    0.09000000    0.03000000
   15.46999931  115.34799957    0.09000000    0.03000000
   15.47055531  120.81500244    0.09000000    0.03000000
   15.47361088  119.16300201    0.09000000    0.03000000
   15.47666645  114.36499786    0.09000000    0.03000000
   15.47999954  117.38600159    0.09000000    0.03000000
   15.48333359  129.79600525    0.09000000    0.03000000
   15.48638916  114.78299713    0.09000000    0.03000000
   15.48972225  117.69400024    0.09000000    0.03000000
   15.49277782  108.92900085    0.09000000    0.03000000
   15.49611092  112.78099823    0.09000000    0.03000000
   15.49944496  108.29900360    0.09000000    0.03000000
   15.50249958  109.85600281    0.09000000    0.03000000
   15.50388908  116.32800293    0.09000000    0.03000000
   15.50638866  111.48300171    0.09000000    0.03000000
   15.50944424  110.19499969    0.09000000    0.03000000
   15.51277733  115.37799835    0.09000000    0.03000000
   15.51583290  110.37100220    0.09000000    0.03000000
   15.51916599  115.48999786    0.09000000    0.03000000
   15.52250004  106.16200256    0.09000000    0.03000000
   15.52583313  115.19899750    0.09000000    0.03000000
   15.52888870  108.23100281    0.09000000    0.03000000
   15.53222179  119.63700104    0.09000000    0.03000000
   15.53555584  110.89700317    0.09000000    0.03000000
   15.53722286  120.71900177    0.09000000    0.03000000
   15.53916740  117.63800049    0.09000000    0.03000000
   15.54222298  111.16699982    0.09000000    0.03000000
   15.54555607  126.17099762    0.09000000    0.03000000
   15.54888916  120.78800201    0.09000000    0.03000000
   15.55194473  133.13600159    0.09000000    0.03000000
   15.55527782  134.94599915    0.09000000    0.03000000
   15.55833340  153.70700073    0.09000000    0.03000000
   15.56166649  118.92700195    0.09000000    0.03000000
   15.56500053  130.47999573    0.09000000    0.03000000
   15.56805515  127.20800018    0.09000000    0.03000000
   15.57055569  136.49000549    0.09000000    0.03000000
   15.57194424  135.76899719    0.09000000    0.03000000
   15.57499981  120.78600311    0.09000000    0.03000000
   15.57833290  132.58200073    0.09000000    0.03000000
   15.58138847  128.88999939    0.09000000    0.03000000
   15.58472157  110.13300323    0.09000000    0.03000000
   15.58805561  106.31500244    0.09000000    0.03000000
   15.59111118  108.89099884    0.09000000    0.03000000
   15.59444427  118.66500092    0.09000000    0.03000000
   15.59777737  116.66899872    0.09000000    0.03000000
   15.60083389  116.95400238    0.09000000    0.03000000
   15.60388947  119.78900146    0.09000000    0.03000000
   15.60444450  115.87599945    0.09000000    0.03000000
   15.60777855  129.17500305    0.09000000    0.03000000
   15.61083412  111.28600311    0.09000000    0.03000000
   15.61416721  113.87699890    0.09000000    0.03000000
   15.61722279  117.40499878    0.09000000    0.03000000
   15.62055588  125.65499878    0.09000000    0.03000000
   15.62388897  126.57499695    0.09000000    0.03000000
   15.62694454  121.62999725    0.09000000    0.03000000
   15.63027763  127.94699860    0.09000000    0.03000000
   15.63361073  114.86299896    0.09000000    0.03000000
   15.63666630  109.36000061    0.09000000    0.03000000
   15.63722229  115.18900299    0.09000000    0.03000000
   15.64027786  116.98600006    0.09000000    0.03000000
   15.64333344  130.33999634    0.09000000    0.03000000
   15.64666653  141.05200195    0.09000000    0.03000000
   15.64999962  117.67900085    0.09000000    0.03000000
   15.65305519  118.86000061    0.09000000    0.03000000
   15.65638828  119.16000366    0.09000000    0.03000000
   15.65944386  128.74800110    0.09000000    0.03000000
   15.66277695  132.10200500    0.09000000    0.03000000
   15.66611099  121.28399658    0.09000000    0.03000000
   15.66916656  124.56300354    0.09000000    0.03000000
   15.67055607  120.82800293    0.09000000    0.03000000
   15.67305565  118.27799988    0.09000000    0.03000000
   15.67611122  105.55999756    0.09000000    0.03000000
   15.67944431  118.91699982    0.09000000    0.03000000
   15.68277836  123.15499878    0.09000000    0.03000000
   15.68583298  118.71900177    0.09000000    0.03000000
   15.68916702  116.93000031    0.09000000    0.03000000
   15.69250011  115.71900177    0.09000000    0.03000000
   15.69555569  132.34500122    0.09000000    0.03000000
   15.69888878  116.76699829    0.09000000    0.03000000
   15.70194435  126.95099640    0.09000000    0.03000000
   15.70388889  141.76499939    0.09000000    0.03000000
   15.70583344  142.08000183    0.09000000    0.03000000
   15.70888901  140.16099548    0.09000000    0.03000000
   15.71222210  144.48800659    0.09000000    0.03000000
   15.71555519  169.01800537    0.09000000    0.03000000
   15.71861076  251.94400024    0.09000000    0.03000000
   15.72194386  279.91799927    0.09000000    0.03000000
   15.72499943  171.34800720    0.09000000    0.03000000
   15.72833252  125.03700256    0.09000000    0.03000000
   15.73166656  127.10700226    0.09000000    0.03000000
   15.73472214  120.79499817    0.09000000    0.03000000
   15.73722267  124.32800293    0.09000000    0.03000000
   15.73861122  137.08299255    0.09000000    0.03000000
   15.74166679  118.17099762    0.09000000    0.03000000
   15.74499989  106.23999786    0.09000000    0.03000000
   15.74833393  112.00499725    0.09000000    0.03000000
   15.75138855  107.15799713    0.09000000    0.03000000
   15.75472260  105.86799622    0.09000000    0.03000000
   15.75777817  120.61799622    0.09000000    0.03000000
   15.76111126  112.65200043    0.09000000    0.03000000
   15.76444435  110.07800293    0.09000000    0.03000000
   15.76749992  108.62400055    0.09000000    0.03000000
   15.77055550  119.17199707    0.09000000    0.03000000
   15.77138901  116.23500061    0.09000000    0.03000000
   15.77444458  116.81300354    0.09000000    0.03000000
   15.77777767  115.73000336    0.09000000    0.03000000
   15.78111076  110.75599670    0.09000000    0.03000000
   15.78416729  121.29499817    0.09000000    0.03000000
   15.78750038  118.34700012    0.09000000    0.03000000
   15.79055595  131.29299927    0.09000000    0.03000000
   15.79388905  121.61399841    0.09000000    0.03000000
   15.79722309  110.48200226    0.09000000    0.03000000
   15.80027771  108.20800018    0.09000000    0.03000000
   15.80361176  114.87599945    0.09000000    0.03000000
   15.80416679  102.51999664    0.09000000    0.03000000
   15.80722237  112.70500183    0.09000000    0.03000000
   15.81055546  120.63600159    0.09000000    0.03000000
   15.81388950  123.62300110    0.09000000    0.03000000
   15.81694412  131.82299805    0.09000000    0.03000000
   15.82027817  137.27900696    0.09000000    0.03000000
   15.82361126  122.23200226    0.09000000    0.03000000
   15.82666683  135.90100098    0.09000000    0.03000000
   15.82999992  145.77200317    0.09000000    0.03000000
   15.83305550  126.66200256    0.09000000    0.03000000
   15.83638859  171.30400085    0.09000000    0.03000000
   15.83749962  148.57699585    0.09000000    0.03000000
   15.84000015  112.85900116    0.09000000    0.03000000
   15.84333324  113.58999634    0.09000000    0.03000000
   15.84666634  137.05999756    0.09000000    0.03000000
   15.84972191  136.57800293    0.09000000    0.03000000
   15.85305595  152.55099487    0.09000000    0.03000000
   15.85611153  147.50799561    0.09000000    0.03000000
   15.85944462  187.34599304    0.09000000    0.03000000
   15.86277771  191.01400757    0.09000000    0.03000000
   15.86583328  260.91500854    0.09000000    0.03000000
   15.86916637  167.15100098    0.09000000    0.03000000
   15.87083340  159.11700439    0.09000000    0.03000000
   15.87277794  149.56100464    0.09000000    0.03000000
   15.87611103  149.61199951    0.09000000    0.03000000
   15.87944412  169.28399658    0.09000000    0.03000000
   15.88249969  138.63999939    0.09000000    0.03000000
   15.88583279  142.77600098    0.09000000    0.03000000
   15.88916683  141.68200684    0.09000000    0.03000000
   15.89222240  139.83799744    0.09000000    0.03000000
   15.89555550  128.59300232    0.09000000    0.03000000
   15.89861107  119.88800049    0.09000000    0.03000000
   15.90194416  117.76599884    0.09000000    0.03000000
   15.90416622  116.10299683    0.09000000    0.03000000
   15.90555477  118.88400269    0.09000000    0.03000000
   15.90888882  114.06500244    0.09000000    0.03000000
   15.91222191  124.51899719    0.09000000    0.03000000
   15.91527748  114.79599762    0.09000000    0.03000000
   15.91861153  116.11499786    0.09000000    0.03000000
   15.92166710  107.08399963    0.09000000    0.03000000
   15.92500019  117.75700378    0.09000000    0.03000000
   15.92833328  116.02700043    0.09000000    0.03000000
   15.93138885  112.45300293    0.09000000    0.03000000
   15.93472195  302.60998535    0.09000000    0.03000000
   15.93750000  171.59899902    0.09000000    0.03000000
   15.93805599  286.61401367    0.09000000    0.03000000
   15.94138908  224.03999329    0.09000000    0.03000000
   15.94472218  219.25100708    0.09000000    0.03000000
   15.94777775  162.33500671    0.09000000    0.03000000
   15.95111084  155.36900330    0.09000000    0.03000000
   15.95416641  132.42599487    0.09000000    0.03000000
   15.95749950  154.96800232    0.09000000    0.03000000
   15.96083355  221.81500244    0.09000000    0.03000000
   15.96388912  217.50599670    0.09000000    0.03000000
   15.96722221  217.91099548    0.09000000    0.03000000
   15.97055531  189.27999878    0.09000000    0.03000000
   15.97083282  191.08900452    0.09000000    0.03000000
   15.97388840  175.98500061    0.09000000    0.03000000
   15.97722149  150.23300171    0.09000000    0.03000000
   15.98027706  136.31300354    0.09000000    0.03000000
   15.98361111  124.76799774    0.09000000    0.03000000
   15.98694515  124.10099792    0.09000000    0.03000000
   15.99000072  126.61299896    0.09000000    0.03000000
   15.99333382  122.58200073    0.09000000    0.03000000
   15.99638939  121.43399811    0.09000000    0.03000000
   15.99972248  140.23500061    0.09000000    0.03000000
   16.00305557  128.10299683    0.09000000    0.03000000
   16.00416756  121.50900269    0.09000000    0.03000000
   16.00666618  132.55000305    0.09000000    0.03000000
   16.01000023  117.27999878    0.09000000    0.03000000
   16.01305580  132.48800659    0.09000000    0.03000000
   16.01638794  127.28500366    0.09000000    0.03000000
   16.01944351  119.32499695    0.09000000    0.03000000
   16.02277756  122.20500183    0.09000000    0.03000000
   16.02611160  109.05599976    0.09000000    0.03000000
   16.02916718  106.25800323    0.09000000    0.03000000
   16.03249931  117.19899750    0.09000000    0.03000000
   16.03583336  119.57700348    0.09000000    0.03000000
   16.03750038  108.28099823    0.09000000    0.03000000
   16.03944397  116.51599884    0.09000000    0.03000000
   16.04277802  109.69200134    0.09000000    0.03000000
   16.04583359  106.95400238    0.09000000    0.03000000
   16.04916573  108.34200287    0.09000000    0.03000000
   16.05249977  105.04499817    0.09000000    0.03000000
   16.05555534  106.08999634    0.09000000    0.03000000
   16.05888748  112.98999786    0.09000000    0.03000000
   16.06194305  116.14099884    0.09000000    0.03000000
   16.06527710   94.27709961    0.09000000    0.03000000
   16.06861115  110.75499725    0.09000000    0.03000000
   16.07083511  107.58399963    0.09000000    0.03000000
   16.07222366  126.33000183    0.09000000    0.03000000
   16.07555580  122.82599640    0.09000000    0.03000000
   16.07861137  117.97599792    0.09000000    0.03000000
   16.08194542  110.12599945    0.09000000    0.03000000
   16.08500099  118.97299957    0.09000000    0.03000000
   16.08833313  107.24199677    0.09000000    0.03000000
   16.09166718  109.49400330    0.09000000    0.03000000
   16.09472275  105.83599854    0.09000000    0.03000000
   16.09805679  109.77999878    0.09000000    0.03000000
   16.10138893  108.74199677    0.09000000    0.03000000
   16.10416794  113.50700378    0.09000000    0.03000000
   16.10472298  115.40000153    0.09000000    0.03000000
   16.10805511  110.08399963    0.09000000    0.03000000
   16.11111069  108.88700104    0.09000000    0.03000000
   16.11444473  111.25599670    0.09000000    0.03000000
   16.11777878  116.81500244    0.09000000    0.03000000
   16.12083435  109.83300018    0.09000000    0.03000000
   16.12416649  111.69100189    0.09000000    0.03000000
   16.12722206  110.36399841    0.09000000    0.03000000
   16.13055611  101.64299774    0.09000000    0.03000000
   16.13388824  109.89199829    0.09000000    0.03000000
   16.13694382  108.01499939    0.09000000    0.03000000
   16.13750076  107.56600189    0.09000000    0.03000000
   16.14055634  113.14700317    0.09000000    0.03000000
   16.14388847  109.83699799    0.09000000    0.03000000
   16.14694405  110.18199921    0.09000000    0.03000000
   16.15027809  104.02300262    0.09000000    0.03000000
   16.15361023  111.32199860    0.09000000    0.03000000
   16.15666580  112.71600342    0.09000000    0.03000000
   16.15999985  108.57399750    0.09000000    0.03000000
   16.16305542  105.01999664    0.09000000    0.03000000
   16.16638756  102.80599976    0.09000000    0.03000000
   16.16972160   99.94969940    0.09000000    0.03000000
   16.17083359  103.56500244    0.09000000    0.03000000
   16.17333221  112.18399811    0.09000000    0.03000000
   16.17666626  102.89800262    0.09000000    0.03000000
   16.17972183  107.96499634    0.09000000    0.03000000
   16.18305397  110.80500031    0.09000000    0.03000000
   16.18638802  111.89900208    0.09000000    0.03000000
   16.18972206  109.51200104    0.09000000    0.03000000
   16.19277763  109.98300171    0.09000000    0.03000000
   16.19610977  102.14600372    0.09000000    0.03000000
   16.19916534  110.88800049    0.09000000    0.03000000
   16.20250130  108.06300354    0.09000000    0.03000000
   16.22027779  114.04000092    0.09000000    0.03000000
   16.22222328  107.82299805    0.09000000    0.03000000
   16.22555542  120.70200348    0.09000000    0.03000000
   16.22861099  118.43599701    0.09000000    0.03000000
   16.23194504  114.43299866    0.09000000    0.03000000
   16.23527718  116.65200043    0.09000000    0.03000000
   16.23833275  118.87799835    0.09000000    0.03000000
   16.24166679  139.98800659    0.09000000    0.03000000
   16.24500084  131.83000183    0.09000000    0.03000000
   16.24805641  125.84300232    0.09000000    0.03000000
   16.25138855  122.78399658    0.09000000    0.03000000
   16.25333405  119.97899628    0.09000000    0.03000000
   16.25499916  119.51599884    0.09000000    0.03000000
   16.25833321  120.46600342    0.09000000    0.03000000
   16.26138878  121.33399963    0.09000000    0.03000000
   16.26472282  115.04699707    0.09000000    0.03000000
   16.26777840  122.79499817    0.09000000    0.03000000
   16.27111053  130.24200439    0.09000000    0.03000000
   16.27444458  154.38400269    0.09000000    0.03000000
   16.27750015  211.34800720    0.09000000    0.03000000
   16.28083229  161.40299988    0.09000000    0.03000000
   16.28416634   -1.00000000    0.09000000    0.03000000
   16.28694344  139.64599609    0.09000000    0.03000000
   16.28750038  243.34100342    0.09000000    0.03000000
   16.29083252  257.93798828    0.09000000    0.03000000
   16.29388809  276.37298584    0.09000000    0.03000000
   16.29722214  250.03799438    0.09000000    0.03000000
   16.30055428  191.88000488    0.09000000    0.03000000
   16.30360985  124.82900238    0.09000000    0.03000000
   16.30694389  127.21900177    0.09000000    0.03000000
   16.30999947  113.41300201    0.09000000    0.03000000
   16.31333351  107.93299866    0.09000000    0.03000000
   16.31666756  122.22399902    0.09000000    0.03000000
   16.31972313  117.44400024    0.09000000    0.03000000
   16.32027817  125.46700287    0.09000000    0.03000000
   16.32333374  118.70999908    0.09000000    0.03000000
   16.32638931  122.93399811    0.09000000    0.03000000
   16.32972336  114.15200043    0.09000000    0.03000000
   16.33305550  114.08000183    0.09000000    0.03000000
   16.33611107  112.97499847    0.09000000    0.03000000
   16.33944511  122.45700073    0.09000000    0.03000000
   16.34277916  125.32099915    0.09000000    0.03000000
   16.34583473  120.01200104    0.09000000    0.03000000
   16.34916687  120.40799713    0.09000000    0.03000000
   16.35222244  107.43000031    0.09000000    0.03000000
   16.35361099  118.21399689    0.09000000    0.03000000
   16.35611153  131.29400635    0.09000000    0.03000000
   16.35916710  120.12000275    0.09000000    0.03000000
   16.36250114  118.64600372    0.09000000    0.03000000
   16.36583328  119.56700134    0.09000000    0.03000000
   16.36888885  118.94100189    0.09000000    0.03000000
   16.37222290  105.29900360    0.09000000    0.03000000
   16.37527847  114.69899750    0.09000000    0.03000000
   16.37861061  113.24099731    0.09000000    0.03000000
   16.38194466  113.15200043    0.09000000    0.03000000
   16.38500023  121.67299652    0.09000000    0.03000000
   16.38694382  123.38400269    0.09000000    0.03000000
   16.38888931  121.80599976    0.09000000    0.03000000
   16.39194489  115.04000092    0.09000000    0.03000000
   16.39527702  131.68800354    0.09000000    0.03000000
   16.39861107  112.90599823    0.09000000    0.03000000
   16.40166664  116.88800049    0.09000000    0.03000000
   16.40499878  139.73500061    0.09000000    0.03000000
   16.40833282  124.11299896    0.09000000    0.03000000
   16.41138840  126.70300293    0.09000000    0.03000000
   16.41472244  128.82499695    0.09000000    0.03000000
   16.41777802  114.28099823    0.09000000    0.03000000
   16.42027664  110.88200378    0.09000000    0.03000000
   16.42166519  122.87799835    0.09000000    0.03000000
   16.42472076  108.74099731    0.09000000    0.03000000
   16.42805481  112.09500122    0.09000000    0.03000000
   16.43138885  109.07299805    0.09000000    0.03000000
   16.43444443  116.27300262    0.09000000    0.03000000
   16.43777657  102.93299866    0.09000000    0.03000000
   16.44111061  114.14299774    0.09000000    0.03000000
   16.44416618  840.11602783    0.09000000    0.03000000
   16.44610977  119.58399963    0.09000000    0.03000000
   16.44638824  116.27300262    0.09000000    0.03000000
   16.44638824  102.93299866    0.09000000    0.03000000
   16.44638824  114.14299774    0.09000000    0.03000000
   16.44638824  840.11602783    0.09000000    0.03000000
   16.44638824  114.28099823    0.09000000    0.03000000
   16.44638824  122.87799835    0.09000000    0.03000000
   16.44666672  108.74099731    0.09000000    0.03000000
   16.44666672  112.09500122    0.09000000    0.03000000
   16.44666672  109.07299805    0.09000000    0.03000000
   16.44833183  123.29499817    0.09000000    0.03000000
   16.45166779  136.90699768    0.09000000    0.03000000
   16.45472336  108.14399719    0.09000000    0.03000000
   16.45805550  119.58899689    0.09000000    0.03000000
   16.46138954  129.93800354    0.09000000    0.03000000
   16.46694565  129.93800354    0.09000000    0.03000000
   16.47111130  117.24600220    0.09000000    0.03000000
   16.47444534  121.81099701    0.09000000    0.03000000
   16.47750092  117.56600189    0.09000000    0.03000000
   16.48000145  126.64299774    0.09000000    0.03000000
   16.48111153  111.66899872    0.09000000    0.03000000
   16.48416710  119.59200287    0.09000000    0.03000000
   16.48750114  122.18299866    0.09000000    0.03000000
   16.49083328  108.17900085    0.09000000    0.03000000
   16.49388885  117.96800232    0.09000000    0.03000000
   16.49722290  111.85299683    0.09000000    0.03000000
   16.50055504  121.14199829    0.09000000    0.03000000
   16.50361061  118.44899750    0.09000000    0.03000000
   16.50972176  118.44899750    0.09000000    0.03000000
   16.51388931  117.84799957    0.09000000    0.03000000
   16.51722145  124.12899780    0.09000000    0.03000000
   16.52027702  110.36100006    0.09000000    0.03000000
   16.52361107  113.23300171    0.09000000    0.03000000
   16.52694511  116.08599854    0.09000000    0.03000000
   16.53027725  111.03399658    0.09000000    0.03000000
   16.53333282  111.59600067    0.09000000    0.03000000
   16.53666687  123.62000275    0.09000000    0.03000000
   16.53972244  112.82700348    0.09000000    0.03000000
   16.54305458  105.58899689    0.09000000    0.03000000
   16.54638863  123.54199982    0.09000000    0.03000000
   16.54666710  111.88099670    0.09000000    0.03000000
   16.55277634  111.88099670    0.09000000    0.03000000
   16.55666542  114.38800049    0.09000000    0.03000000
   16.55999947  117.54199982    0.09000000    0.03000000
   16.56333351  114.40299988    0.09000000    0.03000000
   16.56638718  120.58200073    0.09000000    0.03000000
   16.56972313  110.85800171    0.09000000    0.03000000
   16.57305717  111.63600159    0.09000000    0.03000000
   16.57611275  111.77600098    0.09000000    0.03000000
   16.57944489  119.38999939    0.09000000    0.03000000
   16.58000183  103.47599792    0.09000000    0.03000000
   16.58305550  112.22100067    0.09000000    0.03000000
   16.58638954  113.40000153    0.09000000    0.03000000
   16.58944511  117.17900085    0.09000000    0.03000000
   16.59555626  117.17900085    0.09000000    0.03000000
   16.59972191  114.80699921    0.09000000    0.03000000
   16.60277748  109.66400146    0.09000000    0.03000000
   16.60611153  116.39099884    0.09000000    0.03000000
   16.60944557  122.31999969    0.09000000    0.03000000
   16.61250114  119.70200348    0.09000000    0.03000000
   16.61361122  113.81800079    0.09000000    0.03000000
   16.61611176  121.63200378    0.09000000    0.03000000
   16.61944389  119.27200317    0.09000000    0.03000000
   16.62249947  124.34200287    0.09000000    0.03000000
   16.62583351  107.48999786    0.09000000    0.03000000
   16.62916756  117.17400360    0.09000000    0.03000000
   16.63222313  112.19400024    0.09000000    0.03000000
   16.63833237  112.19400024    0.09000000    0.03000000
   16.64249992  120.89499664    0.09000000    0.03000000
   16.64583397  120.01399994    0.09000000    0.03000000
   16.64694405  119.28500366    0.09000000    0.03000000
   16.64916611  111.66799927    0.09000000    0.03000000
   16.65250015  115.80699921    0.09000000    0.03000000
   16.65555573  119.03500366    0.09000000    0.03000000
   16.65888786  115.79100037    0.09000000    0.03000000
   16.66222191  113.14900208    0.09000000    0.03000000
   16.66527748  110.02400208    0.09000000    0.03000000
   16.66860962  112.12899780    0.09000000    0.03000000
   16.67194366  112.51499939    0.09000000    0.03000000
   16.67499924  112.14800262    0.09000000    0.03000000
   16.68111038  112.14800262    0.09000000    0.03000000
   16.68527603  114.19799805    0.09000000    0.03000000
   16.68861008  116.00900269    0.09000000    0.03000000
   16.69194412  116.41100311    0.09000000    0.03000000
   16.69499969  115.74900055    0.09000000    0.03000000
   16.69833183  113.49500275    0.09000000    0.03000000
   16.70166779  115.41400146    0.09000000    0.03000000
   16.70472336  113.34100342    0.09000000    0.03000000
   16.70805550  112.80999756    0.09000000    0.03000000
   16.71111107  101.78900146    0.09000000    0.03000000
   16.71361160  117.32099915    0.09000000    0.03000000
   16.71472359  108.03700256    0.09000000    0.03000000
   16.71805573  108.53500366    0.09000000    0.03000000
   16.72416687  108.53500366    0.09000000    0.03000000
   16.72805595  115.00199890    0.09000000    0.03000000
   16.73139000  108.74700165    0.09000000    0.03000000
   16.73472214  113.81700134    0.09000000    0.03000000
   16.73777771  108.08200073    0.09000000    0.03000000
   16.74111176  111.76699829    0.09000000    0.03000000
   16.74444389  114.60099792    0.09000000    0.03000000
   16.74694443  114.63899994    0.09000000    0.03000000
   16.74777794  101.55200195    0.09000000    0.03000000
   16.75111198  110.52899933    0.09000000    0.03000000
   16.75416756  109.17099762    0.09000000    0.03000000
   16.75749969  106.18499756    0.09000000    0.03000000
   16.76083374  110.66400146    0.09000000    0.03000000
   16.76694489  110.66400146    0.09000000    0.03000000
   16.77111053   98.46779633    0.09000000    0.03000000
   16.77416611  109.31700134    0.09000000    0.03000000
   16.77750015  109.20400238    0.09000000    0.03000000
   16.78027725  107.95500183    0.09000000    0.03000000
   16.78111076  122.44799805    0.09000000    0.03000000
   16.78444481  108.35800171    0.09000000    0.03000000
   16.78750038  105.28700256    0.09000000    0.03000000
   16.79083252  115.32499695    0.09000000    0.03000000
   16.79416656  112.59899902    0.09000000    0.03000000
   16.79722214  110.41200256    0.09000000    0.03000000
   16.80055428  110.74500275    0.09000000    0.03000000
   16.80388832  107.30300140    0.09000000    0.03000000
   16.80972099  107.30300140    0.09000000    0.03000000
   16.81388855  115.55699921    0.09000000    0.03000000
   16.81722260  113.18900299    0.09000000    0.03000000
   16.82027817  112.63400269    0.09000000    0.03000000
   16.82361221  114.73000336    0.09000000    0.03000000
   16.82666779  110.75399780    0.09000000    0.03000000
   16.83000183  120.12200165    0.09000000    0.03000000
   16.83333397  116.87200165    0.09000000    0.03000000
   16.83638954  111.13600159    0.09000000    0.03000000
   16.83972359  109.84899902    0.09000000    0.03000000
   16.84305573  112.44499969    0.09000000    0.03000000
   16.84611130  110.92199707    0.09000000    0.03000000
   16.84694481  113.58499908    0.09000000    0.03000000
   16.85250092  113.58499908    0.09000000    0.03000000
   16.85666656  114.78600311    0.09000000    0.03000000
   16.86000061  112.45300293    0.09000000    0.03000000
   16.86305618  110.86199951    0.09000000    0.03000000
   16.86638832  119.40599823    0.09000000    0.03000000
   16.86972237  118.86799622    0.09000000    0.03000000
   16.87277794  111.55300140    0.09000000    0.03000000
   16.87611198  110.85399628    0.09000000    0.03000000
   16.87916756  109.53099823    0.09000000    0.03000000
   16.88027763  102.87200165    0.09000000    0.03000000
   16.88277817  110.82800293    0.09000000    0.03000000
   16.88611031  113.03900146    0.09000000    0.03000000
   16.88916588  111.12300110    0.09000000    0.03000000
   16.89555550  111.12300110    0.09000000    0.03000000
   16.89944458  116.02999878    0.09000000    0.03000000
   16.90277672  115.71399689    0.09000000    0.03000000
   16.90611076  114.82499695    0.09000000    0.03000000
   16.90916634  111.97399902    0.09000000    0.03000000
   16.91250038  112.20200348    0.09000000    0.03000000
   16.91361046  111.12899780    0.09000000    0.03000000
   16.91583252  110.71900177    0.09000000    0.03000000
   16.91916656  116.79100037    0.09000000    0.03000000
   16.92249870  108.14099884    0.09000000    0.03000000
   16.92555428  110.31400299    0.09000000    0.03000000
   16.92888832  113.56400299    0.09000000    0.03000000
   16.93194389  103.70400238    0.09000000    0.03000000
   16.93833160  103.70400238    0.09000000    0.03000000
   16.94249916  113.53900146    0.09000000    0.03000000
   16.94555473  117.52600098    0.09000000    0.03000000
   16.94694328  109.03900146    0.09000000    0.03000000
   16.94916534  111.57900238    0.09000000    0.03000000
   16.95250130  111.81300354    0.09000000    0.03000000
   16.95583344  122.44300079    0.09000000    0.03000000
   16.95888901  121.66799927    0.09000000    0.03000000
   16.96222305  120.13300323    0.09000000    0.03000000
   16.96527863  119.34200287    0.09000000    0.03000000
   16.96861076  115.79900360    0.09000000    0.03000000
   16.97194481  110.48699951    0.09000000    0.03000000
   16.97527885  117.35600281    0.09000000    0.03000000
   16.98111153  117.35600281    0.09000000    0.03000000
   16.98527718  117.21900177    0.09000000    0.03000000
   16.98861122  121.37100220    0.09000000    0.03000000
   16.99166679  116.26100159    0.09000000    0.03000000
   16.99500084  128.53100586    0.09000000    0.03000000
   16.99805641  124.05799866    0.09000000    0.03000000
   17.00138855  128.09800720    0.09000000    0.03000000
   17.00472260  124.66000366    0.09000000    0.03000000
   17.00777817  122.04900360    0.09000000    0.03000000
   17.01111031  151.67100525    0.09000000    0.03000000
   17.01361084  185.47599792    0.09000000    0.03000000
   17.01472282  171.68200684    0.09000000    0.03000000
   17.01805496  154.84100342    0.09000000    0.03000000
