    HOUR (UT)   FLARE FACTOR    SKY TESTER    SUN TESTER
   11.26222229   -1.00000000   -1.00000000   -1.00000000
   11.28194427  246.71899414    4.90999985    1.48000002
   11.28638935  291.65301514    4.90999985    1.46000004
   11.29055595  345.62399292    4.90999985    1.48000002
   11.29388905  328.82199097    4.90999985    1.48000002
   11.29694462  313.60598755    4.90999985    1.50000000
   11.30027771  286.62701416    4.90999985    1.50000000
   11.30361176  324.16299438    4.90999985    1.50000000
   11.30666733  319.17800903    4.90999985    1.50000000
   11.31000042  323.27099609    4.90999985    1.51999998
   11.31333351  381.14001465    4.90999985    1.51999998
   11.31527805  376.39599609    4.90999985    1.51999998
   11.31694412  346.29299927    4.90999985    1.51999998
   11.31999969  388.83401489    4.90999985    1.51999998
   11.32333374  355.37298584    4.90999985    1.53999996
   11.32666683  292.16000366    4.90999985    1.53999996
   11.32972240  287.98300171    4.90999985    1.53999996
   11.33305550  280.82901001    4.90999985    1.55999994
   11.33611107  315.76300049    4.90999985    1.55999994
   11.33944416  278.91500854    4.90999985    1.55999994
   11.34277725  297.46899414    4.90999985    1.55999994
   11.34583282  297.76800537    4.90999985    1.58000004
   11.34861088  295.39300537    4.90999985    1.60000002
   11.34972191  261.24798584    4.90999985    1.58000004
   11.35277843  287.42800903    4.90999985    1.60000002
   11.35611153  290.72299194    4.90999985    1.60000002
   11.35944462  279.72399902    4.90999985    1.60000002
   11.36250019  285.85198975    4.90999985    1.60000002
   11.36583328  286.19799805    4.90999985    1.61000001
   11.36888885  318.01400757    4.90999985    1.61000001
   11.37222195  306.24099731    4.90999985    1.61000001
   11.37555599  298.87600708    4.90999985    1.63000000
   11.37861156  292.60598755    4.90999985    1.61000001
   11.38194466  253.99099731    4.90999985    1.63000000
   11.38249969  258.54501343    4.90999985    1.63000000
   11.38555527  267.00399780    4.90999985    1.63000000
   11.38888836  257.94198608    4.90999985    1.64999998
   11.39222240  275.46701050    4.90999985    1.63000000
   11.39527798  283.25601196    4.90999985    1.64999998
   11.39861107  271.37799072    4.90999985    1.64999998
   11.40166664  239.41999817    4.90999985    1.64999998
   11.40499973  267.29501343    4.90999985    1.64999998
   11.40833282  252.72399902    4.90999985    1.66999996
   11.41138840  282.51699829    4.90999985    1.66999996
   11.41472149  281.93399048    4.90999985    1.66999996
   11.41527748  253.10699463    4.90999985    1.66999996
   11.41833401  234.55700684    4.90999985    1.66999996
   11.42138958  259.30300903    4.90999985    1.69000006
   11.42472267  245.92599487    4.90999985    1.69000006
   11.42805576  224.41900635    4.90999985    1.71000004
   11.43111134  221.22200012    4.90999985    1.69000006
   11.43444443  253.00399780    4.90999985    1.69000006
   11.43750000  241.34500122    4.90999985    1.71000004
   11.44083309  256.93301392    4.90999985    1.71000004
   11.44416714  245.25599670    4.90999985    1.71000004
   11.44750023  222.03100586    4.90999985    1.71000004
   11.44861126  227.75500488    4.90999985    1.73000002
   11.45111084  235.83500671    4.90999985    1.73000002
   11.45416641  238.64999390    4.90999985    1.73000002
   11.45749950  210.00000000    4.90999985    1.73000002
   11.46083355  210.01899719    4.90999985    1.75000000
   11.46388912  231.75900269    4.90999985    1.75000000
   11.46722221  209.68800354    4.90999985    1.75000000
   11.47027779  216.53900146    4.90999985    1.75000000
   11.47361088  225.88200378    4.90999985    1.76999998
   11.47694397  207.66900635    4.90999985    1.76999998
   11.47999954  200.89799500    4.90999985    1.76999998
   11.48194408  180.19400024    4.90999985    1.76999998
   11.48388958  186.32200623    4.90999985    1.76999998
   11.48694515  201.05599976    4.90999985    1.76999998
   11.49027824  210.22500610    4.90999985    1.76999998
   11.49361134  212.33900452    4.90999985    1.78999996
   11.49666691  204.24200439    4.90999985    1.78999996
   11.50000000  213.66999817    4.90999985    1.78999996
   11.50305557  212.51600647    4.90999985    1.80999994
   11.50638866  210.81100464    4.90999985    1.78999996
   11.50972176  199.56599426    4.90999985    1.80999994
   11.51277733  198.55799866    4.90999985    1.80999994
   11.51527786  194.82699585    4.90999985    1.80999994
   11.51666641  186.26100159    4.90999985    1.80999994
   11.51972198  173.31100464    4.90999985    1.80999994
   11.52305508  195.90699768    4.90999985    1.83000004
   11.52638817  197.25500488    4.90999985    1.83000004
   11.52944374  206.29400635    4.90999985    1.83000004
   11.53277779  180.85600281    4.90999985    1.85000002
   11.53583336  197.86500549    4.90999985    1.85000002
   11.53916740  185.74400330    4.90999985    1.85000002
   11.54250050  204.80000305    4.90999985    1.85000002
   11.54555607  188.69799805    4.90999985    1.85000002
   11.54861164  198.14900208    4.90999985    1.85000002
   11.54944515  175.55700684    4.90999985    1.85000002
   11.55249977  210.53100586    4.90999985    1.86000001
   11.55583382  193.69400024    4.90999985    1.86000001
   11.55916691  182.89700317    4.90999985    1.86000001
   11.56222248  213.75900269    4.90999985    1.86000001
   11.56555557  197.72500610    4.90999985    1.86000001
   11.56861115  178.15100098    4.90999985    1.88000000
   11.57194424  202.90499878    4.90999985    1.88000000
   11.57527733  189.60600281    4.90999985    1.88000000
   11.57833290  186.98699951    4.90999985    1.88000000
   11.58166695  209.94099426    4.90999985    1.88000000
   11.58222198  189.12899780    4.90999985    1.88000000
   11.58555508  186.42999268    4.90999985    1.88000000
   11.58861065  188.71099854    4.90999985    1.89999998
   11.59194374  182.33700562    4.90999985    1.89999998
   11.59499931  190.20399475    4.90999985    1.89999998
   11.59833336  189.76300049    4.90999985    1.89999998
   11.60166740  186.97900391    4.90999985    1.91999996
   11.60472298  174.33299255    4.90999985    1.91999996
   11.60805607  180.19599915    4.90999985    1.91999996
   11.61138916  191.10600281    4.90999985    1.91999996
   11.61444473  186.35600281    4.90999985    1.91999996
   11.61555576  186.32899475    4.90999985    1.91999996
   11.61833382  181.22999573    4.90999985    1.91999996
   11.62138939  188.77299500    4.90999985    1.91999996
   11.62472248  166.24600220    4.90999985    1.91999996
   11.62777805  178.12899780    4.90999985    1.94000006
   11.63111115  178.61999512    4.90999985    1.94000006
   11.63444424  191.03999329    4.90999985    1.94000006
   11.63749981  178.25000000    4.90999985    1.94000006
   11.64083290  179.44299316    4.90999985    1.96000004
   11.64416695  199.77299500    4.90999985    1.96000004
   11.64722252  179.78999329    4.90999985    1.96000004
   11.64888859  188.91600037    4.90999985    1.96000004
   11.65111065  185.73100281    4.90999985    1.96000004
   11.65416622  180.27299500    4.90999985    1.96000004
   11.65749931  190.37899780    4.90999985    1.96000004
   11.66055489  180.30999756    4.90999985    1.96000004
   11.66388893  193.55499268    4.90999985    1.98000002
   11.66722298  208.19400024    4.90999985    1.98000002
   11.67027855  192.73800659    4.90999985    1.98000002
   11.67361164  177.46600342    4.90999985    1.98000002
   11.67694473  183.85499573    4.90999985    2.00000000
   11.68000031  176.70500183    4.90999985    1.98000002
   11.68222237  179.04800415    4.90999985    2.00000000
   11.68388939  188.47900391    4.90999985    1.98000002
   11.68694496  173.52900696    4.90999985    2.00000000
   11.69027805  170.24600220    4.90999985    2.00000000
   11.69333363  180.85400391    4.90999985    2.00000000
   11.69666672  183.93899536    4.90999985    2.00000000
   11.69999981  182.96499634    4.90999985    2.00000000
   11.70305538  182.66200256    4.90999985    2.00000000
   11.70638847  176.69000244    4.90999985    2.01999998
   11.70972157  185.37199402    4.90999985    2.01999998
   11.71277714  176.54100037    4.90999985    2.01999998
   11.71555519  174.20899963    4.90999985    2.01999998
   11.71666622  185.58099365    4.90999985    2.01999998
   11.71972179  175.59700012    4.90999985    2.01999998
   11.72305489  179.98399353    4.90999985    2.03999996
   11.72638798  176.54299927    4.90999985    2.03999996
   11.72944355  175.09399414    4.90999985    2.03999996
   11.73277760  181.69900513    4.90999985    2.03999996
   11.73583317  174.84100342    4.90999985    2.03999996
   11.73916721  186.62100220    4.90999985    2.03999996
   11.74250031  175.84399414    4.90999985    2.05999994
   11.74555588  191.48399353    4.90999985    2.03999996
   11.74888897  176.68699646    4.90999985    2.05999994
   11.74944496  170.61300659    4.90999985    2.05999994
   11.75249958  172.70599365    4.90999985    2.05999994
   11.75583363  177.74899292    4.90999985    2.05999994
   11.75916672  167.78900146    4.90999985    2.05999994
   11.76222229  167.58299255    4.90999985    2.07999992
   11.76555538  192.85200500    4.90999985    2.05999994
   11.76888847  177.83500671    4.90999985    2.05999994
   11.77194405  169.58900452    4.90999985    2.07999992
   11.77527714  165.13800049    4.90999985    2.07999992
   11.77833271  174.43699646    4.90999985    2.07999992
   11.78166676  176.77099609    4.90999985    2.07999992
   11.78222179  176.13699341    4.90999985    2.07999992
   11.78527832  173.23399353    4.90999985    2.07999992
   11.78861141  171.20500183    4.90999985    2.09999990
   11.79166698  173.90499878    4.90999985    2.07999992
   11.79500008  168.90499878    4.90999985    2.07999992
   11.79805565  162.95100403    4.90999985    2.09999990
   11.80138874  163.56399536    4.90999985    2.07999992
   11.80472279  185.57499695    4.90999985    2.09999990
   11.80777836  172.96899414    4.90999985    2.09999990
   11.81111145  170.20899963    4.90999985    2.09999990
   11.81444454  183.56199646    4.90999985    2.09999990
   11.81555557  170.75999451    4.90999985    2.09999990
   11.81805515  172.10299683    4.90999985    2.09999990
   11.82138920  168.45799255    4.90999985    2.09999990
   11.82444477  170.99600220    4.90999985    2.11999989
   11.82777786  229.35899353    4.90999985    2.11999989
   11.83083344  294.88400269    4.90999985    2.11999989
   11.83416653  350.29400635    4.90999985    2.11999989
   11.83749962  293.59399414    4.90999985    2.11999989
   11.84055519  297.67098999    4.90999985    2.11999989
   11.84388828  195.08099365    4.90999985    2.11999989
   11.84722233  330.72900391    4.90999985    2.11999989
   11.84888840  262.60400391    4.90999985    2.11999989
   11.85083389  322.10998535    4.90999985    2.13000011
   11.85416698  270.66598511    4.90999985    2.13000011
   11.85722256  366.00100708    4.90999985    2.13000011
   11.86055565  278.42800903    4.90999985    2.13000011
   11.86361122  313.95498657    4.90999985    2.13000011
   11.86694431  213.66499329    4.90999985    2.13000011
   11.87138939  243.87199402    4.90999985    2.13000011
   11.87444496  277.06399536    4.90999985    2.13000011
   11.87777805  288.75799561    4.90999985    2.13000011
   11.88111115  256.54299927    4.90999985    2.13000011
   11.88222218  233.75500488    4.90999985    2.13000011
   11.88472176  242.63900757    4.90999985    2.15000010
   11.88805580  228.97300720    4.90999985    2.15000010
   11.89111137  187.44299316    4.90999985    2.15000010
   11.89444447  193.88499451    4.90999985    2.15000010
   11.89750004  171.82000732    4.90999985    2.15000010
   11.90083313  185.77200317    4.90999985    2.17000008
   11.90416622  171.55000305    4.90999985    2.15000010
   11.90722179  172.67700195    4.90999985    2.17000008
   11.91055489  179.65199280    4.90999985    2.15000010
   11.91388893  176.22999573    4.90999985    2.17000008
   11.91555500  173.06300354    4.90999985    2.17000008
   11.91750050  168.55400085    4.90999985    2.17000008
   11.92083359  165.00700378    4.90999985    2.17000008
   11.92388916  157.60499573    4.90999985    2.17000008
   11.92722225  171.29100037    4.90999985    2.17000008
   11.93027782  171.12199402    4.90999985    2.17000008
   11.93361092  167.71499634    4.90999985    2.17000008
   11.93694496  169.96499634    4.90999985    2.17000008
   11.94000053  174.21600342    4.90999985    2.19000006
   11.94333363  162.75700378    4.90999985    2.19000006
   11.94666672  170.19299316    4.90999985    2.19000006
   11.94888878  164.31700134    4.90999985    2.19000006
   11.95027733  165.75500488    4.90999985    2.19000006
   11.95361137  167.86099243    4.90999985    2.19000006
   11.95666695  166.09800720    4.90999985    2.19000006
   11.96000004  171.47599792    4.90999985    2.19000006
   11.96333313  165.36500549    4.90999985    2.21000004
   11.96638870  169.40600586    4.90999985    2.21000004
   11.96972179  174.28599548    4.90999985    2.21000004
   11.97277737  161.96099854    4.90999985    2.21000004
   11.97611046  166.95599365    4.90999985    2.21000004
   11.97944355  170.04299927    4.90999985    2.23000002
   11.98222160  170.68800354    4.90999985    2.21000004
   11.98305511  166.63400269    4.90999985    2.21000004
   11.98638916  162.10800171    4.90999985    2.21000004
   11.98944473  170.10000610    4.90999985    2.21000004
   11.99277782  165.74099731    4.90999985    2.23000002
   11.99611092  159.99200439    4.90999985    2.23000002
   11.99916649  166.42199707    4.90999985    2.23000002
   12.00249958  163.23699951    4.90999985    2.23000002
   12.00555515  161.29499817    4.90999985    2.23000002
   12.00888920  170.03900146    4.90999985    2.23000002
   12.01222229  164.20799255    4.90999985    2.23000002
   12.01527786  162.30099487    4.90999985    2.23000002
   12.01583290  162.18499756    4.90999985    2.23000002
   12.01916599  166.88999939    4.90999985    2.23000002
   12.02250004  156.75999451    4.90999985    2.23000002
   12.02555561  169.18800354    4.90999985    2.23000002
   12.02888870  167.18299866    4.90999985    2.25000000
   12.03194427  164.87800598    4.90999985    2.25000000
   12.03527832  160.02499390    4.90999985    2.25000000
   12.03861141  165.07299805    4.90999985    2.25000000
   12.04166698  158.04800415    4.90999985    2.25000000
   12.04500008  172.22900391    4.90999985    2.25000000
   12.04833412  154.46800232    4.90999985    2.25000000
   12.04916668  159.32400513    4.90999985    2.25000000
   12.05194473  164.84399414    4.90999985    2.25000000
   12.05527782  159.88400269    4.90999985    2.25000000
   12.05833340  158.72799683    4.90999985    2.26999998
   12.06166649  156.63600159    4.90999985    2.25000000
   12.06472206  154.77099609    4.90999985    2.26999998
   12.06805515  163.23399353    4.90999985    2.26999998
   12.07138920  163.59300232    4.90999985    2.26999998
   12.07444477  157.45799255    4.90999985    2.26999998
   12.07777786  158.11399841    4.90999985    2.26999998
   12.08111095  158.97099304    4.90999985    2.26999998
   12.08249950  157.70199585    4.90999985    2.26999998
   12.08472157  157.04100037    4.90999985    2.26999998
   12.08805561  164.16799927    4.90999985    2.26999998
   12.09111118  161.48199463    4.90999985    2.26999998
   12.09444427  157.36500549    4.90999985    2.26999998
   12.09749985  158.66900635    4.90999985    2.26999998
   12.10083389  163.05700684    4.90999985    2.28999996
   12.10416698  156.25000000    4.90999985    2.28999996
   12.10722256  156.82600403    4.90999985    2.28999996
   12.11055565  155.88600159    4.90999985    2.28999996
   12.11388969  159.22900391    4.90999985    2.28999996
   12.11583328  156.05799866    4.90999985    2.28999996
   12.11750031  159.22599792    4.90999985    2.28999996
   12.12083340  153.32200623    4.90999985    2.28999996
   12.12388897  162.59100342    4.90999985    2.28999996
   12.12722206  154.88999939    4.90999985    2.28999996
   12.13027763  162.00999451    4.90999985    2.28999996
   12.13361073  152.23500061    4.90999985    2.28999996
   12.13694477  165.26699829    4.90999985    2.30999994
   12.14000034  157.41900635    4.90999985    2.30999994
   12.14333344  163.23100281    4.90999985    2.30999994
   12.14666653  160.71299744    4.90999985    2.30999994
   12.14916611  160.98300171    4.90999985    2.30999994
   12.15027714  162.47300720    4.90999985    2.30999994
   12.15361118  155.50199890    4.90999985    2.30999994
   12.15666676  163.77400208    4.90999985    2.30999994
   12.15999985  156.10200500    4.90999985    2.30999994
   12.16333294  163.25999451    4.90999985    2.30999994
   12.16638851  157.81599426    4.90999985    2.30999994
   12.16972256  159.06599426    4.90999985    2.30999994
   12.17277813  167.02900696    4.90999985    2.32999992
   12.17611122  161.19299316    4.90999985    2.32999992
   12.17944431  156.31700134    4.90999985    2.32999992
   12.18249989  163.69599915    4.90999985    2.32999992
   12.18305588  157.55999756    4.90999985    2.30999994
   12.18638897  160.68299866    4.90999985    2.30999994
   12.18944454  157.40299988    4.90999985    2.30999994
   12.19277763  165.69700623    4.90999985    2.32999992
   12.19611073  156.10200500    4.90999985    2.32999992
   12.19916630  157.88200378    4.90999985    2.32999992
   12.20249939  151.55299377    4.90999985    2.32999992
   12.20555496  149.48300171    4.90999985    2.32999992
   12.20888901  159.99499512    4.90999985    2.32999992
   12.21222210  169.53300476    4.90999985    2.32999992
   12.21527767  165.85299683    4.90999985    2.32999992
   12.21583271  145.69200134    4.90999985    2.32999992
   12.21888828  154.66400146    4.90999985    2.34999990
   12.22222137  158.25599670    4.90999985    2.32999992
   12.22527695  151.57400513    4.90999985    2.34999990
   12.22861099  169.74600220    4.90999985    2.34999990
   12.23194408  166.79200745    4.90999985    2.34999990
   12.23500061  174.29800415    4.90999985    2.34999990
   12.23833370  155.58799744    4.90999985    2.34999990
   12.24166679  160.02600098    4.90999985    2.34999990
   12.24472237  160.72700500    4.90999985    2.34999990
   12.24805546  160.14999390    4.90999985    2.36999989
   12.24916649  165.22399902    4.90999985    2.36999989
   12.25166702  161.22599792    4.90999985    2.36999989
   12.25500011  170.85099792    4.90999985    2.34999990
   12.25805569  159.33999634    4.90999985    2.34999990
   12.26138878  161.56799316    4.90999985    2.34999990
   12.26472187  177.76800537    4.90999985    2.34999990
   12.26777744  166.69900513    4.90999985    2.36999989
   12.27111053  172.17599487    4.90999985    2.36999989
   12.27444458  155.65600586    4.90999985    2.36999989
   12.27750015  162.47200012    4.90999985    2.36999989
   12.28083324  158.15800476    4.90999985    2.36999989
   12.29861164  217.33299255    4.90999985    2.36999989
   12.30083370  212.71800232    4.90999985    2.36999989
   12.30416679  211.43299866    4.90999985    2.36999989
   12.30722237  234.24400330    4.90999985    2.39000010
   12.31055546  239.50799561    4.90999985    2.39000010
   12.31361103  244.61900330    4.90999985    2.39000010
   12.31694412  229.02400208    4.90999985    2.39000010
   12.32027817  230.05499268    4.90999985    2.39000010
   12.32333374  228.91999817    4.90999985    2.39000010
   12.32666683  261.24700928    4.90999985    2.39000010
   12.32999992  257.75000000    4.90999985    2.39000010
   12.33194447  229.20500183    4.90999985    2.39000010
   12.33361053  231.46600342    4.90999985    2.39000010
   12.33666611  247.86000061    4.90999985    2.39000010
   12.34000015  234.03599548    4.90999985    2.39000010
   12.34305477  224.49800110    4.90999985    2.40000010
   12.34638882  221.36700439    4.90999985    2.39000010
   12.34972191  185.23599243    4.90999985    2.40000010
   12.35277843  200.11199951    4.90999985    2.40000010
   12.35611153  178.21899414    4.90999985    2.40000010
   12.35944462  188.24200439    4.90999985    2.40000010
   12.36250019  177.97200012    4.90999985    2.40000010
   12.36527824  177.27200317    4.90999985    2.40000010
   12.36638927  165.31700134    4.90999985    2.40000010
   12.36944485  155.95199585    4.90999985    2.40000010
   12.37277794  156.86999512    4.90999985    2.40000010
   12.37583351  151.10899353    4.90999985    2.40000010
   12.37916660  153.97000122    4.90999985    2.40000010
   12.38249969  158.22599792    4.90999985    2.40000010
   12.38555527  153.77799988    4.90999985    2.40000010
   12.38888836  155.61999512    4.90999985    2.40000010
   12.39222240  151.01300049    4.90999985    2.42000008
   12.39527798  145.62100220    4.90999985    2.40000010
   12.39861107  146.73800659    4.90999985    2.42000008
   12.39916611  153.53300476    4.90999985    2.42000008
   12.40222168  147.62300110    4.90999985    2.40000010
   12.40555477  152.61500549    4.90999985    2.42000008
   12.40861034  154.66499329    4.90999985    2.42000008
   12.41194439  163.95399475    4.90999985    2.42000008
   12.41527748  160.56799316    4.90999985    2.42000008
   12.41833401  156.57800293    4.90999985    2.42000008
   12.42166710  150.23399353    4.90999985    2.42000008
   12.42500019  159.55799866    4.90999985    2.44000006
   12.42805576  168.27999878    4.90999985    2.42000008
   12.43138885  156.71299744    4.90999985    2.44000006
   12.43194485  165.09399414    4.90999985    2.42000008
   12.43500042  158.58999634    4.90999985    2.42000008
   12.43805599  158.47900391    4.90999985    2.42000008
   12.44138908  159.92999268    4.90999985    2.42000008
   12.44444466  156.33200073    4.90999985    2.42000008
   12.44777775  157.89300537    4.90999985    2.42000008
   12.45111084  171.34700012    4.90999985    2.42000008
   12.45416641  155.50000000    4.90999985    2.42000008
   12.45749950  149.13999939    4.90999985    2.44000006
   12.46083355  153.10099792    4.90999985    2.42000008
   12.46388912  179.44999695    4.90999985    2.44000006
   12.46527767  157.26300049    4.90999985    2.44000006
   12.46777725  172.63200378    4.90999985    2.44000006
   12.47083282  164.33299255    4.90999985    2.44000006
   12.47416592  176.11199951    4.90999985    2.44000006
   12.47722149  151.61900330    4.90999985    2.44000006
   12.48055553  160.73199463    4.90999985    2.44000006
   12.48388958  168.40699768    4.90999985    2.46000004
   12.48694515  170.40600586    4.90999985    2.46000004
   12.49027824  176.37600708    4.90999985    2.46000004
   12.49361134  169.76199341    4.90999985    2.44000006
   12.49666691  166.68400574    4.90999985    2.46000004
   12.49861145  160.51800537    4.90999985    2.44000006
   12.50055599  149.89700317    4.90999985    2.46000004
   12.50361156  163.60000610    4.90999985    2.46000004
   12.50694466  176.42500305    4.90999985    2.46000004
   12.51027775  186.98300171    4.90999985    2.46000004
   12.51333332  164.73100281    4.90999985    2.46000004
   12.51666641  153.22999573    4.90999985    2.46000004
   12.51972198  157.04699707    4.90999985    2.46000004
   12.52305508  173.91600037    4.90999985    2.46000004
   12.52638817  142.63800049    4.90999985    2.46000004
   12.52944374  151.86300659    4.90999985    2.46000004
   12.53194427  164.03300476    4.90999985    2.46000004
   12.53333378  156.42300415    4.90999985    2.46000004
   12.53638935  165.84100342    4.90999985    2.46000004
   12.53972244  157.95700073    4.90999985    2.46000004
   12.54305553  158.39900208    4.90999985    2.46000004
   12.54611111  178.03100586    4.90999985    2.46000004
   12.54944515  162.05999756    4.90999985    2.46000004
   12.55277824  155.66400146    4.90999985    2.46000004
   12.55583382  166.57499695    4.90999985    2.48000002
   12.55916691  158.77900696    4.90999985    2.46000004
   12.56222248  159.80599976    4.90999985    2.46000004
   12.56527805  148.28399658    4.90999985    2.46000004
   12.56611156  153.75700378    4.90999985    2.46000004
   12.56916618  163.43699646    4.90999985    2.48000002
   12.57250023  169.33500671    4.90999985    2.48000002
   12.57583332  164.12100220    4.90999985    2.48000002
   12.57888889  151.70700073    4.90999985    2.48000002
   12.58222198  158.64700317    4.90999985    2.48000002
   12.58527756  156.87300110    4.90999985    2.48000002
   12.58861065  161.34500122    4.90999985    2.48000002
   12.59194374  150.64900208    4.90999985    2.48000002
   12.59499931  160.03399658    4.90999985    2.48000002
   12.59833336  158.14500427    4.90999985    2.48000002
   12.59888840  163.77000427    4.90999985    2.48000002
   12.60222244  166.76899719    4.90999985    2.48000002
   12.60527802  164.20500183    4.90999985    2.48000002
   12.60861111  165.72200012    4.90999985    2.48000002
   12.61166668  153.69200134    4.90999985    2.48000002
   12.61500072  164.61300659    4.90999985    2.48000002
   12.61833382  162.35499573    4.90999985    2.48000002
   12.62138939  167.33000183    4.90999985    2.48000002
   12.62472248  170.31599426    4.90999985    2.48000002
   12.62805557  162.03300476    4.90999985    2.48000002
   12.63944435  148.87800598    0.00000000    0.00000000
   12.64000034  152.83299255    4.90999985    2.50000000
   12.64305496  166.95899963    4.90999985    2.50000000
   12.64611053  153.55900574    4.90999985    2.50000000
   12.64944458  166.08500671    4.90999985    2.50000000
   12.65249920  163.35099792    4.90999985    2.50000000
   12.65583324  158.90400696    4.90999985    2.50000000
   12.65916634  153.77400208    4.90999985    2.50000000
   12.66222191  155.37699890    4.90999985    2.50000000
   12.66555500  156.94200134    4.90999985    2.50000000
   12.66888905  164.04800415    4.90999985    2.50000000
   12.67194462  151.61599731    4.90999985    2.50000000
   12.67333412  170.32099915    4.90999985    2.50000000
   12.67583370  158.62600708    4.90999985    2.51999998
   12.67888927  166.03500366    4.90999985    2.51999998
   12.68222237  144.87399292    4.90999985    2.51999998
   12.68527794  164.03199768    4.90999985    2.50000000
   12.68861103  164.65499878    4.90999985    2.50000000
   12.69194412  156.09300232    4.90999985    2.50000000
   12.69499969  147.69999695    4.90999985    2.50000000
   12.69833374  148.54600525    4.90999985    2.51999998
   12.70166683  148.26800537    4.90999985    2.50000000
   12.70472240  142.10800171    4.90999985    2.51999998
   12.70666695  158.90400696    4.90999985    2.51999998
   12.70861053  150.25900269    4.90999985    2.51999998
   12.71166611  147.45500183    4.90999985    2.51999998
   12.71500015  157.36500549    4.90999985    2.51999998
   12.71833324  151.56500244    4.90999985    2.51999998
   12.72138882  147.16700745    4.90999985    2.51999998
   12.72472191  154.50399780    4.90999985    2.51999998
   12.72805500  139.29899597    4.90999985    2.51999998
   12.73111057  151.67799377    4.90999985    2.51999998
   12.73444462  147.38900757    4.90999985    2.51999998
   12.73750019  142.13600159    4.90999985    2.51999998
   12.74000072  144.54200745    4.90999985    2.51999998
   12.74138927  139.71400452    4.90999985    2.51999998
   12.74444485  145.49299622    4.90999985    2.51999998
   12.74777794  140.83399963    4.90999985    2.51999998
   12.75111103  147.45100403    4.90999985    2.53999996
   12.75416660  145.43299866    4.90999985    2.51999998
   12.75749969  147.64599609    4.90999985    2.53999996
   12.76083374  149.44099426    4.90999985    2.53999996
   12.76388931  145.65299988    4.90999985    2.51999998
   12.76722240  157.98100281    4.90999985    2.53999996
   12.77027798  147.21499634    4.90999985    2.53999996
   12.77333355  143.69500732    4.90999985    2.53999996
   12.77416611  162.02499390    4.90999985    2.53999996
   12.77722168  152.26600647    4.90999985    2.53999996
   12.78055573  145.65899658    4.90999985    2.53999996
   12.78388977  145.32000732    4.90999985    2.53999996
   12.78694534  144.98199463    4.90999985    2.53999996
   12.79027843  134.13200378    4.90999985    2.53999996
   12.79361153  149.67100525    4.90999985    2.53999996
   12.79666710  156.35499573    4.90999985    2.53999996
   12.80000019  146.91099548    4.90999985    2.53999996
   12.80333328  149.00500488    4.90999985    2.53999996
   12.80638885  148.99800110    4.90999985    2.53999996
   12.80694485  143.89100647    4.90999985    2.53999996
   12.81027794  143.46200562    4.90999985    2.53999996
   12.81333351  144.14700317    4.90999985    2.53999996
   12.81666660  145.43800354    4.90999985    2.55999994
   12.81999969  140.92300415    4.90999985    2.55999994
   12.82305527  145.00900269    4.90999985    2.53999996
   12.82638836  142.36599731    4.90999985    2.55999994
   12.82972240  140.65499878    4.90999985    2.53999996
   12.83277798  144.93299866    4.90999985    2.53999996
   12.83611107  144.82499695    4.90999985    2.53999996
   12.83916664  164.03700256    4.90999985    2.53999996
   12.84027767  165.12199402    4.90999985    2.53999996
   12.84305477  173.60600281    4.90999985    2.55999994
   12.84611034  184.80200195    4.90999985    2.55999994
   12.84944439  188.38099670    4.90999985    2.53999996
   12.85277843  216.00900269    4.90999985    2.55999994
   12.85583401  224.97099304    4.90999985    2.55999994
   12.85916710  211.27900696    4.90999985    2.55999994
   12.86250019  229.49000549    4.90999985    2.55999994
   12.86555576  246.10899353    4.90999985    2.55999994
   12.86888885  211.09100342    4.90999985    2.55999994
   12.87194443  233.08299255    4.90999985    2.55999994
   12.87361145  207.87800598    4.90999985    2.55999994
   12.87583351  217.86500549    4.90999985    2.55999994
   12.87888908  219.51800537    4.90999985    2.55999994
   12.88222218  225.89500427    4.90999985    2.55999994
   12.88555527  223.29100037    4.90999985    2.55999994
   12.88861084  216.44700623    4.90999985    2.55999994
   12.89194393  183.34300232    4.90999985    2.55999994
   12.89527798  171.43800354    4.90999985    2.55999994
   12.89833355  193.21000671    4.90999985    2.55999994
   12.90166664  179.47000122    4.90999985    2.55999994
   12.90472221  180.95599365    4.90999985    2.55999994
   12.90694427  191.22099304    4.90999985    2.55999994
   12.90861034  181.26800537    4.90999985    2.55999994
   12.91166592  169.45799255    4.90999985    2.57999992
   12.91499996  165.78100586    4.90999985    2.55999994
   12.91833401  178.80000305    4.90999985    2.55999994
   12.92138958  166.73100281    4.90999985    2.57999992
   12.92472267  177.83299255    4.90999985    2.57999992
   12.92805576  173.73300171    4.90999985    2.55999994
   12.93111134  173.95899963    4.90999985    2.57999992
   12.93444443  168.30200195    4.90999985    2.57999992
   12.93750000  170.64999390    4.90999985    2.57999992
   12.94027805  169.74800110    4.90999985    2.57999992
   12.94138908  169.81100464    4.90999985    2.57999992
   12.94472218  165.60000610    4.90999985    2.57999992
   12.94777775  173.39999390    4.90999985    2.57999992
   12.95111084  180.20700073    4.90999985    2.57999992
   12.95416641  173.39999390    4.90999985    2.57999992
   12.95749950  165.37300110    4.90999985    2.57999992
   12.96083355  162.84399414    4.90999985    2.57999992
   12.96416664  159.57400513    4.90999985    2.57999992
   12.96722221  172.33500671    4.90999985    2.57999992
   12.97055531  163.64100647    4.90999985    2.57999992
   12.97361088  154.80000305    4.90999985    2.57999992
   12.97416592  166.78500366    4.90999985    2.57999992
   12.97749996  171.86500549    4.90999985    2.57999992
   12.98055553  158.47000122    4.90999985    2.57999992
   12.98388958  159.30499268    4.90999985    2.57999992
   12.98694515  160.29400635    4.90999985    2.57999992
   12.99027824  160.61399841    4.90999985    2.57999992
   12.99361134  162.30200195    4.90999985    2.59999990
   12.99666691  161.77999878    4.90999985    2.57999992
   13.00000000  150.18499756    4.90999985    2.59999990
   13.00333309  164.12399292    4.90999985    2.57999992
   13.00638866  172.13200378    4.90999985    2.59999990
   13.00694466  151.44900513    4.90999985    2.57999992
   13.01000023  154.97599792    4.90999985    2.59999990
   13.01333332  149.55200195    4.90999985    2.59999990
   13.01638889  160.05599976    4.90999985    2.59999990
   13.01972198  148.28999329    4.90999985    2.57999992
   13.02305508  154.49899292    4.90999985    2.59999990
   13.02611065  159.90499878    4.90999985    2.59999990
   13.02944374  145.82000732    4.90999985    2.59999990
   13.03249931  142.72099304    4.90999985    2.59999990
   13.03583336  135.24800110    4.90999985    2.57999992
   13.03916740  147.91799927    4.90999985    2.59999990
   13.04027843  143.69999695    4.90999985    2.59999990
   13.04277802  149.64999390    4.90999985    2.59999990
   13.04611111  135.17700195    4.90999985    2.59999990
   13.04916668  141.78199768    4.90999985    2.59999990
   13.05249977  144.81500244    4.90999985    2.59999990
   13.05583382  141.77099609    4.90999985    2.59999990
   13.05888939  139.95399475    4.90999985    2.59999990
   13.06222248  132.18299866    4.90999985    2.59999990
   13.06527805  135.83700562    4.90999985    2.59999990
   13.06861115  126.85600281    4.90999985    2.59999990
   13.07194424  139.10200500    4.90999985    2.61999989
   13.07361126  134.63299561    4.90999985    2.59999990
   13.07555580  136.89700317    4.90999985    2.59999990
   13.07888889  136.16000366    4.90999985    2.59999990
   13.08194447  139.61700439    4.90999985    2.61999989
   13.08527756  131.20500183    4.90999985    2.59999990
   13.08861065  130.33099365    4.90999985    2.59999990
   13.09166622  143.03999329    4.90999985    2.59999990
   13.09499931  127.50900269    4.90999985    2.59999990
   13.09805489  139.01300049    4.90999985    2.61999989
   13.10138893  135.77600098    4.90999985    2.59999990
   13.10472298  135.21200562    4.90999985    2.59999990
   13.10694504  129.70100403    4.90999985    2.59999990
   13.10833359  127.84400177    4.90999985    2.61999989
   13.11166668  132.51800537    4.90999985    2.59999990
   13.11472225  137.81599426    4.90999985    2.59999990
   13.11805534  144.48399353    4.90999985    2.59999990
   13.12138939  126.86599731    4.90999985    2.59999990
   13.12444496  143.58900452    4.90999985    2.61999989
   13.12777805  134.02400208    4.90999985    2.61999989
   13.13111115  141.39900208    4.90999985    2.59999990
   13.13416672  134.28500366    4.90999985    2.61999989
   13.13749981  136.67500305    4.90999985    2.61999989
   13.14027786  132.44500732    4.90999985    2.61999989
   13.14111137  125.75800323    4.90999985    2.61999989
   13.14444447  125.12200165    4.90999985    2.61999989
   13.14750004  132.54899597    4.90999985    2.61999989
   13.15083313  128.01499939    4.90999985    2.61999989
   13.15416622  130.37500000    4.90999985    2.61999989
   13.15722179  130.16299438    4.90999985    2.61999989
   13.16055489  125.75800323    4.90999985    2.61999989
   13.16361046  130.40800476    4.90999985    2.59999990
   13.16694450  135.60800171    4.90999985    2.61999989
   13.17027855  128.17700195    4.90999985    2.61999989
   13.17361164  132.60200500    4.90999985    2.61999989
   13.17416668  128.83000183    4.90999985    2.61999989
   13.28472233   -1.00000000   -1.00000000   -1.00000000
   13.42222214   -1.00000000   -1.00000000   -1.00000000
   13.52222157   -1.00000000   -1.00000000   -1.00000000
   13.56305599   85.89659882    4.90999985    2.67000008
   13.56638908  141.25300598    4.90999985    2.67000008
   13.56972218  131.11399841    4.90999985    2.67000008
   13.57277775  135.02400208    4.90999985    2.67000008
   13.57611084  134.48100281    4.90999985    2.66000009
   13.57944393  135.60800171    4.90999985    2.66000009
   19.63000107   -1.00000000   -1.00000000   -1.00000000
   19.63861084   -1.00000000   -1.00000000   -1.00000000
   19.65944481   -1.00000000   -1.00000000   -1.00000000
   19.68833160   -1.00000000   -1.00000000   -1.00000000
