    HOUR (UT)   FLARE FACTOR    SKY TESTER    SUN TESTER
   11.14638901   -1.00000000   -1.00000000   -1.00000000
   11.16722298  120.59100342    4.90999985    2.59999990
   11.17194462  123.29000092    4.90999985    2.59999990
   11.17611122  124.97100067    4.90999985    2.59999990
   11.17944431  134.05200195    4.90999985    2.59999990
   11.18249989  133.59100342    4.90999985    2.59999990
   11.18583298  134.54899597    4.90999985    2.59999990
   11.18916702  132.49299622    4.90999985    2.59999990
   11.19222260  130.11399841    4.90999985    2.59999990
   11.19555569  130.91799927    4.90999985    2.59999990
   11.19888878  128.87600708    4.90999985    2.59999990
   11.20027733  126.57299805    4.90999985    2.59999990
   11.20249939  126.65100098    4.90999985    2.59999990
   11.20583344  130.74099731    4.90999985    2.59999990
   11.20888901  129.53700256    4.90999985    2.59999990
   11.21222210  131.26499939    4.90999985    2.59999990
   11.21555519  135.97000122    4.90999985    2.61999989
   11.21861076  135.41099548    4.90999985    2.59999990
   11.22194386  128.53100586    4.90999985    2.61999989
   11.22527695  130.33299255    4.90999985    2.61999989
   11.22833252  134.00199890    4.90999985    2.61999989
   11.23166656  117.89399719    4.90999985    2.61999989
   11.23361111  131.82299805    4.90999985    2.61999989
   11.23527813  132.68600464    4.90999985    2.61999989
   11.23861122  137.10800171    4.90999985    2.61999989
   11.24166679  127.09400177    4.90999985    2.61999989
   11.24499989  119.21900177    4.90999985    2.61999989
   11.24833393  121.02400208    4.90999985    2.61999989
   11.25138855  135.33099365    4.90999985    2.61999989
   11.25472260  118.19599915    4.90999985    2.61999989
   11.25777817  124.11199951    4.90999985    2.61999989
   11.26111126  133.95599365    4.90999985    2.61999989
   11.26444435  104.79900360    4.90999985    2.61999989
   11.26694393  117.89600372    4.90999985    2.61999989
   11.26805496  122.29199982    4.90999985    2.61999989
   11.27138901  129.78999329    4.90999985    2.61999989
   11.27444458  111.20300293    4.90999985    2.61999989
   11.27777767  122.63899994    4.90999985    2.61999989
   11.28111076  115.65000153    4.90999985    2.64000010
   11.28416729  119.87999725    4.90999985    2.64000010
   11.28750038  116.03199768    4.90999985    2.64000010
   11.29083347  125.87500000    4.90999985    2.61999989
   11.29388905  137.50199890    4.90999985    2.64000010
   11.29722309  127.56099701    4.90999985    2.64000010
   11.30027771  144.23899841    4.90999985    2.64000010
   11.30083370  132.25599670    4.90999985    2.64000010
   11.30416679  135.29100037    4.90999985    2.64000010
   11.30722237  126.17900085    4.90999985    2.64000010
   11.31055546  122.09899902    4.90999985    2.64000010
   11.31388950  122.34400177    4.90999985    2.64000010
   11.31694412  113.94300079    4.90999985    2.64000010
   11.32027817  123.78299713    4.90999985    2.64000010
   11.32333374  128.10200500    4.90999985    2.64000010
   11.32666683  114.95800018    4.90999985    2.64000010
   11.32999992  123.33999634    4.90999985    2.64000010
   11.33333302  122.47100067    4.90999985    2.64000010
   11.33388901  124.84700012    4.90999985    2.64000010
   11.33666611  111.56199646    4.90999985    2.64000010
   11.34000015  118.67500305    4.90999985    2.64000010
   11.34305477  119.34600067    4.90999985    2.64000010
   11.34638882  124.61599731    4.90999985    2.64000010
   11.34972191  114.86100006    4.90999985    2.64000010
   11.35277843  122.88899994    4.90999985    2.66000009
   11.35611153  129.99400330    4.90999985    2.64000010
   11.35944462  134.95199585    4.90999985    2.64000010
   11.36250019  128.18699646    4.90999985    2.66000009
   11.36583328  137.83399963    4.90999985    2.66000009
   11.36722279  129.58000183    4.90999985    2.66000009
   11.36944485  121.25800323    4.90999985    2.66000009
   11.37277794  105.32700348    4.90999985    2.66000009
   11.37583351  112.44599915    4.90999985    2.66000009
   11.37916660  116.38500214    4.90999985    2.66000009
   11.38249969  116.41600037    4.90999985    2.66000009
   11.38555527  126.24500275    4.90999985    2.66000009
   11.38888836  120.90000153    4.90999985    2.67000008
   11.39222240  107.64199829    4.90999985    2.66000009
   11.39527798  120.89199829    4.90999985    2.66000009
   11.39861107  112.82800293    4.90999985    2.66000009
   11.40055561  109.77500153    4.90999985    2.66000009
   11.40222168  124.94300079    4.90999985    2.66000009
   11.40555477  131.20899963    4.90999985    2.66000009
   11.40888882  119.25700378    4.90999985    2.66000009
   11.41194439  120.18399811    4.90999985    2.66000009
   11.41527748  115.97799683    4.90999985    2.66000009
   11.41861153  122.70899963    4.90999985    2.67000008
   11.42166710  127.42600250    4.90999985    2.67000008
   11.42500019  126.50700378    4.90999985    2.67000008
   11.42833328  122.06600189    4.90999985    2.67000008
   11.43138885  115.60900116    4.90999985    2.67000008
   11.43388939  119.87300110    4.90999985    2.67000008
   11.43500042  122.66799927    4.90999985    2.67000008
   11.43833351  116.21299744    4.90999985    2.67000008
   11.44166660  125.13600159    4.90999985    2.67000008
   11.44472218  113.62100220    4.90999985    2.67000008
   11.44805527  124.08100128    4.90999985    2.67000008
   11.45138836   95.72989655    4.90999985    2.67000008
   11.45444393  115.21099854    4.90999985    2.67000008
   11.45777798  126.36499786    4.90999985    2.67000008
   11.46083355  119.60800171    4.90999985    2.67000008
   11.46416664  114.64399719    4.90999985    2.69000006
   11.46722221  148.51499939    4.90999985    2.69000006
   11.46777725  129.68600464    4.90999985    2.69000006
   11.47111034  122.80699921    4.90999985    2.69000006
   11.47444439  109.67800140    4.90999985    2.67000008
   11.47749996  121.02600098    4.90999985    2.67000008
   11.48083305  125.49500275    4.90999985    2.67000008
   11.48388958  118.19400024    4.90999985    2.69000006
   11.48722267  105.59100342    4.90999985    2.67000008
   11.49055576  131.77799988    4.90999985    2.69000006
   11.49361134  135.80700684    4.90999985    2.69000006
   11.49694443  142.90299988    4.90999985    2.69000006
   11.50027752  144.78999329    4.90999985    2.69000006
   11.50083351  132.72700500    4.90999985    2.69000006
   11.50416660  147.73599243    4.90999985    2.69000006
   11.50722218  154.87699890    4.90999985    2.69000006
   11.51055527  150.24299622    4.90999985    2.69000006
   11.51361084  141.26600647    4.90999985    2.69000006
   11.51694393  145.01699829    4.90999985    2.69000006
   11.52027798  144.42500305    4.90999985    2.69000006
   11.52333355  160.07299805    4.90999985    2.71000004
   11.52666664  153.89599609    4.90999985    2.71000004
   11.52999973  143.58900452    4.90999985    2.69000006
   11.53305531  148.20700073    4.90999985    2.69000006
   11.53416729  150.70599365    4.90999985    2.69000006
   11.53694534  154.13299561    4.90999985    2.71000004
   11.54000092  157.16600037    4.90999985    2.69000006
   11.54333401  177.38299561    4.90999985    2.69000006
   11.54638958  162.31799316    4.90999985    2.71000004
   11.54972267  178.64500427    4.90999985    2.71000004
   11.55305576  182.51600647    4.90999985    2.69000006
   11.55611134  153.05599976    4.90999985    2.71000004
   11.55944443  154.56199646    4.90999985    2.71000004
   11.56277752  178.33299255    4.90999985    2.71000004
   11.56583309  167.21600342    4.90999985    2.71000004
   11.56750011  154.58900452    4.90999985    2.71000004
   11.56972218  164.54499817    4.90999985    2.71000004
   11.57277775  158.75900269    4.90999985    2.71000004
   11.57611084  164.94900513    4.90999985    2.71000004
   11.57916641  161.22599792    4.90999985    2.71000004
   11.58249950  166.05599976    4.90999985    2.71000004
   11.58583260  169.86000061    4.90999985    2.71000004
   11.58916664  170.59199524    4.90999985    2.71000004
   11.59222221  179.73399353    4.90999985    2.71000004
   11.59555531  164.86300659    4.90999985    2.71000004
   11.59888840  172.10200500    4.90999985    2.73000002
   11.60083389  166.13800049    4.90999985    2.71000004
   11.60249996  187.67300415    4.90999985    2.71000004
   11.60555553  184.11799622    4.90999985    2.71000004
   11.60888958  189.16000366    4.90999985    2.71000004
   11.61194515  186.90299988    4.90999985    2.71000004
   11.61527824  184.77200317    4.90999985    2.73000002
   11.61861134  186.97300720    4.90999985    2.71000004
   11.62166691  171.77000427    4.90999985    2.73000002
   11.62500000  170.06799316    4.90999985    2.73000002
   11.62833309  168.36099243    4.90999985    2.73000002
   11.63138866  178.36300659    4.90999985    2.73000002
   11.63416672  169.73199463    4.90999985    2.73000002
   11.63527775  160.24499512    4.90999985    2.73000002
   11.63833332  160.47799683    4.90999985    2.73000002
   11.64166641  159.98399353    4.90999985    2.73000002
   11.64472198  159.26600647    4.90999985    2.73000002
   11.64805508  181.51699829    4.90999985    2.73000002
   11.65138817  171.97099304    4.90999985    2.73000002
   11.65444374  170.16000366    4.90999985    2.73000002
   11.65777779  159.44799805    4.90999985    2.73000002
   11.66111088  153.02600098    4.90999985    2.73000002
   11.66416645  153.60400391    4.90999985    2.73000002
   11.66750050  159.48599243    4.90999985    2.73000002
   11.66805553  155.17300415    4.90999985    2.73000002
   11.67111111  154.30499268    4.90999985    2.73000002
   11.67444515  176.08500671    4.90999985    2.73000002
   11.67750072  158.10299683    4.90999985    2.73000002
   11.68083382  156.66200256    4.90999985    2.75000000
   11.68416691  159.47000122    4.90999985    2.73000002
   11.68722248  165.23399353    4.90999985    2.73000002
   11.69055557  160.51600647    4.90999985    2.73000002
   11.69388866  161.67399597    4.90999985    2.75000000
   11.69694424  164.51199341    4.90999985    2.73000002
   11.70027733  149.68899536    4.90999985    2.73000002
   11.70083332  152.05000305    4.90999985    2.75000000
   11.70388889  149.45100403    4.90999985    2.75000000
   11.70694447  169.63800049    4.90999985    2.75000000
   11.71027756  150.12199402    4.90999985    2.75000000
   11.71361065  163.44299316    4.90999985    2.75000000
   11.71666622  158.67199707    4.90999985    2.75000000
   11.71999931  152.59300232    4.90999985    2.75000000
   11.72333336  162.03100586    4.90999985    2.75000000
   11.72638798  164.91999817    4.90999985    2.73000002
   11.72972202  159.24499512    4.90999985    2.75000000
   11.73277760  152.22700500    4.90999985    2.75000000
   11.73416710  145.03999329    4.90999985    2.75000000
   11.73666668  155.04299927    4.90999985    2.73000002
   11.73972225  136.69099426    4.90999985    2.75000000
   11.74305534  146.45700073    4.90999985    2.75000000
   11.74638939  148.63400269    4.90999985    2.75000000
   11.74944496  153.63099670    4.90999985    2.75000000
   11.75277805  172.31300354    4.90999985    2.75000000
   11.75611115  154.92100525    4.90999985    2.75000000
   11.75916672  158.73899841    4.90999985    2.75000000
   11.76249981  167.87600708    4.90999985    2.76999998
   11.76583290  163.15400696    4.90999985    2.75000000
   11.76749992  150.25100708    4.90999985    2.75000000
   11.76944447  161.44799805    4.90999985    2.75000000
   11.77250004  154.73899841    4.90999985    2.75000000
   11.77583313  156.26699829    4.90999985    2.75000000
   11.77916622  168.86000061    4.90999985    2.75000000
   11.78222179  147.93400574    4.90999985    2.75000000
   11.78555584  158.29899597    4.90999985    2.75000000
   11.78861141  155.35099792    4.90999985    2.76999998
   11.79194450  157.99000549    4.90999985    2.75000000
   11.79527855  162.78399658    4.90999985    2.75000000
   11.79833412  153.36000061    4.90999985    2.76999998
   11.80083370  158.07000732    4.90999985    2.75000000
   11.80222225  154.71200562    4.90999985    2.76999998
   11.80527782  161.26899719    4.90999985    2.75000000
   11.80861092  154.28599548    4.90999985    2.75000000
   11.81194496  160.75700378    4.90999985    2.76999998
   11.81500053  154.68299866    4.90999985    2.76999998
   11.81833363  163.46400452    4.90999985    2.76999998
   11.82138920  159.08999634    4.90999985    2.76999998
   11.82472229  147.18699646    4.90999985    2.76999998
   11.82805538  139.58299255    4.90999985    2.76999998
   11.83111095  140.09599304    4.90999985    2.76999998
   11.83416653  149.54100037    4.90999985    2.76999998
   11.83500004  155.05299377    4.90999985    2.76999998
   11.83805561  157.50399780    4.90999985    2.76999998
   11.84138870  151.93499756    4.90999985    2.76999998
   11.84472179  156.76699829    4.90999985    2.76999998
   11.84777737  147.49499512    4.90999985    2.76999998
   11.85111141  155.38200378    4.90999985    2.76999998
   11.85416698  149.88900757    4.90999985    2.76999998
   11.85750008  145.93899536    4.90999985    2.76999998
   11.86083412  151.66099548    4.90999985    2.78999996
   11.86388969  159.79600525    4.90999985    2.76999998
   11.86722279  145.31700134    4.90999985    2.76999998
   11.86777782  141.79699707    4.90999985    2.76999998
   11.87111092  150.42399597    4.90999985    2.76999998
   11.87416649  160.95899963    4.90999985    2.78999996
   11.87750053  151.77699280    4.90999985    2.78999996
   11.88055611  153.86900330    4.90999985    2.78999996
   11.88388920  152.55599976    4.90999985    2.76999998
   11.88722229  153.58500671    4.90999985    2.76999998
   11.89027786  147.55999756    4.90999985    2.76999998
   11.89361095  143.32400513    4.90999985    2.78999996
   11.89666653  162.67199707    4.90999985    2.78999996
   11.89999962  153.71099854    4.90999985    2.76999998
   11.90111065  147.27400208    4.90999985    2.78999996
   11.90388870  151.55700684    4.90999985    2.76999998
   11.90694427  153.43299866    4.90999985    2.78999996
   11.91027737  151.41900635    4.90999985    2.76999998
   11.91333294  154.48800659    4.90999985    2.78999996
   11.91666698  147.78599548    4.90999985    2.78999996
   11.92000008  152.56900024    4.90999985    2.78999996
   11.92305565  161.73500061    4.90999985    2.78999996
   11.92638874  142.19700623    4.90999985    2.78999996
   11.92972279  145.83500671    4.90999985    2.78999996
   11.93277836  139.55999756    4.90999985    2.78999996
   11.93444443  136.21699524    4.90999985    2.78999996
   11.93638897  147.53199768    4.90999985    2.78999996
   11.93972206  141.84700012    4.90999985    2.78999996
   11.94305515  145.04100037    4.90999985    2.78999996
   11.94611073  142.86199951    4.90999985    2.78999996
   11.94944477  148.06500244    4.90999985    2.78999996
   11.95277786  150.52299500    4.90999985    2.78999996
   11.95583344  146.16499329    4.90999985    2.78999996
   11.95916653  149.62100220    4.90999985    2.78999996
   11.96222210  153.35200500    4.90999985    2.78999996
   11.96555519  156.51499939    4.90999985    2.78999996
   11.96777725  147.41000366    4.90999985    2.78999996
   11.96944427  144.91700745    4.90999985    2.78999996
   11.97249985  136.98300171    4.90999985    2.78999996
   11.97583294  145.15699768    4.90999985    2.78999996
   11.97888851  140.25300598    4.90999985    2.78999996
   11.98222160  140.04699707    4.90999985    2.80999994
   11.98555565  136.86700439    4.90999985    2.78999996
   11.98861122  147.01800537    4.90999985    2.78999996
   11.99194431  147.14500427    4.90999985    2.78999996
   11.99527836  140.27799988    4.90999985    2.78999996
   11.99833393  143.61000061    4.90999985    2.78999996
   12.00111103  150.64799500    4.90999985    2.78999996
   12.00222206  146.84899902    4.90999985    2.80999994
   12.00527763  145.18800354    4.90999985    2.78999996
   12.00861073  139.00199890    4.90999985    2.78999996
   12.01194477  133.14700317    4.90999985    2.80999994
   12.01500034  136.52400208    4.90999985    2.78999996
   12.01833344  143.06700134    4.90999985    2.78999996
   12.02138901  142.50500488    4.90999985    2.80999994
   12.02472210  141.58599854    4.90999985    2.78999996
   12.02805519  143.34199524    4.90999985    2.78999996
   12.03111076  146.71299744    4.90999985    2.78999996
   12.03444481  130.72599792    4.90999985    2.80999994
   12.03500080  140.80999756    4.90999985    2.80999994
   12.03805637  143.99299622    4.90999985    2.80999994
   12.04138947  142.93200684    4.90999985    2.80999994
   12.04472256  142.76199341    4.90999985    2.78999996
   12.04777813  140.43200684    4.90999985    2.80999994
   12.05111122  131.42999268    4.90999985    2.78999996
   12.05416679  138.36099243    4.90999985    2.80999994
   12.05749989  129.33999634    4.90999985    2.80999994
   12.06083393  144.13499451    4.90999985    2.80999994
   12.06388950  137.71299744    4.90999985    2.80999994
   12.06722260  131.52699280    4.90999985    2.80999994
   12.06777763  121.22399902    4.90999985    2.80999994
   12.07083321  122.98799896    4.90999985    2.78999996
   12.07388878  132.52799988    4.90999985    2.80999994
   12.07722187  133.70199585    4.90999985    2.80999994
   12.08055592  153.54100037    4.90999985    2.80999994
   12.08361053  128.71899414    4.90999985    2.80999994
   12.08694458  136.72000122    4.90999985    2.80999994
   12.09027767  143.95199585    4.90999985    2.80999994
   12.09333324  139.29800415    4.90999985    2.80999994
   12.09666634  146.05799866    4.90999985    2.82999992
   12.10000038  135.93400574    4.90999985    2.80999994
   12.10111141  134.60899353    4.90999985    2.80999994
   12.10361195  132.25900269    4.90999985    2.80999994
   12.10666752  144.21699524    4.90999985    2.80999994
   12.11000061  127.20400238    4.90999985    2.80999994
   12.11333370  134.95199585    4.90999985    2.80999994
   12.11638927  137.11300659    4.90999985    2.80999994
   12.11972237  136.34700012    4.90999985    2.80999994
   12.12277794  135.51800537    4.90999985    2.80999994
   12.12611103  132.67599487    4.90999985    2.80999994
   12.12944412  131.10299683    4.90999985    2.82999992
   12.13249969  129.25300598    4.90999985    2.80999994
   12.13444424  130.54200745    4.90999985    2.80999994
   12.13638878  125.36599731    4.90999985    2.80999994
   12.13944435  134.94099426    4.90999985    2.80999994
   12.14277744  133.35299683    4.90999985    2.80999994
   12.14611053  133.20399475    4.90999985    2.80999994
   12.14916611  136.82200623    4.90999985    2.80999994
   12.15249920  127.04399872    4.90999985    2.82999992
   12.15555477  138.99499512    4.90999985    2.80999994
   12.15888882  134.16099548    4.90999985    2.82999992
   12.16222191  143.22300720    4.90999985    2.82999992
   12.16527748  137.09700012    4.90999985    2.82999992
   12.18361092  124.07299805    4.90999985    2.82999992
   12.18527794  130.33299255    4.90999985    2.82999992
   12.18861103  119.34899902    4.90999985    2.82999992
   12.19166660  128.63900757    4.90999985    2.80999994
   12.19499969  133.32499695    4.90999985    2.82999992
   12.19833374  131.67999268    4.90999985    2.82999992
   12.20138836  127.53600311    4.90999985    2.82999992
   12.20472240  124.05599976    4.90999985    2.80999994
   12.20777798  132.10499573    4.90999985    2.82999992
   12.21111107  131.60200500    4.90999985    2.82999992
   12.21444416  131.27099609    4.90999985    2.82999992
   12.21694374  129.70899963    4.90999985    2.82999992
   12.21805477  128.13600159    4.90999985    2.82999992
   12.22111034  123.15899658    4.90999985    2.82999992
   12.22444439  123.81400299    4.90999985    2.82999992
   12.22777748  130.28700256    4.90999985    2.82999992
   12.23083305  132.87899780    4.90999985    2.82999992
   12.23416710  121.49800110    4.90999985    2.82999992
   12.23722267  124.58399963    4.90999985    2.82999992
   12.24055576  123.00599670    4.90999985    2.84999990
   12.24388885  124.13099670    4.90999985    2.82999992
   12.24694443  116.28399658    4.90999985    2.82999992
   12.25027752  125.94899750    4.90999985    2.82999992
   12.25083351  117.11399841    4.90999985    2.82999992
   12.25416660  121.69100189    4.90999985    2.82999992
   12.25722218  128.30400085    4.90999985    2.82999992
   12.26055527  125.98300171    4.90999985    2.82999992
   12.26361084  122.68599701    4.90999985    2.82999992
   12.26694393  125.37500000    4.90999985    2.82999992
   12.27027798  132.80000305    4.90999985    2.82999992
   12.27333355  129.40600586    4.90999985    2.82999992
   12.27666664  124.99700165    4.90999985    2.82999992
   12.27999973  121.33599854    4.90999985    2.82999992
   12.28305531  126.88400269    4.90999985    2.82999992
   12.28361130  131.01300049    4.90999985    2.82999992
   12.28666687  130.20700073    4.90999985    2.82999992
   12.29000092  125.61299896    4.90999985    2.82999992
   12.29305553  122.03299713    4.90999985    2.82999992
   12.29638958  119.45300293    4.90999985    2.84999990
   12.29944515  124.50099945    4.90999985    2.82999992
   12.30277824  121.23400116    4.90999985    2.82999992
   12.30611134  114.63800049    4.90999985    2.84999990
   12.30916691  118.42800140    4.90999985    2.84999990
   12.31250000  123.59600067    4.90999985    2.84999990
   12.31555557  127.09200287    4.90999985    2.84999990
   12.31694412  125.63999939    4.90999985    2.82999992
   12.31944466  119.80200195    4.90999985    2.86999989
   12.32250023  126.52600098    4.90999985    2.84999990
   12.32583332  120.98300171    4.90999985    2.84999990
   12.32916641  124.04499817    4.90999985    2.84999990
   12.33222198  118.23200226    4.90999985    2.84999990
   12.33555508  126.11199951    4.90999985    2.84999990
   12.33888817  117.80400085    4.90999985    2.84999990
   12.34222221  115.03099823    4.90999985    2.84999990
   12.34527779  115.08300018    4.90999985    2.84999990
   12.34861088  111.50499725    4.90999985    2.82999992
   12.35027790  109.46600342    4.90999985    2.84999990
   12.35222244  102.20500183    4.90999985    2.84999990
   12.35555553  114.67700195    4.90999985    2.86999989
   12.35861111  115.19300079    4.90999985    2.84999990
   12.36194515  117.43800354    4.90999985    2.84999990
   12.36527824  114.96499634    4.90999985    2.84999990
   12.36833382  127.55000305    4.90999985    2.84999990
   12.37166691  119.71299744    4.90999985    2.84999990
   12.37472248  110.06300354    4.90999985    2.86999989
   12.37805557  108.30999756    4.90999985    2.84999990
   12.38138866  116.76899719    4.90999985    2.84999990
   12.38361073  124.10600281    4.90999985    2.84999990
   12.38500023   95.72550201    4.90999985    2.84999990
   12.38833332  117.84300232    4.90999985    2.84999990
   12.39138889  114.47299957    4.90999985    2.84999990
   12.39472198  115.43599701    4.90999985    2.84999990
   12.39805508  110.64700317    4.90999985    2.84999990
   12.40111065  117.39099884    4.90999985    2.84999990
   12.40444374  120.12200165    4.90999985    2.84999990
   12.40749931  108.31500244    4.90999985    2.84999990
   12.41083336  108.98400116    4.90999985    2.86999989
   12.41416645  112.90799713    4.90999985    2.86999989
   12.41694450  111.52999878    4.90999985    2.84999990
   12.41777802  118.81600189    4.90999985    2.84999990
   12.42111111  114.98000336    4.90999985    2.84999990
   12.42416668  110.65899658    4.90999985    2.84999990
   12.42750072  106.55400085    4.90999985    2.86999989
   12.43083382  110.23400116    4.90999985    2.84999990
   12.43388939  110.64700317    4.90999985    2.84999990
   12.43722248  105.26100159    4.90999985    2.84999990
   12.44027805  109.13300323    4.90999985    2.84999990
   12.44361115  103.39499664    4.90999985    2.84999990
   12.44694424  113.63800049    4.90999985    2.86999989
   12.44999981  107.98600006    4.90999985    2.86999989
   12.45055580  105.11199951    4.90999985    2.86999989
   12.45388889  102.08699799    4.90999985    2.84999990
   12.45694447  101.86499786    4.90999985    2.84999990
   12.46027756   97.54989624    4.90999985    2.86999989
   12.46361065  105.68499756    4.90999985    2.86999989
   12.46666622  110.19499969    4.90999985    2.84999990
   12.46999931  109.65799713    4.90999985    2.86999989
   12.47333336  105.90499878    4.90999985    2.86999989
   12.47638798  110.70099640    4.90999985    2.86999989
   12.47972202  108.57499695    4.90999985    2.86999989
   12.48277760  108.58399963    4.90999985    2.84999990
   12.48388958  104.34700012    4.90999985    2.86999989
   12.48666668  113.45200348    4.90999985    2.84999990
   12.48972225  104.49400330    4.90999985    2.86999989
   12.49305534  106.41600037    4.90999985    2.86999989
   12.49638939  111.67500305    4.90999985    2.86999989
   12.49944496  109.15299988    4.90999985    2.84999990
   12.50277805  110.18000031    4.90999985    2.86999989
   12.50611115   94.23220062    4.90999985    2.86999989
   12.50916672  103.07199860    4.90999985    2.86999989
   12.51249981  106.28399658    4.90999985    2.86999989
   12.51583290  102.48300171    4.90999985    2.86999989
   12.51722240   95.16149902    4.90999985    2.86999989
   12.51944447  107.22000122    4.90999985    2.86999989
   12.52277756   94.95230103    4.90999985    2.86999989
   12.52583313   94.88990021    4.90999985    2.84999990
   12.52916622  100.42800140    4.90999985    2.86999989
   12.53222179  100.48600006    4.90999985    2.86999989
   12.53555584   93.83489990    4.90999985    2.84999990
   12.53888893  100.99800110    4.90999985    2.86999989
   12.54194450   98.77300262    4.90999985    2.86999989
   12.54527855  106.85500336    4.90999985    2.86999989
   12.54861164   97.40360260    4.90999985    2.86999989
   12.55055618  104.04100037    4.90999985    2.86999989
   12.55222225   96.44969940    4.90999985    2.86999989
   12.55555534  104.90899658    4.90999985    2.86999989
   12.55861092   94.67240143    4.90999985    2.86999989
   12.56194496   91.63259888    4.90999985    2.86999989
   12.56500053  104.07399750    4.90999985    2.86999989
   12.56833363   96.10449982    4.90999985    2.86999989
   12.57166672  106.40399933    4.90999985    2.86999989
   12.57472229   99.60890198    4.90999985    2.86999989
   12.57805538  101.51200104    4.90999985    2.86999989
   12.58138847   98.83740234    4.90999985    2.86999989
   12.58388901  101.23600006    4.90999985    2.89000010
   12.58500004  103.44300079    4.90999985    2.89000010
   12.58833313  101.41999817    4.90999985    2.86999989
   12.59138870   98.62930298    4.90999985    2.86999989
   12.59472179  102.37599945    4.90999985    2.86999989
   12.59805489  101.25800323    4.90999985    2.86999989
   12.60111141  104.64099884    4.90999985    2.86999989
   12.60444450  102.74199677    4.90999985    2.86999989
   12.60750008  102.90599823    4.90999985    2.86999989
   12.61083412  108.46700287    4.90999985    2.86999989
   12.61416721  108.77799988    4.90999985    2.86999989
   12.61722279   91.28530121    4.90999985    2.86999989
   12.61777782  100.14900208    4.90999985    2.86999989
   12.62111092   98.57450104    4.90999985    2.89000010
   12.62416649   91.40450287    4.90999985    2.86999989
   12.62750053   91.85849762    4.90999985    2.86999989
   12.63055611   92.43720245    4.90999985    2.86999989
   12.63388920   94.87960052    4.90999985    2.89000010
   12.63722229  101.83699799    4.90999985    2.89000010
   12.64027786  100.34799957    4.90999985    2.86999989
   12.64361095   99.44609833    4.90999985    2.89000010
   12.64666653  101.05599976    4.90999985    2.89000010
   12.64999962  104.01699829    4.90999985    2.86999989
   12.65055561   99.03340149    4.90999985    2.89000010
   12.65361118   91.16369629    4.90999985    2.86999989
   12.65666676   98.94470215    4.90999985    2.86999989
   12.65999985   96.09249878    4.90999985    2.89000010
   12.66333294   95.65840149    4.90999985    2.86999989
   12.66638851   99.29160309    4.90999985    2.86999989
   12.66972256  100.27300262    4.90999985    2.89000010
   12.67305565  104.82299805    4.90999985    2.89000010
   12.67611122  103.82099915    4.90999985    2.89000010
   12.67944431  101.47100067    4.90999985    2.89000010
   12.68277836  103.11900330    4.90999985    2.89000010
   12.68388939  100.67199707    4.90999985    2.89000010
   12.68638897   96.57430267    4.90999985    2.89000010
   12.68972206   99.37719727    4.90999985    2.91000009
   12.69277763   97.69470215    4.90999985    2.89000010
   12.69611073  100.84600067    4.90999985    2.91000009
   12.69944477  100.60600281    4.90999985    2.89000010
   12.70249939  100.48999786    4.90999985    2.89000010
   12.70583344  100.93000031    4.90999985    2.89000010
   12.70888901  101.40000153    4.90999985    2.89000010
   12.71222210  101.01599884    4.90999985    2.89000010
   12.71555519   97.79660034    4.90999985    2.89000010
   12.71722221   99.61049652    4.90999985    2.89000010
   12.71916580   92.78679657    4.90999985    2.89000010
   12.72249985   98.54609680    4.90999985    2.89000010
   12.72555542   97.13330078    4.90999985    2.91000009
   12.72888851  104.05300140    4.90999985    2.89000010
   12.73194408  107.78399658    4.90999985    2.89000010
   12.73527813   98.48370361    4.90999985    2.89000010
   12.73861122  105.05899811    4.90999985    2.89000010
   12.74166679   96.65309906    4.90999985    2.89000010
   12.74499989   95.59809875    4.90999985    2.89000010
   12.74833393  100.90699768    4.90999985    2.89000010
   12.75055599   96.11959839    4.90999985    2.89000010
   12.75194454   97.70469666    4.90999985    2.89000010
   12.75527763   97.35870361    4.90999985    2.89000010
   12.75833321   96.02420044    4.90999985    2.89000010
   12.76166630  102.00000000    4.90999985    2.89000010
   12.76472187  103.00099945    4.90999985    2.89000010
   12.76805496  103.07499695    4.90999985    2.89000010
   12.77138901   99.74720001    4.90999985    2.89000010
   12.77444458  111.13099670    4.90999985    2.89000010
   12.77777767  104.74900055    4.90999985    2.89000010
   12.78111076  101.24900055    4.90999985    2.89000010
   12.78388977  115.40499878    4.90999985    2.89000010
   12.78472233  122.47100067    4.90999985    2.91000009
   12.78805637   98.41329956    4.90999985    2.89000010
   12.79111195  106.43399811    4.90999985    2.89000010
   12.79444504  102.69499969    4.90999985    2.91000009
   12.79750061  107.73100281    4.90999985    2.91000009
   12.80083370  100.00599670    4.90999985    2.89000010
   12.80416679  107.20400238    4.90999985    2.89000010
   12.80722237  107.81500244    4.90999985    2.89000010
   12.81055546  106.20500183    4.90999985    2.89000010
   12.81388950   99.82790375    4.90999985    2.89000010
   12.81694412   99.57730103    4.90999985    2.89000010
   12.81750011  102.35800171    4.90999985    2.89000010
   12.82083321  100.79499817    4.90999985    2.91000009
   12.82388878  107.65000153    4.90999985    2.91000009
   12.82722187  103.86100006    4.90999985    2.89000010
   12.83055592  112.89499664    4.90999985    2.91000009
   12.83361053  100.21199799    4.90999985    2.89000010
   12.83694458   96.96759796    4.90999985    2.91000009
   12.84027767  101.16300201    4.90999985    2.91000009
   12.94861126   -1.00000000   -1.00000000   -1.00000000
   13.04722309   -1.00000000   -1.00000000   -1.00000000
   13.14805508   -1.00000000   -1.00000000   -1.00000000
   13.18916702   71.83509827    4.90999985    2.93000007
   13.19250011  131.46200562    4.90999985    2.93000007
   13.19583321  131.66799927    4.90999985    2.93000007
   13.19888878  139.59300232    4.90999985    2.93000007
   13.20222187  139.38400269    4.90999985    2.93000007
   13.20527744  122.16200256    4.90999985    2.94000006
   13.20944405  122.16200256    4.90999985    2.91000009
   13.21361065  135.21699524    4.90999985    2.93000007
   13.21694374  135.58799744    4.90999985    2.94000006
   13.21999931  133.14300537    4.90999985    2.93000007
   13.22249985  123.98400116    4.90999985    2.93000007
   13.22361088  135.21299744    4.90999985    2.93000007
   13.22694397  125.62400055    4.90999985    2.93000007
   13.23027706  134.03799438    4.90999985    2.94000006
   13.23333359  140.67700195    4.90999985    2.93000007
   13.23666668  160.85400391    4.90999985    2.93000007
   13.24000072  140.30200195    4.90999985    2.93000007
   13.24305534  157.43499756    4.90999985    2.93000007
   13.24638939  154.65299988    4.90999985    2.94000006
   13.25249958  154.65299988    4.90999985    2.94000006
   13.25666714  126.00399780    4.90999985    2.93000007
   13.25972176  123.60900116    4.90999985    2.93000007
   13.26305580  124.50700378    4.90999985    2.93000007
   13.26638889  138.73699951    4.90999985    2.93000007
   13.26944447  124.65799713    4.90999985    2.93000007
   13.27277756  135.27600098    4.90999985    2.93000007
   13.27583313  135.60299683    4.90999985    2.94000006
   13.27916622  121.94300079    4.90999985    2.93000007
   13.28249931  127.47499847    4.90999985    2.93000007
   13.28555584  125.75700378    4.90999985    2.93000007
   13.28888893  136.57200623    4.90999985    2.94000006
   13.28944492  121.64199829    4.90999985    2.94000006
   13.29527855  121.64199829    4.90999985    2.93000007
   13.29944515  131.86199951    4.90999985    2.94000006
   13.30277824  138.25700378    4.90999985    2.93000007
   13.30583382  136.61300659    4.90999985    2.93000007
   13.30916691  122.33000183    4.90999985    2.93000007
   13.31222248  126.51799774    4.90999985    2.94000006
   13.31555557  125.18099976    4.90999985    2.94000006
   13.31888866  119.37599945    4.90999985    2.94000006
   13.32194424  114.69300079    4.90999985    2.94000006
   13.32277775  127.68000031    4.90999985    2.94000006
   13.32555580  108.09100342    4.90999985    2.94000006
   13.32888889  124.74199677    4.90999985    2.94000006
   13.33222198  123.30200195    4.90999985    2.94000006
   13.33805561  123.30200195    4.90999985    2.93000007
   13.34222221  120.46299744    4.90999985    2.94000006
   13.34555531  119.73799896    4.90999985    2.94000006
   13.34861088  113.73699951    4.90999985    2.94000006
   13.35194492  122.30599976    4.90999985    2.93000007
   13.35527802  117.41699982    4.90999985    2.94000006
   13.35611153  122.15799713    4.90999985    2.94000006
   13.35861111  129.99099731    4.90999985    2.94000006
   13.36194515  117.98999786    4.90999985    2.94000006
   13.36527824  118.12699890    4.90999985    2.94000006
   13.36833382  123.85500336    4.90999985    2.94000006
   13.37166691  120.22000122    4.90999985    2.94000006
   13.37472248  121.44899750    4.90999985    2.94000006
   13.38083363  121.44899750    4.90999985    2.94000006
   13.38500023  122.46700287    4.90999985    2.94000006
   13.38833332  106.81099701    4.90999985    2.94000006
   13.38944435  109.48600006    4.90999985    2.94000006
   13.39194393  111.66000366    4.90999985    2.94000006
   13.39527798  114.24199677    4.90999985    2.94000006
   13.39861107  116.45400238    4.90999985    2.94000006
   13.40166664  109.06400299    4.90999985    2.94000006
   13.40499973  106.20999908    4.90999985    2.94000006
   13.40833282  113.23300171    4.90999985    2.94000006
   13.41138840  112.02100372    4.90999985    2.94000006
   13.41472149  119.08000183    4.90999985    2.94000006
   13.41777802  118.36499786    4.90999985    2.94000006
   13.42388916  118.36499786    4.90999985    2.94000006
   13.42805576  111.22799683    4.90999985    2.94000006
   13.43111134  109.70500183    4.90999985    2.94000006
   13.43444443  108.43099976    4.90999985    2.94000006
   13.43777752  108.04799652    4.90999985    2.94000006
   13.44083309  116.41300201    4.90999985    2.94000006
   13.44416714  115.29699707    4.90999985    2.96000004
   13.44750023  117.50399780    4.90999985    2.94000006
   13.45055580  111.40000153    4.90999985    2.94000006
   13.45388889  101.33699799    4.90999985    2.94000006
   13.45611095  104.23600006    4.90999985    2.94000006
   13.45722198  100.41999817    4.90999985    2.94000006
   13.46055508  109.76699829    4.90999985    2.94000006
   13.46666622  109.76699829    4.90999985    2.94000006
   13.47083282  107.60199738    4.90999985    2.94000006
   13.47416592  115.07199860    4.90999985    2.94000006
   13.47722149  106.46199799    4.90999985    2.94000006
   13.48055553  103.51799774    4.90999985    2.94000006
   13.48388958  104.19400024    4.90999985    2.94000006
   13.48694515  111.98400116    4.90999985    2.94000006
   13.48944473  105.99099731    4.90999985    2.94000006
   13.49055576  117.88700104    4.90999985    2.94000006
   13.49388885  108.82299805    4.90999985    2.94000006
   13.49722290  101.68499756    4.90999985    2.94000006
   13.50027752  106.47899628    4.90999985    2.94000006
   13.50361156  110.78800201    4.90999985    3.00000000
   13.50944424  110.78800201    0.05000000    0.13000000
   13.51361084  116.55799866    0.05000000    0.13000000
   13.51694393   97.25150299    0.05000000    0.13000000
   13.51999950  114.90000153    0.05000000    0.13000000
   13.52277756  106.01300049    0.05000000    0.13000000
   13.52361107  106.23600006    0.05000000    0.13000000
   13.52694416  112.33000183    0.05000000    0.13000000
   13.53027725  105.67800140    0.05000000    0.13000000
   13.53361130   99.40670013    0.05000000    0.13000000
   13.53666687  107.66300201    0.05000000    0.13000000
   13.54000092  107.37400055    0.05000000    0.13000000
   13.54305553  110.77899933    0.05000000    0.13000000
   13.54638958  111.95700073    0.05000000    0.13000000
   13.55249977  111.95700073    0.05000000    0.13000000
   13.55638885  109.79299927    0.05000000    0.13000000
   13.55972195  104.49800110    0.05000000    0.13000000
   13.56305599  107.70500183    0.05000000    0.13000000
   13.56611156  102.98000336    0.05000000    0.13000000
   13.56944466   92.83489990    0.05000000    0.13000000
   13.57277775  100.96299744    0.05000000    0.13000000
   13.57583332   98.89730072    0.05000000    0.13000000
   13.57916641  104.45899963    0.05000000    0.13000000
   13.58222198  104.47399902    0.05000000    0.13000000
   13.58555508  104.09100342    0.05000000    0.13000000
   13.58888817   98.81189728    0.05000000    0.13000000
   13.58944416  103.84799957    0.05000000    0.13000000
   13.59527779  103.84799957    0.05000000    0.13000000
   13.59944439  103.30799866    0.05000000    0.13000000
   13.60249996   98.95980072    0.05000000    0.13000000
   13.60583401  102.87699890    0.05000000    0.13000000
   13.60916710   95.68080139    0.05000000    0.13000000
   13.61250019   96.23660278    0.05000000    0.13000000
   13.61555576   94.28029633    0.05000000    0.13000000
   13.61888885  101.44599915    0.05000000    0.13000000
   13.62222195  105.60299683    0.05000000    0.13000000
   13.62277794   93.50769806    0.05000000    0.13000000
   13.62583351  102.86299896    0.05000000    0.13000000
   13.62888908  103.99500275    0.05000000    0.13000000
   13.63222218  105.63200378    0.05000000    0.13000000
   13.63805580  105.63200378    0.05000000    0.13000000
   13.64222240   89.48750305    0.05000000    0.13000000
   13.64555550   95.74440002    0.05000000    0.13000000
   13.64861107   94.39559937    0.05000000    0.13000000
   13.65194416   95.04039764    0.05000000    0.13000000
   13.65499973   89.61620331    0.05000000    0.13000000
   13.65611076   90.29530334    0.05000000    0.13000000
   13.65861034   84.92620087    0.05000000    0.13000000
   13.66194439   95.16790009    0.05000000    0.13000000
   13.66527748   96.80410004    0.05000000    0.13000000
   13.66833401   90.36509705    0.05000000    0.13000000
   13.67166710   92.65139771    0.05000000    0.13000000
   13.67500019   98.58889771    0.05000000    0.13000000
   13.68083382   98.58889771    0.05000000    0.13000000
   13.68500042   98.13330078    0.05000000    0.13000000
   13.68833351   99.80770111    0.05000000    0.13000000
   13.68944454   94.48239899    0.05000000    0.13000000
   13.69194412   96.45580292    0.05000000    0.13000000
   13.69499969   99.47910309    0.05000000    0.13000000
   13.69833374   90.89520264    0.05000000    0.13000000
   13.70138836   92.72910309    0.05000000    0.13000000
   13.70472240   88.68000031    0.05000000    0.13000000
   13.70805550   92.56610107    0.05000000    0.13000000
   13.71111107   89.57219696    0.05000000    0.13000000
   13.71444416   99.16380310    0.05000000    0.13000000
   13.71777725   95.36109924    0.05000000    0.13000000
   13.72388840   95.36109924    0.05000000    0.13000000
   13.72805500   92.28639984    0.05000000    0.13000000
   13.73111057   95.62560272    0.05000000    0.13000000
   13.73444462   91.76499939    0.05000000    0.13000000
   13.73750019   88.83999634    0.05000000    0.13000000
   13.74083328   99.99469757    0.05000000    0.13000000
   13.74416733   88.71659851    0.05000000    0.13000000
   13.74722290   88.75000000    0.05000000    0.13000000
   13.75055599   85.54209900    0.05000000    0.13000000
   13.75361156   86.98560333    0.05000000    0.13000000
   13.75611115   90.55780029    0.05000000    0.13000000
   13.75722218   85.73919678    0.05000000    0.13000000
   13.76055527   85.94960022    0.05000000    0.13000000
   13.76666641   85.94960022    0.05000000    0.13000000
   13.77083302   90.83070374    0.05000000    0.13000000
   13.77388859   91.07019806    0.05000000    0.13000000
   13.77722168   89.03430176    0.05000000    0.13000000
   13.78055573   92.24060059    0.05000000    0.13000000
   13.78361130   95.49220276    0.05000000    0.13000000
   13.78694534  103.62400055    0.05000000    0.13000000
   13.78944492   92.99400330    0.05000000    0.13000000
   13.79055595   94.42939758    0.05000000    0.13000000
   13.79388905   95.05319977    0.05000000    0.13000000
   13.79722309   95.40329742    0.05000000    0.13000000
   13.80027771   97.63310242    0.05000000    0.13000000
   13.80361176   93.48819733    0.05000000    0.13000000
   13.80944443   93.48819733    0.05000000    0.13000000
   13.81361103   81.74549866    0.05000000    0.13000000
   13.81666660   79.91840363    0.05000000    0.13000000
   13.81999969   88.66339874    0.05000000    0.13000000
   13.82277775   89.02110291    0.05000000    0.13000000
   13.82361126   88.96330261    0.05000000    0.13000000
   13.82694435   90.84049988    0.05000000    0.13000000
   13.83027744   83.79730225    0.05000000    0.13000000
   13.83333302   84.41850281    0.05000000    0.13000000
   13.83666611   88.70030212    0.05000000    0.13000000
   13.84000015   91.37439728    0.05000000    0.13000000
   13.84305477   92.39900208    0.05000000    0.13000000
   13.84638882   91.42859650    0.05000000    0.13000000
   13.85222244   91.42859650    0.05000000    0.13000000
   13.85638905   87.10179901    0.05000000    0.13000000
   13.85972214   93.88710022    0.05000000    0.13000000
   13.86277771   89.39409637    0.05000000    0.13000000
   13.86611176   87.33689880    0.05000000    0.13000000
   13.86944485   90.76180267    0.05000000    0.13000000
   13.87250042   88.63189697    0.05000000    0.13000000
   13.87583351   91.93820190    0.05000000    0.13000000
   13.87916660   89.04209900    0.05000000    0.13000000
   13.88222218   81.78530121    0.05000000    0.13000000
   13.88555527   83.81659698    0.05000000    0.13000000
   13.88861084   88.76950073    0.05000000    0.13000000
   13.88944435   90.85209656    0.05000000    0.13000000
   13.89527798   90.85209656    0.05000000    0.13000000
   13.89944458   89.98639679    0.05000000    0.13000000
   13.90249920   91.84100342    0.05000000    0.13000000
   13.90583324   92.01090240    0.05000000    0.13000000
   13.90888882   92.05439758    0.05000000    0.13000000
   13.91222191   87.38120270    0.05000000    0.13000000
   13.91555500   97.67030334    0.05000000    0.13000000
   13.91861153   94.63410187    0.05000000    0.13000000
   13.92194462   84.04260254    0.05000000    0.13000000
   13.92277813   83.61340332    0.05000000    0.13000000
   13.92555618   85.69129944    0.05000000    0.13000000
   13.92861176   85.61299896    0.05000000    0.13000000
   13.93194485   92.90879822    0.05000000    0.13000000
   13.93805599   92.90879822    0.05000000    0.13000000
   13.94222260   81.36129761    0.05000000    0.13000000
   13.94555569   82.01000214    0.05000000    0.13000000
   13.94861126   88.46199799    0.05000000    0.13000000
   13.95194435   86.91419983    0.05000000    0.13000000
   13.95527744   80.68289948    0.05000000    0.13000000
   13.95611095   81.57389832    0.05000000    0.13000000
   13.95888901   85.05829620    0.05000000    0.13000000
   13.96194458   90.66339874    0.05000000    0.13000000
   13.96527767   84.45950317    0.05000000    0.13000000
   13.96861076   84.41909790    0.05000000    0.13000000
   13.97166634   90.00939941    0.05000000    0.13000000
   13.97499943   86.17649841    0.05000000    0.13000000
   13.98083305   86.17649841    0.05000000    0.13000000
   13.98500061   91.76540375    0.05000000    0.13000000
   13.98833370   90.90080261    0.05000000    0.13000000
   13.98944473   88.19930267    0.05000000    0.13000000
   13.99194431   91.05390167    0.05000000    0.13000000
   13.99499989   90.78500366    0.05000000    0.13000000
   13.99833393   91.20809937    0.05000000    0.13000000
   14.00166702   85.34719849    0.05000000    0.13000000
   14.00472260   87.42929840    0.05000000    0.13000000
   14.00805569   93.58329773    0.05000000    0.13000000
   14.01111126   87.27680206    0.05000000    0.13000000
   14.01444435   87.01760101    0.05000000    0.13000000
   14.01777744   84.40170288    0.05000000    0.13000000
   14.02361107   84.40170288    0.05000000    0.13000000
   14.02777767   83.25520325    0.05000000    0.13000000
   14.03111076   86.98549652    0.05000000    0.13000000
   14.03416729   89.87509918    0.05000000    0.13000000
   14.03750038   91.92400360    0.05000000    0.13000000
   14.04083347   87.62300110    0.05000000    0.13000000
   14.04388905   94.96379852    0.05000000    0.13000000
   14.04722309   91.32820129    0.05000000    0.13000000
   14.05055618   93.37259674    0.05000000    0.13000000
   14.05361176   92.34570313    0.05000000    0.13000000
   14.05611134   95.51930237    0.05000000    0.13000000
   14.05749989   95.04650116    0.05000000    0.13000000
   14.06055546   91.59639740    0.05000000    0.13000000
   14.06666660   91.59639740    0.05000000    0.13000000
   14.07083321   86.21009827    0.05000000    0.13000000
   14.07388878   81.40399933    0.05000000    0.13000000
   14.07722187   84.08499908    0.05000000    0.13000000
   14.08027744   90.88670349    0.05000000    0.13000000
   14.08361053   84.89199829    0.05000000    0.13000000
   14.08694458  171.34300232    0.05000000    0.13000000
   14.08944416   88.36740112    0.05000000    0.13000000
   14.09055519   84.57450104    0.05000000    0.13000000
   14.09361076   81.98069763    0.05000000    0.13000000
   14.09694386   91.09470367    0.05000000    0.13000000
   14.10027790   86.61479950    0.05000000    0.13000000
   14.10333347   90.48329926    0.05000000    0.13000000
   14.10944462   90.48329926    0.05000000    0.13000000
   14.11361122   94.64600372    0.05000000    0.13000000
   14.11666679   83.37590027    0.05000000    0.13000000
   14.11999989   86.58489990    0.05000000    0.13000000
   14.12277794   93.22010040    0.05000000    0.13000000
   14.12361145   84.53070068    0.05000000    0.13000000
   14.12666702   77.32430267    0.05000000    0.13000000
   14.13000011  105.28800201    0.05000000    0.13000000
   14.13333321  103.40699768    0.05000000    0.13000000
   14.13638878  103.22399902    0.05000000    0.13000000
   14.13972187  104.78399658    0.05000000    0.13000000
   14.14305496  117.05599976    0.05000000    0.13000000
   14.14611053  150.89900208    0.05000000    0.13000000
   14.15222168  150.89900208    0.05000000    0.13000000
   14.15638828  150.93899536    0.05000000    0.13000000
   14.15944386  158.13200378    0.05000000    0.13000000
   14.16277695  132.46600342    0.05000000    0.13000000
   14.16611099  181.15400696    0.05000000    0.13000000
   14.16916656  161.14999390    0.05000000    0.13000000
   14.17250061  161.36599731    0.05000000    0.13000000
   14.17583370  169.23100281    0.05000000    0.13000000
   14.17888927  159.67700195    0.05000000    0.13000000
   14.18222237  146.31900024    0.05000000    0.13000000
   14.18527794  202.21099854    0.05000000    0.13000000
   14.18861103  159.76600647    0.05000000    0.13000000
   14.18944454  157.61799622    0.05000000    0.13000000
   14.21000004  157.61799622    0.05000000    0.13000000
   14.21416664  173.11599731    0.05000000    0.13000000
   14.21749973  175.82800293    0.05000000    0.13000000
   14.22083282  136.77799988    0.05000000    0.13000000
   14.22277737  161.34700012    0.05000000    0.13000000
   14.22444439  144.42500305    0.05000000    0.13000000
   14.22749996  120.40799713    0.05000000    0.13000000
   14.23083305  135.99800110    0.05000000    0.13000000
   14.23416710  190.67799377    0.05000000    0.13000000
   14.23722267  152.88299561    0.05000000    0.13000000
   14.24055576  169.09700012    0.05000000    0.13000000
   14.24388885  181.58599854    0.05000000    0.13000000
   14.24694443  151.90199280    0.05000000    0.13000000
   14.25305557  151.90199280    0.05000000    0.13000000
   14.25694466  144.09599304    0.05000000    0.13000000
   14.26027775  163.54899597    0.05000000    0.13000000
   14.26361084  134.20300293    0.05000000    0.13000000
   14.26666641  148.22900391    0.05000000    0.13000000
   14.26999950  145.56399536    0.05000000    0.13000000
   14.27305508  153.13400269    0.05000000    0.13000000
   14.27638817  132.20399475    0.05000000    0.13000000
   14.27972221  131.09700012    0.05000000    0.13000000
   14.28277779  164.99400330    0.05000000    0.13000000
   14.28611183  151.25999451    0.05000000    0.13000000
   14.28944492  132.82400513    0.05000000    0.13000000
   14.28972244  105.91999817    0.05000000    0.13000000
   14.29583359  105.91999817    0.05000000    0.13000000
   14.30000019  147.61799622    0.05000000    0.13000000
   14.30305576   97.07350159    0.05000000    0.13000000
   14.30638885  122.15299988    0.05000000    0.13000000
   14.30972195  125.63099670    0.05000000    0.13000000
   14.31277752  129.70300293    0.05000000    0.13000000
   14.31611156  131.36000061    0.05000000    0.13000000
   14.31916618  130.04899597    0.05000000    0.13000000
   14.32250023  105.90899658    0.05000000    0.13000000
   14.32305527  125.39700317    0.05000000    0.13000000
   14.32611084  125.29699707    0.05000000    0.13000000
   14.32944393  109.76200104    0.05000000    0.13000000
   14.33249950  119.67299652    0.05000000    0.13000000
   14.33861065  119.67299652    0.05000000    0.13000000
   14.34277725  111.48699951    0.05000000    0.13000000
   14.34583282  106.87799835    0.05000000    0.13000000
   14.34916592   98.94909668    0.05000000    0.13000000
   14.35249996   93.96179962    0.05000000    0.13000000
   14.35555553  121.42099762    0.05000000    0.13000000
   14.35638905  100.47499847    0.05000000    0.13000000
   14.35916710  103.62500000    0.05000000    0.13000000
   14.36250019  107.80100250    0.05000000    0.13000000
   14.36555576   87.48090363    0.05000000    0.13000000
   14.36888885   95.62180328    0.05000000    0.13000000
   14.37222195   98.25859833    0.05000000    0.13000000
   14.37527752   91.26200104    0.05000000    0.13000000
   14.38138866   91.26200104    0.05000000    0.13000000
   14.38555527   90.40550232    0.05000000    0.13000000
   14.38888836   91.58619690    0.05000000    0.13000000
   14.38972187  102.07299805    0.05000000    0.13000000
   14.39249992   95.09510040    0.05000000    0.13000000
   14.39583302   92.65149689    0.05000000    0.13000000
   14.39888859   83.32129669    0.05000000    0.13000000
   14.40222168   82.49130249    0.05000000    0.13000000
   14.40555477   86.22560120    0.05000000    0.13000000
   14.40861034   88.31829834    0.05000000    0.13000000
   14.41194439   83.81710052    0.05000000    0.13000000
   14.41499996   89.75420380    0.05000000    0.13000000
   14.41833401   83.85510254    0.05000000    0.13000000
   14.42416668   83.85510254    0.05000000    0.13000000
   14.42833328   88.33679962    0.05000000    0.13000000
   14.43166733   89.33080292    0.05000000    0.13000000
   14.43500042   79.86530304    0.05000000    0.13000000
   14.43805599   83.63390350    0.05000000    0.13000000
   14.44138908   81.40139771    0.05000000    0.13000000
   14.44444466   85.99289703    0.05000000    0.13000000
   14.44777775   85.20790100    0.05000000    0.13000000
   14.45111084   83.10220337    0.05000000    0.13000000
   14.45416641   85.77010345    0.05000000    0.13000000
   14.45638847   85.47000122    0.05000000    0.13000000
   14.45777798   85.38269806    0.05000000    0.13000000
   14.46111107   85.38189697    0.05000000    0.13000000
   14.46722221   85.38189697    0.05000000    0.13000000
   14.47138882   81.45790100    0.05000000    0.13000000
   14.47444439   85.89029694    0.05000000    0.13000000
   14.47777748   87.56400299    0.05000000    0.13000000
   14.48111057   84.67769623    0.05000000    0.13000000
   14.48416710   84.22930145    0.05000000    0.13000000
   14.48750019   84.73480225    0.05000000    0.13000000
   14.48972225   86.92479706    0.05000000    0.13000000
   14.49111176   84.33630371    0.05000000    0.13000000
   14.49444485   86.78639984    0.05000000    0.13000000
   14.49750042   88.48950195    0.05000000    0.13000000
   14.50083351   96.21600342    0.05000000    0.13000000
   14.50416660   97.45480347    0.05000000    0.13000000
   14.51000023   97.45480347    0.05000000    0.13000000
   14.51416683   82.55970001    0.05000000    0.13000000
   14.51749992   85.50150299    0.05000000    0.13000000
   14.52055550   83.38780212    0.05000000    0.13000000
   14.52305508   78.11869812    0.05000000    0.13000000
   14.52416611   78.62670135    0.05000000    0.13000000
   14.52750015   81.66059875    0.05000000    0.13000000
   14.53055573   82.18840027    0.05000000    0.13000000
   14.53388977   88.82589722    0.05000000    0.13000000
   14.53722286   84.43689728    0.05000000    0.13000000
   14.54027843   87.92299652    0.05000000    0.13000000
   14.54361153   83.01999664    0.05000000    0.13000000
   14.54666710   87.77490234    0.05000000    0.13000000
   14.55277824   87.77490234    0.05000000    0.13000000
   14.55694485   88.06700134    0.05000000    0.13000000
   14.56027794   84.28260040    0.05000000    0.13000000
   14.56333351   98.17449951    0.05000000    0.13000000
   14.56666660   87.54720306    0.05000000    0.13000000
   14.56999969   82.54879761    0.05000000    0.13000000
   14.57305527   83.79979706    0.05000000    0.13000000
   14.57638836   88.79609680    0.05000000    0.13000000
   14.57944393   82.97489929    0.05000000    0.13000000
   14.58277798   86.25399780    0.05000000    0.13000000
   14.58611107   82.97029877    0.05000000    0.13000000
   14.58916664   83.20970154    0.05000000    0.13000000
   14.58972168   81.01999664    0.05000000    0.13000000
   14.59555531   81.01999664    0.05000000    0.13000000
   14.59972191   84.99600220    0.05000000    0.13000000
   14.60305595   86.63999939    0.05000000    0.13000000
   14.60638905   82.50749969    0.05000000    0.13000000
   14.60944462   84.68810272    0.05000000    0.13000000
   14.61277771   91.36340332    0.05000000    0.13000000
   14.61638927   87.41750336    0.05000000    0.13000000
   14.61944485   91.58779907    0.05000000    0.13000000
   14.62277794   96.05329895    0.05000000    0.13000000
   14.62333393   82.37429810    0.05000000    0.13000000
   14.62638855   85.31770325    0.05000000    0.13000000
   14.62944412   83.81330109    0.05000000    0.13000000
   14.63277817   81.91889954    0.05000000    0.13000000
   14.63861084   81.91889954    0.05000000    0.13000000
   14.64277744   95.90160370    0.05000000    0.13000000
   14.64583302   82.65290070    0.05000000    0.13000000
   14.64916611   89.64640045    0.05000000    0.13000000
   14.65222168   84.96219635    0.05000000    0.13000000
   14.65555477   89.20089722    0.05000000    0.13000000
   14.65666676   85.08719635    0.05000000    0.13000000
   14.65916634   86.20739746    0.05000000    0.13000000
   14.66249943   80.00720215    0.05000000    0.13000000
   14.66583252   84.32309723    0.05000000    0.13000000
   14.66888905   85.96410370    0.05000000    0.13000000
   14.67222214   81.22270203    0.05000000    0.13000000
   14.67555618   80.01439667    0.05000000    0.13000000
   14.68138885   80.01439667    0.05000000    0.13000000
   14.68555546   83.36260223    0.05000000    0.13000000
   14.68861103   83.94110107    0.05000000    0.13000000
   14.69000053   89.29810333    0.05000000    0.13000000
   14.69250011   83.68679810    0.05000000    0.13000000
   14.69555569   84.39749908    0.05000000    0.13000000
   14.69888878   82.18199921    0.05000000    0.13000000
   14.70194435   81.05349731    0.05000000    0.13000000
   14.70527744   87.30879974    0.05000000    0.13000000
   14.70861053   85.07669830    0.05000000    0.13000000
   14.71194458   82.50219727    0.05000000    0.13000000
   14.71500015   88.68270111    0.05000000    0.13000000
   14.71833324   84.66629791    0.05000000    0.13000000
   14.72416592   84.66629791    0.05000000    0.13000000
   14.72833252   79.66059875    0.05000000    0.13000000
   14.73166656   78.85320282    0.05000000    0.13000000
   14.73472214   80.97779846    0.05000000    0.13000000
   14.73805618   84.80220032    0.05000000    0.13000000
   14.74138927   89.70449829    0.05000000    0.13000000
   14.74444485   81.86910248    0.05000000    0.13000000
   14.74777794   82.06340027    0.05000000    0.13000000
   14.75083351   83.45890045    0.05000000    0.13000000
   14.75416660   88.80680084    0.05000000    0.13000000
   14.75666714   81.16010284    0.05000000    0.13000000
   14.75777817   82.61750031    0.05000000    0.13000000
   14.76111126   83.76270294    0.05000000    0.13000000
   14.76694393   83.76270294    0.05000000    0.13000000
   14.77111053   84.44670105    0.05000000    0.13000000
   14.77444458   88.33979797    0.05000000    0.13000000
   14.77777767   82.54190063    0.05000000    0.13000000
   14.78083324   87.39550018    0.05000000    0.13000000
   14.78416729   78.54229736    0.05000000    0.13000000
   14.78722286   82.65920258    0.05000000    0.13000000
   14.79000092   82.83480072    0.05000000    0.13000000
   14.79111195   79.43160248    0.05000000    0.13000000
   14.79416752   83.80249786    0.05000000    0.13000000
   14.79750061   80.11920166    0.05000000    0.13000000
   14.80083370  170.88299561    0.05000000    0.13000000
   14.80388927   82.61640167    0.05000000    0.13000000
   14.81000042   82.61640167    0.05000000    0.13000000
   14.81416702   84.14730072    0.05000000    0.13000000
   14.81722260   86.87059784    0.05000000    0.13000000
   14.82055569   87.97100067    0.05000000    0.13000000
   14.82333374   90.24859619    0.05000000    0.13000000
   14.82388878   95.53070068    0.05000000    0.13000000
   14.82722187  103.55200195    0.05000000    0.13000000
   14.83055592   96.34790039    0.05000000    0.13000000
   14.83361053   99.76010132    0.05000000    0.13000000
   14.83694458   88.58439636    0.05000000    0.13000000
   14.84027767   76.07849884    0.05000000    0.13000000
   14.84333324   84.14520264    0.05000000    0.13000000
   14.84666634   77.45429993    0.05000000    0.13000000
   14.85277843   77.45429993    0.05000000    0.13000000
   14.85694504   78.65720367    0.05000000    0.13000000
   14.86027813   81.48419952    0.05000000    0.13000000
   14.86333370   82.98580170    0.05000000    0.13000000
   14.86666679   88.56680298    0.05000000    0.13000000
   14.86972237   81.57610321    0.05000000    0.13000000
   14.87305546   86.41639709    0.05000000    0.13000000
   14.87638855   82.49669647    0.05000000    0.13000000
   14.87944412   88.25129700    0.05000000    0.13000000
   14.88277817   83.40599823    0.05000000    0.13000000
   14.88611126   85.56880188    0.05000000    0.13000000
   14.88916683   85.34799957    0.05000000    0.13000000
   14.89000034   84.23690033    0.05000000    0.13000000
   14.89555550   84.23690033    0.05000000    0.13000000
   14.89972210   86.97029877    0.05000000    0.13000000
   14.90305519   85.10880280    0.05000000    0.13000000
   14.90611076   87.71630096    0.05000000    0.13000000
   14.90944386   86.59169769    0.05000000    0.13000000
   14.91277695   88.02970123    0.05000000    0.13000000
   14.91583252   74.15229797    0.05000000    0.13000000
   14.91916656   87.80879974    0.05000000    0.13000000
   14.92250061   86.82540131    0.05000000    0.13000000
   14.92333412   92.60849762    0.05000000    0.13000000
   14.92611122   88.93479919    0.05000000    0.13000000
   14.92916679   80.59120178    0.05000000    0.13000000
   14.93249989   81.09829712    0.05000000    0.13000000
   14.93833351   81.09829712    0.05000000    0.13000000
   14.94250011   83.44599915    0.05000000    0.13000000
   14.94583321   81.08460236    0.05000000    0.13000000
   14.94916630   82.90910339    0.05000000    0.13000000
   14.95222187   89.34230042    0.05000000    0.13000000
   14.95555496   83.32430267    0.05000000    0.13000000
   14.95666695   85.59140015    0.05000000    0.13000000
   14.95916653   88.15190125    0.05000000    0.13000000
   14.96222210   83.11170197    0.05000000    0.13000000
   14.96555519   82.79149628    0.05000000    0.13000000
   14.96861076   82.27020264    0.05000000    0.13000000
   14.97194386   83.29850006    0.05000000    0.13000000
   14.97527695   85.21250153    0.05000000    0.13000000
   14.98138809   85.21250153    0.05000000    0.13000000
   14.98555565   85.72820282    0.05000000    0.13000000
   14.98861122   79.70549774    0.05000000    0.13000000
   14.99000072   85.48809814    0.05000000    0.13000000
   14.99250031   86.08679962    0.05000000    0.13000000
   14.99555588   91.10710144    0.05000000    0.13000000
   14.99888897   81.10109711    0.05000000    0.13000000
   15.00194454   78.35820007    0.05000000    0.13000000
   15.00527763   82.97769928    0.05000000    0.13000000
   15.00861073   88.10720062    0.05000000    0.13000000
   15.01166630   83.45580292    0.05000000    0.13000000
   15.01500034   82.85870361    0.05000000    0.13000000
   15.01833344   84.27050018    0.05000000    0.13000000
   15.02416611   84.27050018    0.05000000    0.13000000
   15.02833271   80.82089996    0.05000000    0.13000000
   15.03166676   85.70919800    0.05000000    0.13000000
   15.03472233   87.50920105    0.05000000    0.13000000
   15.03805637   93.00830078    0.05000000    0.13000000
   15.04111195   87.49890137    0.05000000    0.13000000
   15.04444504   82.01390076    0.05000000    0.13000000
   15.04777813   86.60579681    0.05000000    0.13000000
   15.05111122   80.95749664    0.05000000    0.13000000
   15.05416679   90.46450043    0.05000000    0.13000000
   15.05666733   87.91770172    0.05000000    0.13000000
   15.05805588   90.17620087    0.05000000    0.13000000
   15.06111145   77.24539948    0.05000000    0.13000000
   15.06694412   77.24539948    0.05000000    0.13000000
   15.07111073   78.69429779    0.05000000    0.13000000
   15.07444477   77.47200012    0.05000000    0.13000000
   15.07750034   80.24870300    0.05000000    0.13000000
   15.08083344   79.72840118    0.05000000    0.13000000
   15.08416653   79.17949677    0.05000000    0.13000000
   15.08722210   84.74040222    0.05000000    0.13000000
   15.09000015   87.31809998    0.05000000    0.13000000
   15.09111118   87.66169739    0.05000000    0.13000000
   15.09416676   91.33709717    0.05000000    0.13000000
   15.09749985   86.35350037    0.05000000    0.13000000
   15.10083389   86.25260162    0.05000000    0.13000000
   15.10388947   85.61029816    0.05000000    0.13000000
   15.10972214   85.61029816    0.05000000    0.13000000
   15.11388969   84.20420074    0.05000000    0.13000000
   15.11722279   96.40650177    0.05000000    0.13000000
   15.12055588   86.99179840    0.05000000    0.13000000
   15.12333393   90.88400269    0.05000000    0.13000000
   15.12416649   82.25160217    0.05000000    0.13000000
   15.12722206   88.59700012    0.05000000    0.13000000
   15.13055611   90.11209869    0.05000000    0.13000000
   15.13388920   90.34960175    0.05000000    0.13000000
   15.13694477   83.52130127    0.05000000    0.13000000
   15.14027786   81.95960236    0.05000000    0.13000000
   15.14333344   81.14589691    0.05000000    0.13000000
   15.14666653   81.15190125    0.05000000    0.13000000
   15.15277767   81.15190125    0.05000000    0.13000000
   15.15694427   82.05210114    0.05000000    0.13000000
   15.15999985   84.89070129    0.05000000    0.13000000
   15.16333294   79.82199860    0.05000000    0.13000000
   15.16666698   85.82430267    0.05000000    0.13000000
   15.16972256   84.43720245    0.05000000    0.13000000
   15.17305565   81.88749695    0.05000000    0.13000000
   15.17611122   81.43969727    0.05000000    0.13000000
   15.17944431   83.54830170    0.05000000    0.13000000
   15.18277836   79.61260223    0.05000000    0.13000000
   15.18583298   84.17530060    0.05000000    0.13000000
   15.18916702   86.36930084    0.05000000    0.13000000
   15.19000053   83.76550293    0.05000000    0.13000000
   15.19555569   83.76550293    0.05000000    0.13000000
   15.19972229   77.41529846    0.05000000    0.13000000
   15.20305538   81.06410217    0.05000000    0.13000000
   15.20611095   83.79820251    0.05000000    0.13000000
   15.22361088   87.70480347    0.05000000    0.13000000
   15.22611046   81.87979889    0.05000000    0.13000000
   15.22944355   86.46800232    0.05000000    0.13000000
   15.23249912   81.48639679    0.05000000    0.13000000
   15.23861122   81.48639679    0.05000000    0.13000000
   15.24277782   79.86519623    0.05000000    0.13000000
   15.24583340   82.43720245    0.05000000    0.13000000
   15.24916649   82.50260162    0.05000000    0.13000000
   15.25249958   86.26020050    0.05000000    0.13000000
   15.25555515   82.75140381    0.05000000    0.13000000
   15.25694466   84.87740326    0.05000000    0.13000000
   15.25916672   83.00450134    0.05000000    0.13000000
   15.26222229   84.47679901    0.05000000    0.13000000
   15.26555538   83.19580078    0.05000000    0.13000000
   15.26888847   89.19689941    0.05000000    0.13000000
   15.27194405   80.63030243    0.05000000    0.13000000
   15.27527714   81.46620178    0.05000000    0.13000000
   15.28138828   81.46620178    0.05000000    0.13000000
   15.28555584   78.78649902    0.05000000    0.13000000
   15.28888893   79.14270020    0.05000000    0.13000000
   15.29027843   78.64160156    0.05000000    0.13000000
   15.29250050   80.29049683    0.05000000    0.13000000
   15.29555607   76.82219696    0.05000000    0.13000000
   15.29888916   80.51899719    0.05000000    0.13000000
   15.30222225   78.96119690    0.05000000    0.13000000
   15.30527782   86.17209625    0.05000000    0.13000000
   15.30861092   82.47280121    0.05000000    0.13000000
   15.31194496   83.96710205    0.05000000    0.13000000
   15.31527805   80.55529785    0.05000000    0.13000000
   15.31833363   81.08409882    0.05000000    0.13000000
   15.32416630   81.08409882    0.05000000    0.13000000
   15.32833290   84.38249969    0.05000000    0.13000000
   15.33166695   77.34490204    0.05000000    0.13000000
   15.33500004   81.57140350    0.05000000    0.13000000
   15.33805561   84.61789703    0.05000000    0.13000000
   15.34138870   82.73619843    0.05000000    0.13000000
   15.34444427   88.42710114    0.05000000    0.13000000
   15.34777737   80.19029999    0.05000000    0.13000000
   15.35111141   82.53970337    0.05000000    0.13000000
   15.35416698   82.54669952    0.05000000    0.13000000
   15.35694504   79.24690247    0.05000000    0.13000000
   15.35777855   79.91010284    0.05000000    0.13000000
   15.36083412   76.57959747    0.05000000    0.13000000
   15.36722279   76.57959747    0.05000000    0.13000000
   15.37111092   77.22720337    0.05000000    0.13000000
   15.37444496   79.96309662    0.05000000    0.13000000
   15.37777805   84.94470215    0.05000000    0.13000000
   15.38083363   85.20649719    0.05000000    0.13000000
   15.38416672   82.30069733    0.05000000    0.13000000
   15.38749981   84.02249908    0.05000000    0.13000000
   15.39027786   82.99019623    0.05000000    0.13000000
   15.39111137   81.85649872    0.05000000    0.13000000
   15.39444447   83.10260010    0.05000000    0.13000000
   15.39750004   81.07510376    0.05000000    0.13000000
   15.40083313   82.21540070    0.05000000    0.13000000
   15.40416622   84.76010132    0.05000000    0.13000000
   15.40999985   84.76010132    0.05000000    0.13000000
   15.41416645   83.53469849    0.05000000    0.13000000
   15.41722298   86.72190094    0.05000000    0.13000000
   15.42055607   84.42600250    0.05000000    0.13000000
   15.42361164   87.90209961    0.05000000    0.13000000
   15.42416668   85.75859833    0.05000000    0.13000000
   15.42750072   83.87090302    0.05000000    0.13000000
   15.43055630   86.92569733    0.05000000    0.13000000
   15.43388939   83.06500244    0.05000000    0.13000000
   15.43694496   81.56909943    0.05000000    0.13000000
   15.44027805   81.93569946    0.05000000    0.13000000
   15.44361115   83.61419678    0.05000000    0.13000000
   15.44666672   82.94029999    0.05000000    0.13000000
   15.45277786   82.94029999    0.05000000    0.13000000
   15.45694447   80.47470093    0.05000000    0.13000000
   15.45749950   80.20950317    0.05000000    0.13000000
   15.46055508   80.76110077    0.05000000    0.13000000
   15.46388912   83.28359985    0.05000000    0.13000000
   15.46722221   84.87920380    0.05000000    0.13000000
   15.47027779   81.32669830    0.05000000    0.13000000
   15.47361088   87.14600372    0.05000000    0.13000000
   15.47694397   78.72339630    0.05000000    0.13000000
   15.47999954   81.75000000    0.05000000    0.13000000
   15.48333359   80.57900238    0.05000000    0.13000000
   15.48666668   83.29010010    0.05000000    0.13000000
   15.48972225   82.84970093    0.05000000    0.13000000
   15.49083328   82.68000031    0.05000000    0.13000000
   15.49555588   82.68000031    0.05000000    0.13000000
   15.49972248   80.69480133    0.05000000    0.13000000
   15.50305557   84.48500061    0.05000000    0.13000000
   15.50611115   88.01300049    0.05000000    0.13000000
   15.50944424   79.23470306    0.05000000    0.13000000
   15.51277733   83.90630341    0.05000000    0.13000000
   15.51583290   85.69400024    0.05000000    0.13000000
   15.51916599   78.98390198    0.05000000    0.13000000
   15.52250004   81.92089844    0.05000000    0.13000000
   15.52416611   80.16020203    0.05000000    0.13000000
   15.52611065   83.63569641    0.05000000    0.13000000
   15.52916622   84.25990295    0.05000000    0.13000000
   15.53249931   80.81559753    0.05000000    0.13000000
   15.53861141   80.81559753    0.05000000    0.13000000
   15.54250050   77.71759796    0.05000000    0.13000000
   15.54583359   76.09480286    0.05000000    0.13000000
   15.54916668   81.94650269    0.05000000    0.13000000
   15.55222225   76.63569641    0.05000000    0.13000000
   15.55555534   78.39009857    0.05000000    0.13000000
   15.55749989   76.65799713    0.05000000    0.13000000
   15.55916691   79.40110016    0.05000000    0.13000000
   15.56222248   73.55180359    0.05000000    0.13000000
   15.56555557   78.50839996    0.05000000    0.13000000
   15.56861115   77.23090363    0.05000000    0.13000000
   15.57194424   78.54319763    0.05000000    0.13000000
   15.57527733   75.81030273    0.05000000    0.13000000
   15.58138847   75.81030273    0.05000000    0.13000000
   15.58555508   81.77880096    0.05000000    0.13000000
   15.58861065   85.82759857    0.05000000    0.13000000
   15.59083271   81.88059998    0.05000000    0.13000000
   15.59249973   81.78639984    0.05000000    0.13000000
   15.59555531   78.94750214    0.05000000    0.13000000
   15.59888840   80.21040344    0.05000000    0.13000000
   15.60194492   82.11029816    0.05000000    0.13000000
   15.60527802   76.32029724    0.05000000    0.13000000
   15.60861111   80.46790314    0.05000000    0.13000000
   15.61166668   78.76280212    0.05000000    0.13000000
   15.61500072   78.67769623    0.05000000    0.13000000
   15.61833382   78.06340027    0.05000000    0.13000000
   15.62416649   78.06340027    0.05000000    0.13000000
   15.62833309   76.80269623    0.05000000    0.13000000
   15.63166714   78.11499786    0.05000000    0.13000000
   15.63472176   78.53150177    0.05000000    0.13000000
   15.63805580   79.36109924    0.05000000    0.13000000
   15.64138889   78.57990265    0.05000000    0.13000000
   15.64444447   80.76300049    0.05000000    0.13000000
   15.64777756   81.03800201    0.05000000    0.13000000
   15.65111065   75.89749908    0.05000000    0.13000000
   15.65416622   79.29090118    0.05000000    0.13000000
   15.65749931   79.84459686    0.05000000    0.13000000
   15.65805531   79.24680328    0.05000000    0.13000000
   15.66111088   78.11399841    0.05000000    0.13000000
   15.66694450   78.11399841    0.05000000    0.13000000
   15.67111111   78.77700043    0.05000000    0.13000000
   15.67444515   80.53919983    0.05000000    0.13000000
   15.67750072   74.68640137    0.05000000    0.13000000
   15.68111134   79.83560181    0.05000000    0.13000000
   15.68444443   76.64830017    0.05000000    0.13000000
   15.68777752   75.76760101    0.05000000    0.13000000
   15.69083309   77.36100006    0.05000000    0.13000000
   15.69138908   77.17099762    0.05000000    0.13000000
   15.69444466   77.79489899    0.05000000    0.13000000
   15.69750023   79.76930237    0.05000000    0.13000000
   15.70083332   77.54940033    0.05000000    0.13000000
   15.70416641   76.34770203    0.05000000    0.13000000
   15.71000004   76.34770203    0.05000000    0.13000000
   15.71388912   77.56670380    0.05000000    0.13000000
   15.71722221   77.93550110    0.05000000    0.13000000
   15.72055531   79.44680023    0.05000000    0.13000000
   15.72361088   75.66680145    0.05000000    0.13000000
   15.72472191   76.60410309    0.05000000    0.13000000
   15.72749996   76.61080170    0.05000000    0.13000000
   15.73055553   74.07319641    0.05000000    0.13000000
   15.73388958   75.60379791    0.05000000    0.13000000
   15.73722267   78.51589966    0.05000000    0.13000000
   15.74027824   82.36550140    0.05000000    0.13000000
   15.74361134   84.07759857    0.05000000    0.13000000
   15.74666691   77.37580109    0.05000000    0.13000000
   15.75277805   77.37580109    0.05000000    0.13000000
   15.75694466   78.90450287    0.05000000    0.13000000
   15.75805569   80.17240143    0.05000000    0.13000000
   15.76055527   77.83309937    0.05000000    0.13000000
   15.76361084   77.89710236    0.05000000    0.13000000
   15.76694393   79.75520325    0.05000000    0.13000000
   15.77027798   79.90599823    0.05000000    0.13000000
   15.77333355   81.54360199    0.05000000    0.13000000
   15.77666664   81.69039917    0.05000000    0.13000000
   15.77972221   80.29679871    0.05000000    0.13000000
   15.78305531   77.99009705    0.05000000    0.13000000
   15.78638935   80.76059723    0.05000000    0.13000000
   15.78944492   82.94779968    0.05000000    0.13000000
   15.79138947   77.83760071    0.05000000    0.13000000
   15.79555607   77.83760071    0.05000000    0.13000000
   15.79972267   78.55000305    0.05000000    0.13000000
   15.80305576   81.13279724    0.05000000    0.13000000
   15.80611134   80.54370117    0.05000000    0.13000000
   15.80944443   76.20890045    0.05000000    0.13000000
   15.81277752   78.28610229    0.05000000    0.13000000
   15.81583309   80.36129761    0.05000000    0.13000000
   15.81916618   81.01190186    0.05000000    0.13000000
   15.82250023   79.10070038    0.05000000    0.13000000
   15.82472229   80.98590088    0.05000000    0.13000000
   15.82611084   77.88899994    0.05000000    0.13000000
   15.82916641   75.67169952    0.05000000    0.13000000
   15.83249950   75.49859619    0.05000000    0.13000000
   15.83833313   75.49859619    0.05000000    0.13000000
   15.84249973   79.00749969    0.05000000    0.13000000
   15.84583282   77.75389862    0.05000000    0.13000000
   15.84888840   75.67639923    0.05000000    0.13000000
   15.85222244   78.02459717    0.05000000    0.13000000
   15.85555553   77.37960052    0.05000000    0.13000000
   15.85805607   78.25910187    0.05000000    0.13000000
   15.85916710   78.44869995    0.05000000    0.13000000
   15.86222267   79.98130035    0.05000000    0.13000000
   15.86555576   77.62049866    0.05000000    0.13000000
   15.86888885   78.18499756    0.05000000    0.13000000
   15.87194443   78.01689911    0.05000000    0.13000000
   15.87527752   80.24900055    0.05000000    0.13000000
   15.88138866   80.24900055    0.05000000    0.13000000
   15.88527775   80.64980316    0.05000000    0.13000000
   15.88861084   81.20610046    0.05000000    0.13000000
   15.89138889   77.10019684    0.05000000    0.13000000
   15.89222240   77.29060364    0.05000000    0.13000000
   15.89527798   84.56680298    0.05000000    0.13000000
   15.89861107   82.77549744    0.05000000    0.13000000
   15.90194416   85.78130341    0.05000000    0.13000000
   15.90527725   79.70970154    0.05000000    0.13000000
   15.90833282   82.15740204    0.05000000    0.13000000
   15.91166592   78.08560181    0.05000000    0.13000000
   15.91472149   78.89530182    0.05000000    0.13000000
   15.91805553   79.06950378    0.05000000    0.13000000
   15.92416668   79.06950378    0.05000000    0.13000000
   15.92833328   77.71170044    0.05000000    0.13000000
   15.93138885   82.56079865    0.05000000    0.13000000
   15.93472195   80.33180237    0.05000000    0.13000000
   15.93805599   79.16130066    0.05000000    0.13000000
   15.94111156   82.63970184    0.05000000    0.13000000
   15.94444466   78.07369995    0.05000000    0.13000000
   15.94750023   74.62220001    0.05000000    0.13000000
   15.95083332   71.51319885    0.05000000    0.13000000
   15.95416641   79.81259918    0.05000000    0.13000000
   15.95722198   78.57749939    0.05000000    0.13000000
   15.95916653   78.37660217    0.05000000    0.13000000
   15.96111107   80.82379913    0.05000000    0.13000000
   15.96694374   80.82379913    0.05000000    0.13000000
   15.97111034   77.00730133    0.05000000    0.13000000
   15.97444439   78.35350037    0.05000000    0.13000000
   15.97749996   79.80660248    0.05000000    0.13000000
   15.98083305   77.36460114    0.05000000    0.13000000
   15.98416710   78.62560272    0.05000000    0.13000000
   15.98722267   75.97039795    0.05000000    0.13000000
   15.99055576   77.19450378    0.05000000    0.13000000
   15.99250031   77.11209869    0.05000000    0.13000000
   15.99416733   76.58460236    0.05000000    0.13000000
   15.99722290   77.80280304    0.05000000    0.13000000
   16.00055504   79.85050201    0.05000000    0.13000000
   16.00361061   79.69889832    0.05000000    0.13000000
   16.00972176   79.69889832    0.05000000    0.13000000
   16.01388931   74.27189636    0.05000000    0.13000000
   16.01722145   76.79920197    0.05000000    0.13000000
   16.02027702   76.05259705    0.05000000    0.13000000
   16.02361107   73.98960114    0.05000000    0.13000000
   16.02611160   77.27420044    0.05000000    0.13000000
   16.02722168   78.99849701    0.05000000    0.13000000
   16.03055573   79.31250000    0.05000000    0.13000000
   16.03388786   79.65660095    0.05000000    0.13000000
   16.03694344   78.22499847    0.05000000    0.13000000
   16.04027748   79.78260040    0.05000000    0.13000000
   16.04361153   87.22560120    0.05000000    0.13000000
   16.04666710   79.43550110    0.05000000    0.13000000
   16.05249977   79.43550110    0.05000000    0.13000000
   16.05666542   81.90820313    0.05000000    0.13000000
   16.05944443   76.80100250    0.05000000    0.13000000
   16.06027794   92.37229919    0.05000000    0.13000000
   16.06361008   79.14160156    0.05000000    0.13000000
   16.06694603   76.77390289    0.05000000    0.13000000
   16.07000160  142.88000488    0.05000000    0.13000000
   16.07333374   79.49549866    0.05000000    0.13000000
   16.07638931   78.54419708    0.05000000    0.13000000
   16.07972336  100.88899994    0.05000000    0.13000000
   16.08305550   84.34320068    0.05000000    0.13000000
   16.08611107   92.59819794    0.05000000    0.13000000
   16.08944511   99.36250305    0.05000000    0.13000000
   16.09555626   99.36250305    0.05000000    0.13000000
   16.09972191   -1.00000000   -1.00000000   -1.00000000
   16.10277748   87.52709961    0.05000000    0.13000000
   16.10611153   87.36730194    0.05000000    0.13000000
   16.10944557   85.20649719    0.05000000    0.13000000
   16.11250114   80.60769653    0.05000000    0.13000000
   16.11583328  124.73400116    0.05000000    0.13000000
   16.11888885  107.07700348    0.05000000    0.13000000
   16.12222290  338.32901001    0.05000000    0.13000000
   16.12555504   96.07240295    0.05000000    0.13000000
   16.12638855  101.08300018    0.05000000    0.13000000
   16.12916756   90.83139801    0.05000000    0.13000000
   16.13222313   82.29720306    0.05000000    0.13000000
   16.13833237   82.29720306    0.05000000    0.13000000
   16.14249992   86.07630157    0.05000000    0.13000000
   16.14583397   84.13140106    0.05000000    0.13000000
   16.14888954   85.25759888    0.05000000    0.13000000
   16.15222168   80.56900024    0.05000000    0.13000000
   16.15555573  140.19200134    0.05000000    0.13000000
   16.15861130   78.59980011    0.05000000    0.13000000
   16.15972137  208.74299622    0.05000000    0.13000000
   16.16250038  101.63600159    0.05000000    0.13000000
   16.16555595   92.70469666    0.05000000    0.13000000
   16.16888809   92.14320374    0.05000000    0.13000000
   16.17222214  107.32700348    0.05000000    0.13000000
   16.17527771   81.49690247    0.05000000    0.13000000
   16.18111038   81.49690247    0.05000000    0.13000000
   16.18527603   82.67299652    0.05000000    0.13000000
   16.18861008  146.23599243    0.05000000    0.13000000
   16.19166565   94.62370300    0.05000000    0.13000000
   16.19333267   87.13430023    0.05000000    0.13000000
   16.19527626   80.14219666    0.05000000    0.13000000
   16.19861031   83.53929901    0.05000000    0.13000000
   16.20194435  100.33799744    0.05000000    0.13000000
   16.20499992   88.33580017    0.05000000    0.13000000
   16.20833397   84.32240295    0.05000000    0.13000000
   16.21166801   91.13320160    0.05000000    0.13000000
   16.21472359   83.70130157    0.05000000    0.13000000
   16.21805573  133.89500427    0.05000000    0.13000000
   16.22389030  133.89500427    0.05000000    0.13000000
   16.24250031   88.38990021    0.05000000    0.13000000
   16.24555588   84.19979858    0.05000000    0.13000000
   16.24888992   81.15899658    0.05000000    0.13000000
   16.25222206   81.39579773    0.05000000    0.13000000
   16.25527763   75.36460114    0.05000000    0.13000000
   16.25861168   91.95120239    0.05000000    0.13000000
   16.26166725   87.38960266    0.05000000    0.13000000
   16.26722145   87.38960266    0.05000000    0.13000000
   16.27111053   80.31120300    0.05000000    0.13000000
   16.27444458   78.66100311    0.05000000    0.13000000
   16.27555466   81.96790314    0.05000000    0.13000000
   16.27805519   79.64900208    0.05000000    0.13000000
   16.28138924   78.72319794    0.05000000    0.13000000
   16.28444481   79.17970276    0.05000000    0.13000000
   16.28777695   75.59310150    0.05000000    0.13000000
   16.29111099   77.67600250    0.05000000    0.13000000
   16.29416656   77.15409851    0.05000000    0.13000000
   16.29749870   77.61599731    0.05000000    0.13000000
   16.30083275   81.14710236    0.05000000    0.13000000
   16.30388832   80.03389740    0.05000000    0.13000000
   16.30999947   80.03389740    0.05000000    0.13000000
   16.31416512   81.09169769    0.05000000    0.13000000
   16.31722260   81.62809753    0.05000000    0.13000000
   16.32055664   79.57749939    0.05000000    0.13000000
   16.32389069   80.17900085    0.05000000    0.13000000
   16.32722282   79.00189972    0.05000000    0.13000000
   16.33027840   81.52010345    0.05000000    0.13000000
   16.33361244   82.35369873    0.05000000    0.13000000
   16.33694458   84.32700348    0.05000000    0.13000000
   16.34000015   80.12210083    0.05000000    0.13000000
   16.34222221   86.71669769    0.05000000    0.13000000
   16.34361267   82.98229980    0.05000000    0.13000000
   16.34694481   80.83619690    0.05000000    0.13000000
   16.35277748   80.83619690    0.05000000    0.13000000
   16.35694504   80.18800354    0.05000000    0.13000000
   16.36027908   82.63480377    0.05000000    0.13000000
   16.36333466   80.27760315    0.05000000    0.13000000
   16.36666679   80.02890015    0.05000000    0.13000000
   16.37000084   88.62409973    0.05000000    0.13000000
   16.37305641  106.55000305    0.05000000    0.13000000
   16.37555504   85.80039978    0.05000000    0.13000000
   16.37666702   78.71679688    0.05000000    0.13000000
   16.38000107  115.62899780    0.05000000    0.13000000
   16.38333321  101.83999634    0.05000000    0.13000000
   16.38638878   84.32389832    0.05000000    0.13000000
   16.38972282   86.46050262    0.05000000    0.13000000
   16.39555550   86.46050262    0.05000000    0.13000000
   16.39972115  187.71499634    0.05000000    0.13000000
   16.40305519  373.33401489    0.05000000    0.13000000
   16.40611076   96.13169861    0.05000000    0.13000000
   16.40888786  133.08900452    0.05000000    0.13000000
   16.40999985   -1.00000000    0.05000000    0.13000000
   16.41305542   -1.00000000    0.05000000    0.13000000
   16.41638756  194.79299927    0.05000000    0.13000000
   16.41944313   99.84809875    0.05000000    0.13000000
   16.42277718   85.12770081    0.05000000    0.13000000
   16.42611122   87.93930054    0.05000000    0.13000000
   16.42916679  258.93399048    0.05000000    0.13000000
   16.43249893  191.49099731    0.05000000    0.13000000
   16.43861008  191.49099731    0.05000000    0.13000000
   16.44249916  124.45099640    0.05000000    0.13000000
   16.44583321   95.21880341    0.05000000    0.13000000
   16.44916534  124.80899811    0.05000000    0.13000000
   16.45222282  113.93399811    0.05000000    0.13000000
   16.45555687  252.71800232    0.05000000    0.13000000
   16.45888901  109.92199707    0.05000000    0.13000000
   16.46194458   82.09880066    0.05000000    0.13000000
   16.46527863  194.09199524    0.05000000    0.13000000
   16.46833420   99.61710358    0.05000000    0.13000000
   16.47166634  163.70799255    0.05000000    0.13000000
   16.47500038  169.97700500    0.05000000    0.13000000
   16.47555542  247.06500244    0.05000000    0.13000000
   16.48139000  247.06500244    0.05000000    0.13000000
   16.48555565  106.48999786    0.05000000    0.13000000
   16.48861122   87.96630096    0.05000000    0.13000000
   16.49194527  162.19400024    0.05000000    0.13000000
   16.49500084  124.65599823    0.05000000    0.13000000
   16.49833298   -1.00000000    0.05000000    0.13000000
   16.50166702   93.06060028    0.05000000    0.13000000
   16.50472260  100.89099884    0.05000000    0.13000000
   16.50805473   88.10530090    0.05000000    0.13000000
   16.50888824  125.93299866    0.05000000    0.13000000
   16.51166725  163.78599548    0.05000000    0.13000000
   16.51499939  103.58200073    0.05000000    0.13000000
   16.51833344  137.64500427    0.05000000    0.13000000
   16.52416611  137.64500427    0.05000000    0.13000000
   16.52833366  169.75500488    0.05000000    0.13000000
   16.53138924  121.48200226    0.05000000    0.13000000
   16.53472137  105.45600128    0.05000000    0.13000000
   16.53805542   97.69290161    0.05000000    0.13000000
   16.54111099  306.37500000    0.05000000    0.13000000
   16.54222107  116.01699829    0.05000000    0.13000000
   16.54472160   94.07340240    0.05000000    0.13000000
   16.54805565   81.50330353    0.05000000    0.13000000
   16.55138779  164.21099854    0.05000000    0.13000000
   16.55444336   88.69809723    0.05000000    0.13000000
   16.55777740   87.30709839    0.05000000    0.13000000
   16.56083298   82.12640381    0.05000000    0.13000000
   16.56694603   82.12640381    0.05000000    0.13000000
   16.57111168   78.90219879    0.05000000    0.13000000
   16.57444572   84.66860199    0.05000000    0.13000000
   16.57555580   88.51959991    0.05000000    0.13000000
   16.57777786   -1.00000000    0.05000000    0.13000000
   16.58111191  110.38899994    0.05000000    0.13000000
   16.58444595  125.91200256    0.05000000    0.13000000
   16.58750153  111.21800232    0.05000000    0.13000000
   16.59083366  132.66400146    0.05000000    0.13000000
   16.59388924  103.74900055    0.05000000    0.13000000
   16.59722328   82.11650085    0.05000000    0.13000000
   16.60055542  147.58399963    0.05000000    0.13000000
   16.60361099   98.70469666    0.05000000    0.13000000
   16.60972214   98.70469666    0.05000000    0.13000000
   16.61388969   87.80180359    0.05000000    0.13000000
   16.61722183   79.55439758    0.05000000    0.13000000
   16.62055588   84.02980042    0.05000000    0.13000000
   16.62361145   91.14510345    0.05000000    0.13000000
   16.62694550   81.78299713    0.05000000    0.13000000
   16.63000107  188.85099792    0.05000000    0.13000000
   16.63333321  168.53999329    0.05000000    0.13000000
   16.63666725   91.56169891    0.05000000    0.13000000
   16.63972282   81.72360229    0.05000000    0.13000000
   16.64222145   95.71320343    0.05000000    0.13000000
   16.64333344   78.93419647    0.05000000    0.13000000
   16.64666748   84.60160065    0.05000000    0.13000000
   16.65277672   84.60160065    0.05000000    0.13000000
   16.65694427  124.19799805    0.05000000    0.13000000
   16.65999985   84.96170044    0.05000000    0.13000000
   16.66333389  132.08599854    0.05000000    0.13000000
   16.66666603   89.12799835    0.05000000    0.13000000
   16.66972160   90.13580322    0.05000000    0.13000000
   16.67305565   88.98750305    0.05000000    0.13000000
   16.67555428  188.71899414    0.05000000    0.13000000
   16.67638779   88.57959747    0.05000000    0.13000000
   16.67972183  111.41600037    0.05000000    0.13000000
   16.68305397  125.39399719    0.05000000    0.13000000
   16.68610954   79.79440308    0.05000000    0.13000000
   16.68944359   82.97760010    0.05000000    0.13000000
   16.69555473   82.97760010    0.05000000    0.13000000
   16.69972038   88.08380127    0.05000000    0.13000000
   16.70305634  109.87500000    0.05000000    0.13000000
   16.70611191   86.61250305    0.05000000    0.13000000
   16.70888901   89.37139893    0.05000000    0.13000000
   16.70972252  159.39500427    0.05000000    0.13000000
   16.71305656   79.86689758    0.05000000    0.13000000
   16.71638870  101.49600220    0.05000000    0.13000000
   16.71944427  116.67400360    0.05000000    0.13000000
   16.72277832  101.13800049    0.05000000    0.13000000
   16.72611237   87.14920044    0.05000000    0.13000000
   16.72916794   98.73159790    0.05000000    0.13000000
   16.73250008  117.04399872    0.05000000    0.13000000
   16.73833275  117.04399872    0.05000000    0.13000000
   16.74250031   87.22920227    0.05000000    0.13000000
   16.74583435  123.99400330    0.05000000    0.13000000
   16.74916649  101.55999756    0.05000000    0.13000000
   16.75222206  105.85099792    0.05000000    0.13000000
   16.75555611  172.24499512    0.05000000    0.13000000
   16.75861168   88.01709747    0.05000000    0.13000000
   16.76194382  104.61499786    0.05000000    0.13000000
   16.76527786  154.94299316    0.05000000    0.13000000
   16.76833344  142.33200073    0.05000000    0.13000000
   16.77166557   98.95169830    0.05000000    0.13000000
   16.77499962  109.37100220    0.05000000    0.13000000
   16.77555466  106.06600189    0.05000000    0.13000000
   16.78111076  106.06600189    0.05000000    0.13000000
   16.78527641   89.15419769    0.05000000    0.13000000
   16.78861046  104.04100037    0.05000000    0.13000000
   16.79194450   85.26149750    0.05000000    0.13000000
   16.79500008   88.77320099    0.05000000    0.13000000
   16.79833221  110.05000305    0.05000000    0.13000000
   16.80138779   87.23560333    0.05000000    0.13000000
   16.80472183   96.49060059    0.05000000    0.13000000
   16.80805397   94.65720367    0.05000000    0.13000000
   16.80888748   89.14320374    0.05000000    0.13000000
   16.81138802   87.17990112    0.05000000    0.13000000
   16.81472206   87.36720276    0.05000000    0.13000000
   16.81805611   85.38379669    0.05000000    0.13000000
   16.82416725   85.38379669    0.05000000    0.13000000
   16.82833481   96.53299713    0.05000000    0.13000000
   16.83139038   82.66230011    0.05000000    0.13000000
   16.83472252   86.70369720    0.05000000    0.13000000
   16.83777809   88.23989868    0.05000000    0.13000000
   16.84111214   84.07050323    0.05000000    0.13000000
   16.84222221   86.97859955    0.05000000    0.13000000
   16.84472275   92.96810150    0.05000000    0.13000000
   16.84805679   82.60690308    0.05000000    0.13000000
   16.85138893   95.25070190    0.05000000    0.13000000
   16.85444450   86.08670044    0.05000000    0.13000000
   16.85777855   82.70310211    0.05000000    0.13000000
   16.86111069   86.24449921    0.05000000    0.13000000
   16.86694527   86.24449921    0.05000000    0.13000000
   16.87111092   88.22760010    0.05000000    0.13000000
   16.87416649   82.82460022    0.05000000    0.13000000
   16.87555504   80.48359680    0.05000000    0.13000000
   16.87777710   80.27729797    0.05000000    0.13000000
   16.88111115   81.65290070    0.05000000    0.13000000
   16.88444519   78.52410126    0.05000000    0.13000000
   16.88750076   77.02929688    0.05000000    0.13000000
   16.89083290   83.54360199    0.05000000    0.13000000
   16.89416695   73.42199707    0.05000000    0.13000000
   16.89722252   78.33489990    0.05000000    0.13000000
   16.90055466   89.99279785    0.05000000    0.13000000
   16.90361023   81.05699921    0.05000000    0.13000000
   16.90972137   81.05699921    0.05000000    0.13000000
   16.91388893   82.63169861    0.05000000    0.13000000
   16.91722107   75.36940002    0.05000000    0.13000000
   16.92027664   79.40160370    0.05000000    0.13000000
   16.92361069   88.00240326    0.05000000    0.13000000
   16.92694473   80.06739807    0.05000000    0.13000000
   16.93000031   77.72280121    0.05000000    0.13000000
   16.93333244   82.39579773    0.05000000    0.13000000
   16.93638802   80.29129791    0.05000000    0.13000000
   16.93972206   89.75769806    0.05000000    0.13000000
   16.94222069   87.83439636    0.05000000    0.13000000
   16.94361115   81.23339844    0.05000000    0.13000000
   16.94666672   89.32489777    0.05000000    0.13000000
   16.95250130   89.32489777    0.05000000    0.13000000
   16.95666695   75.89009857    0.05000000    0.13000000
   16.96000099   81.16349792    0.05000000    0.13000000
   16.96305656   83.03489685    0.05000000    0.13000000
   16.96638870   75.65979767    0.05000000    0.13000000
   16.96972275   78.91919708    0.05000000    0.13000000
   16.97277832   82.50119781    0.05000000    0.13000000
   16.97555542   95.88099670    0.05000000    0.13000000
   16.97666740   81.10299683    0.05000000    0.13000000
   16.97972298   85.44570160    0.05000000    0.13000000
   16.98305511   92.27330017    0.05000000    0.13000000
   16.98611069   80.61090088    0.05000000    0.13000000
   16.98944473  115.47899628    0.05000000    0.13000000
   16.99555588  115.47899628    0.05000000    0.13000000
   16.99944496   82.92939758    0.05000000    0.13000000
   17.00277710   79.03639984    0.05000000    0.13000000
   17.00611115   77.23930359    0.05000000    0.13000000
   17.00888824   74.59439850    0.05000000    0.13000000
   17.00972176   76.76059723    0.05000000    0.13000000
   17.01277733   79.56929779    0.05000000    0.13000000
   17.01611137   81.37860107    0.05000000    0.13000000
   17.01916695   85.31310272    0.05000000    0.13000000
   17.02249908   81.63150024    0.05000000    0.13000000
   17.02583313   81.33149719    0.05000000    0.13000000
   17.02888870   78.79429626    0.05000000    0.13000000
   17.03222275   93.97820282    0.05000000    0.13000000
   17.03833199   93.97820282    0.05000000    0.13000000
   17.04249954   79.16280365    0.05000000    0.13000000
   17.04555511   79.34140015    0.05000000    0.13000000
   17.04888916   77.42400360    0.05000000    0.13000000
   17.05222130   79.28279877    0.05000000    0.13000000
   17.05527687   76.17459869    0.05000000    0.13000000
   17.05861092   81.26560211    0.05000000    0.13000000
   17.06166649   77.89009857    0.05000000    0.13000000
   17.06499863   78.04270172    0.05000000    0.13000000
   17.06833458   77.61920166    0.05000000    0.13000000
   17.07139015   77.26629639    0.05000000    0.13000000
   17.07472229   80.09750366    0.05000000    0.13000000
   17.07555580   83.61380005    0.05000000    0.13000000
   17.08111191   83.61380005    0.05000000    0.13000000
   17.08527756   74.23930359    0.05000000    0.13000000
   17.08861160   80.53649902    0.05000000    0.13000000
   17.09166718   73.87470245    0.05000000    0.13000000
   17.09500122   78.21679688    0.05000000    0.13000000
   17.09833336   80.24759674    0.05000000    0.13000000
   17.10138893   79.32620239    0.05000000    0.13000000
   17.10472298   79.21849823    0.05000000    0.13000000
   17.10805511   79.20670319    0.05000000    0.13000000
   17.10888863   81.59909821    0.05000000    0.13000000
   17.11166763   84.04519653    0.05000000    0.13000000
   17.11472321   77.47709656    0.05000000    0.13000000
   17.11805534   78.51519775    0.05000000    0.13000000
   17.12388992   78.51519775    0.05000000    0.13000000
   17.12805557   77.54799652    0.05000000    0.13000000
   17.13138962   77.40010071    0.05000000    0.13000000
   17.13472176   78.43150330    0.05000000    0.13000000
   17.13777733   76.88890076    0.05000000    0.13000000
   17.14111137   77.54560089    0.05000000    0.13000000
   17.14222145   75.47039795    0.05000000    0.13000000
   17.14472198   80.10169983    0.05000000    0.13000000
   17.14777756   76.83940125    0.05000000    0.13000000
   17.15111160   77.21360016    0.05000000    0.13000000
   17.15416718   74.82510376    0.05000000    0.13000000
   17.15749931   78.66359711    0.05000000    0.13000000
   17.16083336   77.68609619    0.05000000    0.13000000
   17.16694450   77.68609619    0.05000000    0.13000000
   17.17083359   76.80840302    0.05000000    0.13000000
   17.17416573   83.74629974    0.05000000    0.13000000
   17.17555428   78.41619873    0.05000000    0.13000000
   17.17805481   75.95449829    0.05000000    0.13000000
   17.18111038   75.53510284    0.05000000    0.13000000
   17.18444443   74.80799866    0.05000000    0.13000000
   17.18777657   77.17630005    0.05000000    0.13000000
   17.19083214   75.33719635    0.05000000    0.13000000
   17.19416618   81.97509766    0.05000000    0.13000000
   17.19722176   77.27159882    0.05000000    0.13000000
   17.20055580   75.21610260    0.05000000    0.13000000
   17.20388985   76.33480072    0.05000000    0.13000000
   17.20972252   76.33480072    0.05000000    0.13000000
   17.21389008   82.18620300    0.05000000    0.13000000
   17.21694565   78.81690216    0.05000000    0.13000000
   17.22027779   77.40920258    0.05000000    0.13000000
   17.22361183   82.08309937    0.05000000    0.13000000
   17.22666740   81.09880066    0.05000000    0.13000000
   17.23000145   76.87760162    0.05000000    0.13000000
   17.23305511   78.55699921    0.05000000    0.13000000
   17.23638916   81.85890198    0.05000000    0.13000000
   17.23972321   78.67700195    0.05000000    0.13000000
   17.24222183   78.25610352    0.05000000    0.13000000
   17.26277733   78.25610352    0.05000000    0.13000000
   17.26694489   75.28350067    0.05000000    0.13000000
   17.27027702   78.81140137    0.05000000    0.13000000
   17.27333260   77.48239899    0.05000000    0.13000000
   17.27555466   80.54180145    0.05000000    0.13000000
   17.27722168   75.68399811    0.05000000    0.13000000
   17.28055573   77.88680267    0.05000000    0.13000000
   17.28361130   80.68379974    0.05000000    0.13000000
   17.28694344   80.67299652    0.05000000    0.13000000
   17.28999901   76.57089996    0.05000000    0.13000000
   17.29333305   80.12850189    0.05000000    0.13000000
   17.29666710   77.58809662    0.05000000    0.13000000
   17.29972076   80.46410370    0.05000000    0.13000000
   17.30555534   80.46410370    0.05000000    0.13000000
   17.30972099   81.14489746    0.05000000    0.13000000
   17.31305504   78.44799805    0.05000000    0.13000000
   17.31611061   81.23840332    0.05000000    0.13000000
   17.31944466   80.58180237    0.05000000    0.13000000
   17.32250023   83.19799805    0.05000000    0.13000000
   17.32583427   79.56759644    0.05000000    0.13000000
   17.32916832   84.07420349    0.05000000    0.13000000
   17.33222389   83.41079712    0.05000000    0.13000000
   17.33555603   83.19290161    0.05000000    0.13000000
   17.33889008   84.30439758    0.05000000    0.13000000
   17.34194565   80.26159668    0.05000000    0.13000000
   17.34250069   79.90889740    0.05000000    0.13000000
   17.34833336   79.90889740    0.05000000    0.13000000
   17.35250092   81.02790070    0.05000000    0.13000000
   17.35583305   78.17410278    0.05000000    0.13000000
   17.35888863   79.72480011    0.05000000    0.13000000
   17.36222267   77.43379974    0.05000000    0.13000000
   17.36555672   77.10549927    0.05000000    0.13000000
   17.36861038   76.61720276    0.05000000    0.13000000
   17.37194443   77.82700348    0.05000000    0.13000000
   17.37527847   74.13059998    0.05000000    0.13000000
   17.37583351   75.92099762    0.05000000    0.13000000
   17.37888908   81.43039703    0.05000000    0.13000000
   17.38194466   81.86250305    0.05000000    0.13000000
   17.38527679   77.45310211    0.05000000    0.13000000
   17.39138794   77.45310211    0.05000000    0.13000000
   17.39527702   73.93430328    0.05000000    0.13000000
   17.39861107   74.75749969    0.05000000    0.13000000
   17.40194321   77.15899658    0.05000000    0.13000000
   17.40499878   80.11109924    0.05000000    0.13000000
   17.40833282   78.96900177    0.05000000    0.13000000
   17.40916634   80.92960358    0.05000000    0.13000000
   17.41194344   79.22470093    0.05000000    0.13000000
   17.41499901   81.39880371    0.05000000    0.13000000
   17.41833305   81.21990204    0.05000000    0.13000000
   17.42166519   79.96450043    0.05000000    0.13000000
   17.42472076   80.55989838    0.05000000    0.13000000
   17.42805481   78.45649719    0.05000000    0.13000000
   17.43416595   78.45649719    0.05000000    0.13000000
   17.43833160   81.04969788    0.05000000    0.13000000
   17.44138718   79.11260223    0.05000000    0.13000000
   17.44249916   81.00340271    0.05000000    0.13000000
   17.44527626   79.36830139    0.05000000    0.13000000
   17.44833183   76.93150330    0.05000000    0.13000000
   17.45166779   78.07579803    0.05000000    0.13000000
   17.45499992   77.42960358    0.05000000    0.13000000
   17.45805550   75.39949799    0.05000000    0.13000000
   17.46138954   78.15339661    0.05000000    0.13000000
   17.46472359   75.17610168    0.05000000    0.13000000
   17.46777916   78.14179993    0.05000000    0.13000000
   17.47111130   80.33719635    0.05000000    0.13000000
   17.47694588   80.33719635    0.05000000    0.13000000
   17.48111153   76.67990112    0.05000000    0.13000000
   17.48444557   78.63539886    0.05000000    0.13000000
   17.48750114   77.92130280    0.05000000    0.13000000
   17.49083328   79.10420227    0.05000000    0.13000000
   17.49388885   83.92030334    0.05000000    0.13000000
   17.49722290   80.33149719    0.05000000    0.13000000
   17.50055504   80.24120331    0.05000000    0.13000000
   17.50361061   84.57479858    0.05000000    0.13000000
   17.50694466   80.84880066    0.05000000    0.13000000
   17.50916672   79.11699677    0.05000000    0.13000000
   17.51055527   82.03479767    0.05000000    0.13000000
   17.51361084   83.10669708    0.05000000    0.13000000
   17.51972198   83.10669708    0.05000000    0.13000000
   17.52388954   80.08039856    0.05000000    0.13000000
   17.52722168   79.85790253    0.05000000    0.13000000
   17.53027725   79.63279724    0.05000000    0.13000000
   17.53361130   81.22889709    0.05000000    0.13000000
   17.53694344   79.48549652    0.05000000    0.13000000
   17.53999901   80.31710052    0.05000000    0.13000000
   17.54277802   75.26409912    0.05000000    0.13000000
   17.54416656   74.87339783    0.05000000    0.13000000
   17.54749870   78.04779816    0.05000000    0.13000000
   17.55055428   80.81719971    0.05000000    0.13000000
   17.55388832   75.60510254    0.05000000    0.13000000
   17.55722237   82.53009796    0.05000000    0.13000000
   17.56250000   82.53009796    0.05000000    0.13000000
   17.56666756   70.37020111    0.05000000    0.13000000
   17.57000160   81.15599823    0.05000000    0.13000000
   17.57333374   78.49310303    0.05000000    0.13000000
   17.57583427   76.86779785    0.05000000    0.13000000
   17.57694626   77.14089966    0.05000000    0.13000000
   17.58000183   78.75119781    0.05000000    0.13000000
   17.58333397   82.01460266    0.05000000    0.13000000
   17.58666801   78.06030273    0.05000000    0.13000000
   17.58972359   78.54100037    0.05000000    0.13000000
   17.59305573   74.59210205    0.05000000    0.13000000
   17.59638977   74.39790344    0.05000000    0.13000000
   17.59944534   82.12580109    0.05000000    0.13000000
   17.60555649   82.12580109    0.05000000    0.13000000
   17.60972214   79.48629761    0.05000000    0.13000000
   17.61277771   80.54720306    0.05000000    0.13000000
   17.61611176   78.86080170    0.05000000    0.13000000
   17.61916733   77.18560028    0.05000000    0.13000000
   17.62249947   80.94149780    0.05000000    0.13000000
   17.62583351   77.96549988    0.05000000    0.13000000
   17.62888908   76.50279999    0.05000000    0.13000000
   17.63222313   80.57309723    0.05000000    0.13000000
   17.63555527   79.67130280    0.05000000    0.13000000
   17.63861084   78.60070038    0.05000000    0.13000000
   17.64194489   79.72190094    0.05000000    0.13000000
   17.64249992   77.89299774    0.05000000    0.13000000
   17.64833260   77.89299774    0.05000000    0.13000000
   17.65250015   76.75509644    0.05000000    0.13000000
   17.65555573   81.37090302    0.05000000    0.13000000
   17.65888786   78.16470337    0.05000000    0.13000000
   17.66222191   77.28510284    0.05000000    0.13000000
   17.66527748   76.16989899    0.05000000    0.13000000
   17.66860962   75.94360352    0.05000000    0.13000000
   17.67194366   78.22229767    0.05000000    0.13000000
   17.67499924   77.49279785    0.05000000    0.13000000
   17.67583275   78.87719727    0.05000000    0.13000000
   17.67860985   80.47080231    0.05000000    0.13000000
   17.68166542   80.72869873    0.05000000    0.13000000
   17.68499947   79.54090118    0.05000000    0.13000000
   17.69111061   79.54090118    0.05000000    0.13000000
   17.69527626   81.10890198    0.05000000    0.13000000
   17.69861031   77.84249878    0.05000000    0.13000000
   17.70166779   79.38449860    0.05000000    0.13000000
   17.70499992   78.74500275    0.05000000    0.13000000
   17.70833397   78.73419952    0.05000000    0.13000000
   17.70916748   75.76480103    0.05000000    0.13000000
   17.71194458   81.64320374    0.05000000    0.13000000
   17.71527863   79.51380157    0.05000000    0.13000000
   17.71833420   76.26750183    0.05000000    0.13000000
   17.72166634   78.10549927    0.05000000    0.13000000
   17.72472191   81.71669769    0.05000000    0.13000000
   17.72805595   79.01930237    0.05000000    0.13000000
   17.73388863   79.01930237    0.05000000    0.13000000
   17.73805618   74.88950348    0.05000000    0.13000000
   17.74138832   76.47619629    0.05000000    0.13000000
   17.74250031   74.49880219    0.05000000    0.13000000
   17.74500084   77.45279694    0.05000000    0.13000000
   17.74833298   77.67720032    0.05000000    0.13000000
   17.75138855   77.57440186    0.05000000    0.13000000
   17.75472260   79.19550323    0.05000000    0.13000000
   17.75777817   79.98390198    0.05000000    0.13000000
   17.76111031   81.39779663    0.05000000    0.13000000
   17.76444435   79.41239929    0.05000000    0.13000000
   17.76749992   88.08450317    0.05000000    0.13000000
   17.77083397   77.06919861    0.05000000    0.13000000
   17.77694511   77.06919861    0.05000000    0.13000000
   17.78111076   79.25409698    0.05000000    0.13000000
   17.78416634   77.72730255    0.05000000    0.13000000
   17.78750038  120.11699677    0.05000000    0.13000000
   17.79055595   -1.00000000    0.05000000    0.13000000
   17.79388809   93.70259857    0.05000000    0.13000000
   17.79722214   93.57730103    0.05000000    0.13000000
   17.80027771  174.92300415    0.05000000    0.13000000
   17.80360985   84.59230042    0.05000000    0.13000000
   17.80694389   77.69390106    0.05000000    0.13000000
   17.80916595   82.21949768    0.05000000    0.13000000
   17.81055450   77.47460175    0.05000000    0.13000000
   17.81388855   80.95179749    0.05000000    0.13000000
   17.81972313   80.95179749    0.05000000    0.13000000
   17.82389069   79.51689911    0.05000000    0.13000000
   17.82694626   79.17990112    0.05000000    0.13000000
   17.83027840   83.04910278    0.05000000    0.13000000
   17.83361244   82.82189941    0.05000000    0.13000000
   17.83666801   85.38230133    0.05000000    0.13000000
   17.84000015   78.24919891    0.05000000    0.13000000
   17.84250069   79.00959778    0.05000000    0.13000000
   17.84361267   80.44049835    0.05000000    0.13000000
   17.84694481   82.35410309    0.05000000    0.13000000
   17.85000038   77.82649994    0.05000000    0.13000000
   17.85333443   78.54409790    0.05000000    0.13000000
   17.85639000   78.66359711    0.05000000    0.13000000
   17.86250114   78.66359711    0.05000000    0.13000000
   17.86666679   78.71150208    0.05000000    0.13000000
   17.87000084   80.58619690    0.05000000    0.13000000
   17.87305641   81.01110077    0.05000000    0.13000000
   17.87583351   76.69950104    0.05000000    0.13000000
   17.87666702   77.26629639    0.05000000    0.13000000
   17.88000107   78.82420349    0.05000000    0.13000000
   17.88333321   78.21360016    0.05000000    0.13000000
   17.88638878   77.97509766    0.05000000    0.13000000
   17.88972282   78.72650146    0.05000000    0.13000000
   17.89277840   78.71849823    0.05000000    0.13000000
   17.89611053   81.81659698    0.05000000    0.13000000
   17.89944458   83.27369690    0.05000000    0.13000000
   17.90527725   83.27369690    0.05000000    0.13000000
   17.90944481   79.22100067    0.05000000    0.13000000
   17.91277695   81.95700073    0.05000000    0.13000000
   17.91611099   81.81379700    0.05000000    0.13000000
   17.91916656   80.39230347    0.05000000    0.13000000
   17.92249870   80.56109619    0.05000000    0.13000000
   17.92555428   81.38569641    0.05000000    0.13000000
   17.92888832   82.82550049    0.05000000    0.13000000
   17.93222237   80.01439667    0.05000000    0.13000000
   17.93527603   77.88829803    0.05000000    0.13000000
   17.93861008   79.97560120    0.05000000    0.13000000
   17.94194412  118.59500122    0.05000000    0.13000000
   17.94277763  108.69599915    0.05000000    0.13000000
   17.94833183  108.69599915    0.05000000    0.13000000
   17.95250130   78.46150208    0.05000000    0.13000000
   17.95555687   80.20290375    0.05000000    0.13000000
   17.95888901   85.41239929    0.05000000    0.13000000
