    HOUR (UT)   FLARE FACTOR    SKY TESTER    SUN TESTER
   12.23805618   -1.00000000   -1.00000000   -1.00000000
   12.26194477  190.58000183    0.81999999    1.80999994
   12.26527786  127.77999878    0.81999999    1.80999994
   12.26833344  152.55000305    0.81999999    1.80999994
   12.27166653  115.45300293    0.81999999    1.80999994
   12.27499962  131.93699646    0.81999999    1.80999994
   12.27805519  121.98600006    0.81999999    1.80999994
   12.28222179  121.98600006    0.81999999    1.83000004
   12.28638935  132.67100525    0.81999999    1.83000004
   12.28972244  116.66899872    0.81999999    1.83000004
   12.29277802  138.78500366    0.81999999    1.83000004
   12.29500008  126.85399628    0.81999999    1.85000002
   12.29666710  145.27900696    0.81999999    1.85000002
   12.29972267  138.22599792    0.81999999    1.85000002
   12.30305576  122.61699677    0.81999999    1.85000002
   12.30638885  118.63200378    0.81999999    1.86000001
   12.30944443  124.60299683    0.81999999    1.85000002
   12.31277752  126.45700073    0.80000001    1.85000002
   12.31611156  109.13700104    0.80000001    1.85000002
   12.31944466  104.57099915    0.80000001    1.85000002
   12.32499981  104.57099915    0.80000001    1.86000001
   12.32916641  139.44299316    0.80000001    1.86000001
   12.33249950  104.10600281    0.80000001    1.88000000
   12.33583260  118.13600159    0.79000002    1.88000000
   12.33888817  105.32900238    0.80000001    1.88000000
   12.34222221  134.34500122    0.79000002    1.88000000
   12.34555531  108.83300018    0.79000002    1.88000000
   12.34861088  104.84600067    0.79000002    1.89999998
   12.35194492   98.97059631    0.79000002    1.89999998
   12.35527802  119.41100311    0.79000002    1.89999998
   12.35833359  122.51699829    0.79000002    1.89999998
   12.36166668  113.74299622    0.79000002    1.89999998
   12.36222267  121.07800293    0.79000002    1.89999998
   12.36805534  121.07800293    0.76999998    1.89999998
   12.37222195   98.24800110    0.76999998    1.89999998
   12.37527752  160.83399963    0.76999998    1.89999998
   12.37861156  115.28199768    0.76999998    1.91999996
   12.38194466  105.83100128    0.76999998    1.91999996
   12.38500023  118.44100189    0.76999998    1.91999996
   12.38833332  122.04599762    0.76999998    1.91999996
   12.39138889  128.06199646    0.75000000    1.91999996
   12.39472198  128.05599976    0.75000000    1.91999996
   12.39527798  103.79699707    0.75000000    1.91999996
   12.39861107  105.01699829    0.75000000    1.91999996
   12.40194416  116.64099884    0.75000000    1.91999996
   12.40499973  103.30799866    0.75000000    1.91999996
   12.41083336  103.30799866    0.75000000    1.91999996
   12.41499996  100.03900146    0.73000002    1.94000006
   12.41805553  103.34200287    0.73000002    1.94000006
   12.42138958  117.83899689    0.73000002    1.94000006
   12.42472267  115.68599701    0.73000002    1.94000006
   12.42777824  102.31400299    0.70999998    1.96000004
   12.42861176   97.13430023    0.70999998    1.96000004
   12.43166733   98.66880035    0.70999998    1.96000004
   12.43472195  125.02799988    0.70999998    1.96000004
   12.43805599   98.15409851    0.70999998    1.96000004
   12.44138908  106.94100189    0.70999998    1.96000004
   12.44444466  128.59700012    0.70999998    1.96000004
   12.44777775   94.94300079    0.70999998    1.96000004
   12.45361137   94.94300079    0.70999998    1.96000004
   12.45861053  101.41200256    0.70999998    1.98000002
   12.46166611  118.28099823    0.69000000    1.98000002
   12.46222210   93.99330139    0.69000000    1.98000002
   12.46555519  122.28900146    0.69000000    1.98000002
   12.46888828  100.76000214    0.69000000    1.98000002
   12.47194386   96.16889954    0.69000000    1.98000002
   12.47527695  108.78299713    0.69000000    1.98000002
   12.47861099  110.17400360    0.69000000    1.98000002
   12.48166656  112.80000305    0.67000002    1.98000002
   12.48500061  102.11000061    0.69000000    2.00000000
   12.48805618  116.26599884    0.69000000    2.00000000
   12.49138927  120.12100220    0.67000002    2.00000000
   12.49638939  120.12100220    0.69000000    2.00000000
   12.50055599  115.42900085    0.67000002    2.00000000
   12.50388908  118.68699646    0.67000002    2.00000000
   12.50722218  132.95599365    0.67000002    2.00000000
   12.51027775  138.55000305    0.67000002    2.00000000
   12.51361084  141.43800354    0.67000002    2.01999998
   12.51694393  110.28199768    0.67000002    2.01999998
   12.51999950  124.89600372    0.64999998    2.01999998
   12.52333355  114.71299744    0.64999998    2.01999998
   12.52638817  107.58599854    0.64999998    2.01999998
   12.52888870  148.20599365    0.67000002    2.01999998
   12.53027725  117.15299988    0.67000002    2.01999998
   12.53361130  117.09200287    0.64999998    2.01999998
   12.53944492  117.09200287    0.67000002    2.01999998
   12.54361153  113.62100220    0.64999998    2.03999996
   12.54666710  121.84999847    0.64999998    2.01999998
   12.55000019  119.26899719    0.64999998    2.03999996
   12.55305576  102.63099670    0.63000000    2.05999994
   12.55638885  120.61499786    0.63000000    2.05999994
   12.55972195  117.86000061    0.63000000    2.05999994
   12.56222248   99.38569641    0.63000000    2.03999996
   12.56333351  109.06700134    0.63000000    2.03999996
   12.56666660   98.93350220    0.63000000    2.03999996
   12.56972218  104.19499969    0.63000000    2.05999994
   12.57305527  112.30300140    0.63000000    2.03999996
   12.57638836  110.71399689    0.63000000    2.05999994
   12.58222198  110.71399689    0.63000000    2.05999994
   12.58638859  103.53399658    0.61000001    2.05999994
   12.58944416  112.35900116    0.61000001    2.05999994
   12.59277725   93.35540009    0.63000000    2.05999994
   12.59583282   96.34929657    0.61000001    2.07999992
   12.59638882   97.81379700    0.61000001    2.07999992
   12.59972191  113.80300140    0.61000001    2.07999992
   12.60277843   92.28919983    0.61000001    2.07999992
   12.60611153  105.23100281    0.61000001    2.07999992
   12.60944462   90.44740295    0.61000001    2.07999992
   12.61250019  112.09100342    0.58999997    2.07999992
   12.61583328  105.40399933    0.61000001    2.07999992
   12.61888885  108.38700104    0.61000001    2.07999992
   12.62500000  108.38700104    0.58999997    2.09999990
   12.62916660   87.61679840    0.58999997    2.09999990
   12.63249969  102.04000092    0.58999997    2.07999992
   12.63555527   96.53589630    0.58999997    2.09999990
   12.63888836  109.21399689    0.58999997    2.09999990
   12.64222240  106.30100250    0.58999997    2.09999990
   12.64527798  103.65899658    0.58999997    2.09999990
   12.64861107   94.68299866    0.58999997    2.09999990
   12.65194416   93.34390259    0.58999997    2.09999990
   12.65499973   92.25730133    0.56999999    2.09999990
   12.65833282   96.85659790    0.56999999    2.09999990
   12.66138840   92.91770172    0.56999999    2.11999989
   12.66222191   90.26000214    0.56999999    2.11999989
   12.66777802   90.26000214    0.58999997    2.11999989
   12.67194462   89.02539825    0.56999999    2.11999989
   12.67527771   88.63110352    0.56999999    2.11999989
   12.67861176  102.24700165    0.56999999    2.11999989
   12.68166733   86.72769928    0.56999999    2.11999989
   12.68500042  105.38200378    0.56999999    2.11999989
   12.68833351   93.54280090    0.56999999    2.11999989
   12.69138908   96.09249878    0.56999999    2.13000011
   12.69472218   94.76560211    0.56999999    2.11999989
   12.69583321  109.80999756    0.56999999    2.11999989
   12.69833374   93.60019684    0.56999999    2.11999989
   12.70166683   90.51000214    0.56999999    2.11999989
   12.70472240   98.50019836    0.56999999    2.11999989
   12.71083355   98.50019836    0.56999999    2.13000011
   12.71500015  101.41999817    0.56999999    2.13000011
   12.71805477   99.91020203    0.55000001    2.13000011
   12.72138882   91.01899719    0.55000001    2.13000011
   12.72444439   95.92340088    0.55000001    2.13000011
   12.72777748   99.72429657    0.55000001    2.15000010
   12.72888851   92.86889648    0.55000001    2.15000010
   12.73138809   93.40699768    0.55000001    2.15000010
   12.73472214  101.42900085    0.55000001    2.15000010
   12.73777771   94.87110138    0.55000001    2.15000010
   12.74111176  102.68000031    0.55000001    2.15000010
   12.74444485  112.23100281    0.55000001    2.15000010
   12.74750042   98.79029846    0.55000001    2.15000010
   12.75361156   98.79029846    0.55000001    2.15000010
   12.75777817  105.97100067    0.55000001    2.15000010
   12.76083374   93.88569641    0.55000001    2.15000010
   12.76222229  105.81199646    0.55000001    2.15000010
   12.76444435  101.18599701    0.55000001    2.17000008
   12.76777744   96.58470154    0.55000001    2.17000008
   12.77083302   98.15740204    0.55000001    2.17000008
   12.77416611   97.67579651    0.55000001    2.17000008
   12.77750015   95.70069885    0.55000001    2.17000008
   12.78055573   88.03130341    0.55000001    2.17000008
   12.78388977   90.24130249    0.52999997    2.17000008
   12.78722286   96.65390015    0.52999997    2.17000008
   12.79027843   90.94499969    0.52999997    2.17000008
   12.79638958   90.94499969    0.52999997    2.17000008
   12.80055618  106.25399780    0.52999997    2.19000006
   12.80388927  108.30599976    0.55000001    2.19000006
   12.80694485   93.57420349    0.52999997    2.19000006
   12.81027794  105.48000336    0.52999997    2.19000006
   12.81361103   93.70980072    0.52999997    2.19000006
   12.81666660  102.03500366    0.52999997    2.19000006
   12.81999969   92.13860321    0.52999997    2.19000006
   12.82305527  110.68399811    0.52999997    2.19000006
   12.82638836  109.78600311    0.52999997    2.19000006
   12.82916641  111.55699921    0.52999997    2.19000006
   12.82999992  100.31999969    0.51999998    2.21000004
   12.83333302  112.42500305    0.51999998    2.19000006
   12.83916664  112.42500305    0.52999997    2.21000004
   12.84333324  101.98200226    0.52999997    2.19000006
   12.84666634   94.78610229    0.52999997    2.19000006
   12.85000038  105.30000305    0.51999998    2.21000004
   12.85305595   93.43710327    0.51999998    2.21000004
   12.85638905   98.37249756    0.51999998    2.21000004
   12.85944462   95.06320190    0.52999997    2.21000004
   12.86250019  103.09799957    0.51999998    2.21000004
   12.86305618   93.19719696    0.51999998    2.21000004
   12.86638927  106.29399872    0.51999998    2.21000004
   12.86944485  110.02400208    0.52999997    2.21000004
   12.87277794   96.17659760    0.51999998    2.21000004
   12.87611103  104.33999634    0.51999998    2.21000004
   12.88222218  104.33999634    0.51999998    2.23000002
   12.88638878  103.84100342    0.52999997    2.21000004
   12.88944435   96.21309662    0.51999998    2.23000002
   12.89277744   99.15959930    0.51999998    2.23000002
   12.89583302   94.53910065    0.51999998    2.23000002
   12.89638901  112.11299896    0.51999998    2.23000002
   12.89972210  115.23600006    0.51999998    2.23000002
   12.90277767  111.26799774    0.51999998    2.23000002
   12.90611076  100.80200195    0.51999998    2.23000002
   12.90944386  106.19699860    0.51999998    2.23000002
   12.91249943  129.53300476    0.51999998    2.23000002
   12.91583252  119.37000275    0.51999998    2.23000002
   12.91916656  121.61100006    0.51999998    2.23000002
   12.92500019  121.61100006    0.51999998    2.23000002
   12.92916679   92.62359619    0.51999998    2.23000002
   12.93249989  105.54100037    0.51999998    2.25000000
   12.93583298  112.38899994    0.51999998    2.25000000
   12.93888855   92.44490051    0.50000000    2.23000002
   12.94222260   95.91419983    0.51999998    2.23000002
   12.94555569  102.77300262    0.51999998    2.25000000
   12.94861126  110.48400116    0.51999998    2.25000000
   12.95194435  105.68699646    0.51999998    2.25000000
   12.95499992   97.68910217    0.51999998    2.25000000
   12.95833302  126.80200195    0.51999998    2.25000000
   12.96166611  101.40399933    0.51999998    2.25000000
   12.96249962   92.28260040    0.51999998    2.25000000
   12.96777725   92.28260040    0.50000000    2.25000000
   12.97194386   95.97789764    0.51999998    2.25000000
   12.97527695   95.91459656    0.51999998    2.25000000
   12.97833252  116.30100250    0.51999998    2.26999998
   12.98166656  109.36599731    0.51999998    2.26999998
   12.98527813   98.88710022    0.51999998    2.26999998
   12.98833370   92.91889954    0.50000000    2.26999998
   12.99166679  104.85800171    0.50000000    2.26999998
   12.99499989   91.81069946    0.50000000    2.26999998
   12.99583340   91.41459656    0.50000000    2.26999998
   12.99833393   89.30280304    0.50000000    2.26999998
   13.00166702   96.53589630    0.50000000    2.26999998
   13.00500011  102.59100342    0.50000000    2.26999998
   13.01055527  102.59100342    0.50000000    2.26999998
   13.01472187   99.52700043    0.50000000    2.26999998
   13.01805496   96.35780334    0.50000000    2.26999998
   13.02138901   97.69599915    0.50000000    2.26999998
   13.02444458  108.39099884    0.50000000    2.26999998
   13.02777767   95.87229919    0.50000000    2.28999996
   13.02916622   96.52529907    0.50000000    2.28999996
   13.03138828   98.07759857    0.50000000    2.26999998
   13.03472233   89.52010345    0.50000000    2.28999996
   13.03805637   96.21700287    0.50000000    2.26999998
   13.04111195  100.15200043    0.50000000    2.26999998
   13.04444504   88.85829926    0.50000000    2.26999998
   13.04750061   90.35970306    0.50000000    2.26999998
   13.05361176   90.35970306    0.50000000    2.26999998
   13.05777836  111.37799835    0.50000000    2.26999998
   13.06083393   92.91269684    0.50000000    2.26999998
   13.06250000   97.49530029    0.50000000    2.28999996
   13.06444454  100.77700043    0.50000000    2.28999996
   13.06777763  104.88700104    0.50000000    2.28999996
   13.07111073  109.76200104    0.50000000    2.28999996
   13.07416630   93.60910034    0.50000000    2.28999996
   13.07750034  107.38400269    0.47999999    2.28999996
   13.08055592   92.21839905    0.50000000    2.28999996
   13.08388901   89.15670013    0.50000000    2.28999996
   13.08722210   97.76799774    0.50000000    2.28999996
   13.09027767   97.59600067    0.50000000    2.28999996
   13.09638882   97.59600067    0.50000000    2.28999996
   13.10055637  100.75800323    0.50000000    2.28999996
   13.10361195   89.86129761    0.47999999    2.28999996
   13.10694504   95.49819946    0.47999999    2.28999996
   13.11027813  101.27500153    0.47999999    2.28999996
   13.11361122   97.32479858    0.47999999    2.28999996
   13.11666679  109.61399841    0.47999999    2.30999994
   13.11999989  107.34999847    0.50000000    2.30999994
   13.12333393   95.81169891    0.47999999    2.30999994
   13.12666702   97.89739990    0.47999999    2.30999994
   13.12916660  100.09500122    0.47999999    2.30999994
   13.13000011  105.56300354    0.47999999    2.30999994
   13.13333321  103.93000031    0.47999999    2.30999994
   13.13916683  103.93000031    0.47999999    2.30999994
   13.14333344  107.62500000    0.47999999    2.30999994
   13.14666653   96.98999786    0.47999999    2.32999992
   13.14972210  102.23999786    0.47999999    2.32999992
   13.15305519  106.11599731    0.47999999    2.30999994
   13.15611076   96.91790009    0.47999999    2.30999994
   13.15944386  100.66200256    0.47999999    2.32999992
   13.16249943   96.40660095    0.47999999    2.30999994
   13.16305542  104.21099854    0.47999999    2.30999994
   13.16638851   90.70469666    0.47999999    2.30999994
   13.16972256   98.27149963    0.47999999    2.30999994
   13.17277813   94.45079803    0.47999999    2.30999994
   13.17611122   88.88870239    0.47999999    2.32999992
   13.18194485   88.88870239    0.47999999    2.32999992
   13.18611145   98.14649963    0.47999999    2.32999992
   13.18944454   97.96920013    0.47999999    2.32999992
   13.19250011   92.18479919    0.47999999    2.32999992
   13.19583321   96.82990265    0.46000001    2.32999992
   13.19611073   98.87529755    0.46000001    2.32999992
   13.19944477   91.93750000    0.47999999    2.32999992
   13.20277786   96.40570068    0.47999999    2.32999992
   13.20583344   88.09600067    0.47999999    2.32999992
   13.20916653   93.96430206    0.47999999    2.32999992
   13.21222210   96.00700378    0.46000001    2.32999992
   13.21555519  100.76300049    0.47999999    2.32999992
   13.21888828  102.24299622    0.46000001    2.32999992
   13.22499943  102.24299622    0.46000001    2.34999990
   13.22916603  112.28600311    0.46000001    2.32999992
   13.22944355  101.02600098    0.46000001    2.32999992
   13.23277760  107.60199738    0.46000001    2.34999990
   13.23611164   96.80829620    0.46000001    2.34999990
   13.23916721   90.09359741    0.46000001    2.34999990
   13.24250031   99.52449799    0.46000001    2.34999990
   13.24555588   98.90560150    0.46000001    2.34999990
   13.24888897   93.40910339    0.47999999    2.34999990
   13.25222206  100.84700012    0.47999999    2.34999990
   13.25527763   95.47260284    0.46000001    2.34999990
   13.25861073   88.31340027    0.47999999    2.34999990
   13.26194477   91.79709625    0.46000001    2.34999990
   13.27888870   95.82779694    0.46000001    2.34999990
   13.28305531   95.82779694    0.46000001    2.34999990
   13.28722286   96.32039642    0.46000001    2.34999990
   13.29055595   91.05100250    0.46000001    2.34999990
   13.29361153  110.56400299    0.46000001    2.34999990
   13.29694462  110.85199738    0.46000001    2.34999990
   13.30000019   88.29280090    0.46000001    2.36999989
   13.30333328   90.29900360    0.46000001    2.36999989
   13.30666733   95.71669769    0.46000001    2.34999990
   13.30972195   85.58339691    0.46000001    2.36999989
   13.31222248   98.41979980    0.46000001    2.36999989
   13.31333351   95.21050262    0.46000001    2.36999989
   13.31694412   91.27380371    0.46000001    2.36999989
   13.31999969   86.55190277    0.46000001    2.34999990
   13.32583332   86.55190277    0.46000001    2.36999989
   13.32999992   90.40850067    0.44000000    2.36999989
   13.33333302   96.55500031    0.46000001    2.36999989
   13.33638859   86.00550079    0.44000000    2.36999989
   13.33972168   91.95989990    0.44000000    2.36999989
   13.34305477   92.05599976    0.44000000    2.36999989
   13.34555531   85.44789886    0.44000000    2.36999989
   13.34638882   85.57520294    0.46000001    2.36999989
   13.34972191  105.67900085    0.46000001    2.36999989
   13.35305595   86.78350067    0.46000001    2.36999989
   13.35611153   90.94120026    0.46000001    2.39000010
   13.35944462   86.23349762    0.44000000    2.36999989
   13.36277771   83.12339783    0.44000000    2.36999989
   13.36888885   83.12339783    0.44000000    2.36999989
   13.37277794   83.19789886    0.44000000    2.39000010
   13.37611103   89.60649872    0.44000000    2.39000010
   13.37888908   81.59680176    0.44000000    2.39000010
   13.37972260   87.06659698    0.44000000    2.39000010
   13.38305569   90.93209839    0.44000000    2.39000010
   13.38638878   84.37079620    0.44000000    2.39000010
   13.38944435   96.45120239    0.44000000    2.39000010
   13.39277744   87.85910034    0.44000000    2.39000010
   13.39611053   95.46790314    0.44000000    2.39000010
   13.39916611   85.93750000    0.44000000    2.39000010
   13.40249920   89.06670380    0.44000000    2.39000010
   13.40555477   86.63439941    0.44000000    2.39000010
   13.41166592   86.63439941    0.44000000    2.39000010
   13.41583252   89.99739838    0.44000000    2.39000010
   13.41888905   84.75240326    0.44000000    2.39000010
   13.42222214   84.74610138    0.41999999    2.40000010
   13.42555618   82.31950378    0.41999999    2.39000010
   13.42888927   86.66059875    0.44000000    2.39000010
   13.43194485   86.81469727    0.44000000    2.39000010
   13.43527794   85.03440094    0.41999999    2.39000010
   13.43861103   85.30609894    0.44000000    2.39000010
   13.44166660   88.03769684    0.41999999    2.39000010
   13.44499969   87.94930267    0.41999999    2.40000010
   13.44666672   81.06349945    0.41999999    2.40000010
   13.44861126   89.41329956    0.41999999    2.39000010
   13.45444393   89.41329956    0.41999999    2.39000010
   13.45861053   86.48149872    0.41999999    2.40000010
   13.46194458   87.82610321    0.44000000    2.39000010
   13.46500015   91.53769684    0.41999999    2.39000010
   13.46833324   89.20449829    0.41999999    2.40000010
   13.47138882   87.81860352    0.41999999    2.40000010
   13.47472191   90.94629669    0.41999999    2.40000010
   13.47805500   87.36620331    0.41999999    2.40000010
   13.47999954   82.58869934    0.41999999    2.40000010
   13.48166656   87.13870239    0.41999999    2.40000010
   13.48500061   85.95210266    0.41999999    2.40000010
   13.48805618   89.10220337    0.41999999    2.40000010
   13.49138927   90.29989624    0.41999999    2.40000010
   13.49750042   90.29989624    0.41999999    2.40000010
   13.50166702   88.32350159    0.41999999    2.40000010
   13.50472260   93.38929749    0.41999999    2.40000010
   13.50805569   89.45850372    0.41999999    2.40000010
   13.51138878   90.35910034    0.41999999    2.40000010
   13.51333332   84.19860077    0.41999999    2.40000010
   13.51500034   85.87599945    0.41999999    2.40000010
   13.51833344   87.19609833    0.41999999    2.40000010
   13.52138901   97.28150177    0.41999999    2.40000010
   13.52472210   89.18479919    0.41999999    2.40000010
   13.52777767   87.50630188    0.41999999    2.40000010
   13.53111076   93.15950012    0.41999999    2.42000008
   13.53444481   92.60109711    0.40000001    2.42000008
   13.54027843   92.60109711    0.40000001    2.40000010
   13.54416752   92.99389648    0.40000001    2.42000008
   13.54666710   91.64520264    0.40000001    2.42000008
   13.54805565   97.65910339    0.40000001    2.42000008
   13.55138874   89.89679718    0.41999999    2.40000010
   13.55444431   90.23130035    0.40000001    2.42000008
   13.55777836   84.84519958    0.40000001    2.42000008
   13.56111145   86.83239746    0.40000001    2.42000008
   13.56416702   86.15160370    0.40000001    2.42000008
   13.56750011   89.47039795    0.41999999    2.42000008
   13.57055569   92.77100372    0.40000001    2.42000008
   13.57388878   87.97760010    0.40000001    2.42000008
   13.57722187   87.76309967    0.40000001    2.42000008
   13.58305550   87.76309967    0.40000001    2.42000008
   13.58722210   86.98840332    0.40000001    2.42000008
   13.59027767   89.98139954    0.40000001    2.42000008
   13.59361076   91.40480042    0.40000001    2.42000008
   13.59694386   89.72769928    0.40000001    2.42000008
   13.60000038   86.69509888    0.40000001    2.42000008
   13.60333347   93.45030212    0.40000001    2.42000008
   13.60638905   95.65850067    0.40000001    2.42000008
   13.60972214   85.32510376    0.40000001    2.42000008
   13.61305618   86.37480164    0.40000001    2.42000008
   13.61388969   87.95420074    0.40000001    2.42000008
   13.61666679   86.86740112    0.40000001    2.44000006
   13.61999989   87.18740082    0.40000001    2.44000006
   13.62583351   87.18740082    0.40000001    2.44000006
   13.63000011   87.75990295    0.40000001    2.44000006
   13.63305569   92.59390259    0.40000001    2.44000006
   13.63638878   83.27519989    0.40000001    2.44000006
   13.63972187   87.26419830    0.40000001    2.44000006
   13.64277744   90.02359772    0.38000000    2.42000008
   13.64611053   83.79409790    0.40000001    2.44000006
   13.64722252   86.46769714    0.40000001    2.44000006
   13.64972210   86.29100037    0.40000001    2.44000006
   13.65277767   85.64119720    0.40000001    2.44000006
   13.65611076   86.73909760    0.40000001    2.44000006
   13.65944386   83.81369781    0.40000001    2.42000008
   13.66249943   85.89540100    0.40000001    2.42000008
   13.66861153   85.89540100    0.40000001    2.46000004
   13.67277813   82.50659943    0.40000001    2.44000006
   13.67611122   81.62570190    0.40000001    2.44000006
   13.67916679   85.81569672    0.40000001    2.44000006
   13.68083382   81.54329681    0.38000000    2.44000006
   13.68277836   80.92150116    0.38000000    2.44000006
   13.68611145   90.98320007    0.40000001    2.44000006
   13.68944454   80.87550354    0.40000001    2.42000008
   13.69250011   96.77610016    0.40000001    2.44000006
   13.69583321   84.03489685    0.38000000    2.44000006
   13.69916630   94.43679810    0.38000000    2.46000004
   13.70222187   88.79830170    0.38000000    2.46000004
   13.70555496   88.57730103    0.40000001    2.44000006
   13.71138859   88.57730103    0.40000001    2.46000004
   13.71555519   78.86569977    0.38000000    2.46000004
   13.71888828   83.75640106    0.38000000    2.46000004
   13.72222137   82.44180298    0.38000000    2.46000004
   13.72527695   87.59670258    0.40000001    2.46000004
   13.72861099   85.03749847    0.40000001    2.46000004
   13.73166656   84.57510376    0.40000001    2.46000004
   13.73500061   87.69719696    0.40000001    2.46000004
   13.73833370   81.78079987    0.40000001    2.46000004
   13.74138927   90.49449921    0.40000001    2.46000004
   13.74472237   83.74559784    0.40000001    2.46000004
   13.74750042   80.83070374    0.40000001    2.46000004
   13.74833393   88.37969971    0.40000001    2.46000004
   13.75444412   88.37969971    0.40000001    2.46000004
   13.75861073   83.08920288    0.38000000    2.46000004
   13.76166630  101.62400055    0.40000001    2.46000004
   13.76500034   92.85289764    0.40000001    2.46000004
   13.76805496   86.66829681    0.40000001    2.46000004
   13.77138901   89.64710236    0.40000001    2.46000004
   13.77472210   91.94660187    0.40000001    2.46000004
   13.77777767  100.89700317    0.41999999    2.46000004
   13.78083324   90.08650208    0.41999999    2.46000004
   13.78166676  112.01300049    0.41999999    2.46000004
   13.78472233   95.54190063    0.41999999    2.46000004
   13.78805637  104.97699738    0.40000001    2.46000004
   13.79111195  123.22100067    0.40000001    2.46000004
   13.79722309  123.22100067    0.40000001    2.46000004
   13.80138874  105.72399902    0.40000001    2.46000004
   13.80472279  102.21600342    0.40000001    2.46000004
   13.80777836  107.94599915    0.40000001    2.46000004
   13.81111145  104.60299683    0.40000001    2.46000004
   13.81416702  110.09500122    0.40000001    2.46000004
   13.81444454  105.98100281    0.40000001    2.46000004
   13.81777763  105.46299744    0.40000001    2.46000004
   13.82111073  101.13999939    0.38000000    2.46000004
   13.82416630   96.26139832    0.40000001    2.46000004
   13.82750034  100.53299713    0.40000001    2.46000004
   13.83083344   89.47160339    0.40000001    2.46000004
   13.83388901   91.17189789    0.38000000    2.46000004
   13.84000015   91.17189789    0.38000000    2.46000004
   13.84416676   88.62819672    0.38000000    2.46000004
   13.84749985   95.40820313    0.40000001    2.46000004
   13.84805489   92.89759827    0.40000001    2.46000004
   13.85111141   84.79799652    0.38000000    2.46000004
   13.85444450   98.21900177    0.38000000    2.46000004
   13.85750008   81.21869659    0.38000000    2.46000004
   13.86083412   99.11049652    0.38000000    2.46000004
   13.86416721  101.83200073    0.38000000    2.46000004
   13.86722279  129.59599304    0.38000000    2.46000004
   13.87055588  120.19000244    0.38000000    2.48000002
   13.87388897  113.56400299    0.38000000    2.46000004
   13.87694454  107.19899750    0.38000000    2.48000002
   13.88277817  107.19899750    0.38000000    2.48000002
   13.88694477  104.21900177    0.38000000    2.46000004
   13.89027786  105.93599701    0.38000000    2.48000002
   13.89361095   94.17440033    0.38000000    2.46000004
   13.89666653   96.50109863    0.38000000    2.46000004
   13.89999962  100.28600311    0.38000000    2.48000002
   13.90305519   95.47290039    0.38000000    2.48000002
   13.90638828   94.42489624    0.38000000    2.48000002
   13.90972137   98.52439880    0.38000000    2.48000002
   13.91277695   81.09709930    0.38000000    2.48000002
   13.91416645   96.66609955    0.38000000    2.48000002
   13.91666698  105.94400024    0.38000000    2.48000002
   13.91972256   98.07859802    0.38000000    2.48000002
   13.92583370   98.07859802    0.36000001    2.46000004
   13.93000031  110.06400299    0.38000000    2.48000002
   13.93305588   95.77429962    0.38000000    2.48000002
   13.93638897   97.44290161    0.38000000    2.48000002
   13.93944454  104.57900238    0.38000000    2.48000002
   13.94277763   99.01930237    0.36000001    2.48000002
   13.94611073  101.61000061    0.38000000    2.48000002
   13.94750023   89.09700012    0.38000000    2.48000002
   13.94972229   91.95490265    0.38000000    2.48000002
   13.95277786   90.84870148    0.38000000    2.48000002
   13.95611095   93.03690338    0.38000000    2.48000002
   13.95944405   87.09269714    0.40000001    2.48000002
   13.96249962   83.51740265    0.40000001    2.48000002
   13.96861076   83.51740265    0.40000001    2.48000002
   13.97277737   88.48339844    0.41999999    2.48000002
   13.97583294   87.24700165    0.41999999    2.48000002
   13.97916603   86.73709869    0.41999999    2.48000002
   13.98111057   82.45339966    0.41999999    2.48000002
   13.98277760   84.38300323    0.40000001    2.48000002
   13.98611164   83.17289734    0.41999999    2.48000002
   13.98944473   86.98049927    0.41999999    2.48000002
   13.99277782   85.81569672    0.44000000    2.48000002
   13.99583340   86.16030121    0.44000000    2.48000002
   13.99916649   88.07340240    0.44000000    2.48000002
   14.00222206   90.98490143    0.41999999    2.48000002
   14.00555515   91.11109924    0.41999999    2.48000002
   14.01138878   91.11109924    0.41999999    2.48000002
   14.01555538   79.02760315    0.41999999    2.48000002
   14.01888847   80.49440002    0.44000000    2.48000002
   14.02194405   87.90380096    0.41999999    2.48000002
   14.02527714   83.22669983    0.44000000    2.48000002
   14.02861118   84.93710327    0.44000000    2.48000002
   14.03166676   80.87159729    0.44000000    2.50000000
   14.03500080   80.89929962    0.44000000    2.48000002
   14.03833389   79.33329773    0.44000000    2.48000002
   14.04138947   88.25299835    0.44000000    2.50000000
   14.04472256   83.03620148    0.46000001    2.48000002
   14.04777813   81.75930023    0.47999999    2.48000002
   14.04833412   88.86419678    0.47999999    2.48000002
   14.05444431   88.86419678    0.47999999    2.48000002
   14.05833340   82.45050049    0.47999999    2.50000000
   14.06166649   99.40309906    0.50000000    2.50000000
   14.06500053  108.84600067    0.50000000    2.50000000
   14.06805515  106.13800049    0.50000000    2.50000000
   14.07138920  114.00800323    0.50000000    2.48000002
   14.07444477  120.33499908    0.51999998    2.48000002
   14.07777786  140.24099731    0.52999997    2.50000000
   14.08111095  139.28900146    0.56999999    2.50000000
   14.08138847  116.57499695    0.56999999    2.50000000
   14.08472157  129.89399719    0.56999999    2.50000000
   14.08777714  137.97500610    0.56999999    2.50000000
   14.09111118  120.18399811    0.58999997    2.50000000
   14.09722233  120.18399811    0.58999997    2.50000000
   14.10138893  121.99900055    0.61000001    2.50000000
   14.10444450  141.46400452    0.61000001    2.48000002
   14.10777855  127.00900269    0.64999998    2.50000000
   14.11083412  129.29699707    0.67000002    2.50000000
   14.11416721  117.77799988    0.70999998    2.50000000
   14.11472225  105.15399933    0.70999998    2.50000000
   14.11805534  120.39199829    0.75000000    2.50000000
   14.12111092  124.85500336    0.79000002    2.50000000
   14.12444496  131.52299500    0.81999999    2.48000002
   14.12750053  123.48500061    0.81999999    2.48000002
   14.13083363  101.96499634    0.81999999    2.48000002
   14.13416672  104.99900055    0.83999997    2.50000000
   14.14000034  104.99900055    0.79000002    2.50000000
   14.14416695  110.29399872    0.75000000    2.50000000
   14.14722252   97.63510132    0.75000000    2.50000000
   14.14805508   95.95709991    0.75000000    2.50000000
   14.15111065  110.73400116    0.75000000    2.50000000
   14.15416622   88.75409698    0.75000000    2.50000000
   14.15749931   98.36849976    0.75000000    2.50000000
   14.16055489   86.68499756    0.75000000    2.50000000
   14.16388893   99.76599884    0.76999998    2.50000000
   14.16722298  100.32800293    0.76999998    2.50000000
   14.17027855   99.96040344    0.76999998    2.50000000
   14.17361164   93.07689667    0.75000000    2.50000000
   14.17694473   93.07800293    0.75000000    2.50000000
   14.18277836   93.07800293    0.75000000    2.50000000
   14.18694496   84.30329895    0.75000000    2.51999998
   14.19027805   91.24449921    0.73000002    2.50000000
   14.19333363   92.61029816    0.70999998    2.51999998
   14.19666672  104.34700012    0.70999998    2.51999998
   14.19972229   91.92690277    0.70999998    2.50000000
   14.20305538   83.28299713    0.70999998    2.50000000
   14.20638847   92.59230042    0.70999998    2.51999998
   14.20944405  108.43800354    0.70999998    2.51999998
   14.21277714   95.95159912    0.69000000    2.50000000
   14.21472168  102.53399658    0.70999998    2.51999998
   14.21666622   94.53299713    0.70999998    2.51999998
   14.21972179  103.14800262    0.70999998    2.50000000
   14.22555542  103.14800262    0.70999998    2.50000000
   14.22972202   94.48919678    0.70999998    2.50000000
   14.23305511   98.30359650    0.73000002    2.50000000
   14.23638916   88.24220276    0.73000002    2.51999998
   14.23944473   94.78040314    0.75000000    2.51999998
   14.24277782   96.35720062    0.75000000    2.51999998
   14.24583340   88.97129822    0.75000000    2.51999998
   14.24805546   92.43479919    0.75000000    2.50000000
   14.24972248   94.75240326    0.75000000    2.50000000
   14.25277805   88.13189697    0.75000000    2.51999998
   14.25611115   88.13629913    0.75000000    2.51999998
   14.25916672   77.71009827    0.76999998    2.51999998
   14.26249981   87.16449738    0.76999998    2.50000000
   14.26861095   87.16449738    0.79000002    2.51999998
   14.27277756   97.95500183    0.79000002    2.51999998
   14.27583313   85.42209625    0.80000001    2.51999998
   14.27916622   88.95629883    0.80000001    2.51999998
   14.29611111   90.38670349    0.81999999    2.50000000
   14.29916668   85.53679657    0.80000001    2.51999998
   14.30249977   90.48370361    0.81999999    2.50000000
   14.30555534   81.59439850    0.81999999    2.50000000
   14.31166649   81.59439850    0.83999997    2.50000000
   14.31583309   92.10749817    0.86000001    2.51999998
   14.31888866   85.76909637    0.86000001    2.51999998
   14.32222176   83.59819794    0.88000000    2.51999998
   14.32527733   84.28620148    0.88000000    2.51999998
   14.32861137   85.47910309    0.89999998    2.51999998
   14.32944393   88.67900085    0.89999998    2.51999998
   14.33249950   78.34459686    0.92000002    2.50000000
   14.33555508   82.61859894    0.98000002    2.51999998
   14.33888817   79.24089813    1.01999998    2.50000000
   14.34194374   78.17459869    1.01999998    2.50000000
   14.34527779   84.53430176    1.01999998    2.50000000
   14.34861088   86.91979980    1.13000000    2.51999998
   14.35444450   86.91979980    1.13000000    2.50000000
   14.35861111   83.07669830    1.14999998    2.51999998
   14.36166668   83.97609711    1.14999998    2.51999998
   14.36277771   82.13200378    1.16999996    2.51999998
   14.36555576   83.63189697    1.16999996    2.51999998
   14.36861134   85.18830109    1.26999998    2.51999998
   14.37194443   80.63710022    1.28999996    2.50000000
   14.37527752   79.97209930    1.28999996    2.51999998
   14.37833309   84.55300140    1.28999996    2.51999998
   14.38166714   86.45369720    1.28999996    2.51999998
   14.38500023   80.84420013    1.25000000    2.51999998
   14.38805580   79.16649628    1.26999998    2.51999998
   14.39138889   84.10150146    1.25000000    2.51999998
   14.39722252   84.10150146    1.23000002    2.51999998
   14.40138817   81.36859894    1.23000002    2.51999998
   14.40472221   80.74939728    1.19000006    2.51999998
   14.40777779   78.49700165    1.16999996    2.51999998
   14.41111088   78.80509949    1.19000006    2.51999998
   14.41416645   81.42150116    1.16999996    2.51999998
   14.41750050   89.17539978    1.14999998    2.51999998
   14.42083359   81.70809937    1.14999998    2.51999998
   14.42388916   81.80339813    1.13000000    2.51999998
   14.42722225   83.48750305    1.13000000    2.51999998
   14.42944431   97.24909973    1.11000001    2.51999998
   14.43083382   88.30719757    1.11000001    2.51999998
   14.43416691   85.53060150    1.09000003    2.51999998
   14.44000053   85.53060150    1.09000003    2.51999998
   14.44416714   95.97290039    1.05999994    2.51999998
   14.44750023  117.33799744    1.05999994    2.51999998
   14.45083332  105.61799622    1.03999996    2.51999998
   14.45388889  121.09400177    1.01999998    2.51999998
   14.45722198  111.13999939    0.98000002    2.51999998
   14.46027756  105.06800079    0.98000002    2.51999998
   14.46277714  103.58699799    0.98000002    2.51999998
   14.46416664  102.08999634    0.98000002    2.51999998
   14.46722221   90.11959839    0.98000002    2.51999998
   14.47055531   94.35269928    0.95999998    2.51999998
   14.47361088   97.98739624    0.95999998    2.51999998
   14.47722149   77.08209991    0.95999998    2.51999998
   14.48305511   77.08209991    0.95999998    2.53999996
   14.48694515   99.55380249    0.94000000    2.51999998
   14.49027824   79.09609985    0.95999998    2.51999998
   14.49361134   88.56809998    0.95999998    2.51999998
   14.49611092   77.91609955    0.95999998    2.53999996
   14.49722290   84.17810059    0.95999998    2.53999996
   14.50027752   78.03929901    0.95999998    2.53999996
   14.50361156   81.71099854    1.03999996    2.51999998
   14.50694466   78.98729706    1.25000000    2.53999996
   14.51000023   87.44110107    1.25000000    2.53999996
   14.51333332   70.51679993    1.36000001    2.53999996
   14.51638889   82.92410278    1.39999998    2.53999996
   14.51972198   80.02330017    1.41999996    2.51999998
   14.52583313   80.02330017    1.60000002    2.53999996
   14.52999973   89.78420258    1.61000001    2.51999998
   14.53305531   80.69120026    1.64999998    2.53999996
   14.53638935   79.49849701    1.64999998    2.53999996
   14.53972244   79.60540009    1.66999996    2.51999998
   14.54277802   88.10669708    1.71000004    2.53999996
   14.54611111   83.03829956    1.78999996    2.53999996
   14.54944515   81.62500000    1.85000002    2.53999996
   14.55249977   84.10769653    1.91999996    2.53999996
   14.55583382   84.91400146    2.13000011    2.53999996
   14.55916691   77.60919952    2.36999989    2.53999996
   14.56222248   81.92700195    2.51999998    2.53999996
   14.56277752   83.57440186    2.71000004    2.51999998
   14.56861115   83.57440186    3.45000005    2.51999998
   14.57277775   78.43840027    4.09999990    2.51999998
   14.57611084   87.74420166    4.34999990    2.51999998
   14.57916641   78.98429871    4.65999985    2.51999998
   14.58249950   79.43530273    4.90999985    2.51999998
   14.58555508   80.99780273    4.90999985    2.51999998
   14.58888817   80.49949646    4.90999985    2.50000000
   14.59222221   82.10569763    4.90999985    2.50000000
   14.59527779   86.28340149    4.90999985    2.50000000
   14.59611034   86.41600037    4.90999985    2.50000000
   14.59888840   91.82929993    4.90999985    2.50000000
   14.60222244   81.63719940    4.90999985    2.50000000
   14.60527802   89.94750214    4.90999985    2.48000002
   14.61138916   89.94750214    4.90999985    2.50000000
   14.61555576   92.74060059    4.90999985    2.50000000
   14.61888885   92.46530151    4.90999985    2.53999996
   14.62222195   93.13970184    4.90999985    2.51999998
   14.62527752   89.52069855    4.90999985    2.51999998
   14.62861156   95.39129639    4.90999985    2.51999998
   14.62944412   89.09860229    4.90999985    2.51999998
   14.63222218   88.52749634    4.90999985    2.51999998
   14.63555527   89.06639862    4.90999985    2.51999998
   14.63861084   79.80940247    4.90999985    2.51999998
   14.64194393   81.77729797    4.90999985    2.48000002
   14.64527798   90.44940186    4.90999985    2.44000006
   14.64833355   85.95459747    4.90999985    2.44000006
   14.65444374   85.95459747    4.90999985    2.32999992
   14.65833282  103.66500092    4.90999985    2.34999990
   14.66166592   96.02899933    4.90999985    2.50000000
   14.66277695   90.15049744    4.90999985    2.51999998
   14.66527748   89.98719788    4.90999985    2.51999998
   14.66861153   95.88050079    4.90999985    2.53999996
   14.67166710  114.88200378    4.90999985    2.55999994
   14.67500019   91.37500000    4.34999990    2.55999994
   14.67805576   97.12960052    4.01999998    2.53999996
   14.68138885   95.25579834    3.93000007    2.51999998
   14.68472195   90.53130341    4.03999996    2.51999998
   14.68777752   96.31369781    4.51000023    2.53999996
   14.69111156   90.29519653    4.90999985    2.53999996
   14.69722271   90.29519653    4.90999985    2.51999998
   14.70138836   87.51959991    4.90999985    2.48000002
   14.70444393   88.43779755    4.90999985    2.51999998
   14.70777798  100.23100281    4.84999990    2.53999996
   14.71111107   82.61150360    4.63999987    2.53999996
   14.71416664   87.34629822    4.28999996    2.55999994
   14.71749973   77.87210083    4.40999985    2.53999996
   14.72083282   81.35079956    4.90999985    2.55999994
   14.72388840   86.20559692    4.90999985    2.53999996
   14.72722149   81.73970032    4.90999985    2.53999996
   14.72944355   92.07659912    4.90999985    2.50000000
   14.73083305   88.23400116    4.90999985    2.48000002
   14.73416710   78.25700378    4.90999985    2.48000002
   14.74000072   78.25700378    4.90999985    2.51999998
   14.74416733   82.86139679    4.90999985    2.50000000
   14.74750042   88.16970062    4.90999985    2.51999998
   14.75055599   76.83020020    4.40999985    2.53999996
   14.75388908   82.49600220    4.03999996    2.53999996
   14.75694466   84.04340363    4.03999996    2.55999994
   14.76027775   86.00309753    4.42999983    2.55999994
   14.76277733   82.13390350    4.82999992    2.53999996
   14.76388931   81.43830109    4.90999985    2.53999996
   14.76722240   83.42089844    4.90999985    2.51999998
   14.77027798   83.52089691    4.90999985    2.51999998
   14.77361107   77.59420013    4.90999985    2.46000004
   14.77666664   95.96299744    4.90999985    2.48000002
   14.78277779   95.96299744    4.90999985    2.48000002
   14.78694534   84.84919739    4.90999985    2.48000002
   14.79027843   79.61920166    4.90999985    2.48000002
   14.79333401   92.58499908    4.90999985    2.50000000
   14.79611111   88.63990021    4.90999985    2.50000000
   14.79722309   79.73940277    4.90999985    2.50000000
   14.80055618   92.79679871    4.90999985    2.51999998
   14.80361176  101.73699951    4.90999985    2.53999996
   14.80694485   99.80970001    4.90999985    2.51999998
   14.81000042   88.70480347    4.90999985    2.50000000
   14.81333351   95.07849884    4.90999985    2.50000000
   14.81666660   93.67070007    4.90999985    2.50000000
   14.81972218   93.91049957    4.90999985    2.53999996
   14.82583332   93.91049957    4.90999985    2.53999996
   14.82972240  101.58200073    4.90999985    2.53999996
   14.83305550  101.79900360    4.90999985    2.53999996
   14.83638859  101.74700165    4.90999985    2.51999998
   14.83944416   97.55690002    4.90999985    2.50000000
   14.84277725  111.08399963    4.90999985    2.50000000
   14.84611034   97.67749786    4.90999985    2.51999998
   14.84916592   95.40509796    4.90999985    2.53999996
   14.85249996   86.61009979    4.90999985    2.53999996
   14.85555553  112.04499817    4.90999985    2.51999998
   14.85888958  107.93900299    4.90999985    2.51999998
   14.86222267   85.59329987    4.90999985    2.53999996
   14.86277771   96.43319702    4.90999985    2.53999996
   14.86861134   96.43319702    4.90999985    2.55999994
   14.87277794  125.74199677    4.90999985    2.57999992
   14.87583351  107.25900269    4.90999985    2.53999996
   14.87916660   99.64880371    4.90999985    2.53999996
   14.88249969  109.18699646    4.90999985    2.46000004
   14.88611126  128.46200562    4.90999985    2.48000002
   14.88916683  111.04699707    4.90999985    2.48000002
   14.89249992  118.35700226    4.90999985    2.48000002
   14.89583302  117.52400208    4.90999985    2.48000002
   14.89638901  123.35700226    4.90999985    2.48000002
   14.89916611  105.30300140    4.90999985    2.51999998
   14.90249920  105.01100159    4.90999985    2.55999994
   14.90583324   95.45649719    4.90999985    2.55999994
   14.91138840   95.45649719    4.90999985    2.48000002
   14.91555500  100.20899963    4.90999985    2.48000002
   14.91888905   93.37640381    4.90999985    2.50000000
   14.92194462   86.64009857    4.90999985    2.42000008
   14.92527771   87.07630157    4.90999985    2.36999989
   14.92833328   89.18969727    4.90999985    2.36999989
   14.92972279   87.38870239    4.90999985    2.39000010
   14.93194485   91.71920013    4.90999985    2.39000010
   14.93527794   90.76499939    4.90999985    2.39000010
   14.93861103   88.71600342    4.90999985    2.44000006
   14.94166660   85.43579865    4.90999985    2.46000004
   14.94499969   80.46350098    4.90999985    2.46000004
   14.94805527   81.29530334    4.90999985    2.50000000
   14.95416641   81.29530334    4.90999985    2.53999996
   14.95833302   82.60690308    4.90999985    2.55999994
   14.96166611   82.47010040    4.90999985    2.53999996
   14.96305561   80.79949951    4.90999985    2.55999994
   14.96527767   78.63040161    4.90999985    2.51999998
   14.96861076   81.78160095    4.90999985    2.51999998
   14.97194386   83.05449677    4.90999985    2.53999996
   14.97499943   82.39119720    4.90999985    2.51999998
   14.97833252   85.81430054    4.90999985    2.50000000
   14.98138809   81.59760284    4.90999985    2.48000002
   14.98472214   80.57180023    4.90999985    2.48000002
   14.98805618   80.31790161    4.90999985    2.51999998
   14.99111176   84.28669739    4.90999985    2.53999996
   14.99722290   84.28669739    4.90999985    2.46000004
   15.00111103   88.37770081    4.90999985    2.44000006
   15.00444412   79.47850037    4.90999985    2.44000006
   15.00777817   76.93609619    4.90999985    2.48000002
   15.01083374   80.00360107    4.90999985    2.55999994
   15.01416683   84.11309814    4.90999985    2.55999994
   15.01749992   81.53099823    4.90999985    2.57999992
   15.02055550   79.34100342    4.46999979    2.57999992
   15.02388859   78.24949646    4.09999990    2.57999992
   15.02694416   83.77330017    3.53999996    2.57999992
   15.02972221   82.99349976    2.96000004    2.55999994
   15.03055573   79.33619690    2.82999992    2.57999992
   15.03388977   82.15550232    2.75000000    2.57999992
   15.04000092   82.15550232    3.91000009    2.57999992
   15.04416752   90.91120148    4.90999985    2.55999994
   15.04722309   88.55560303    4.90999985    2.57999992
   15.05055618   87.22820282    4.90999985    2.46000004
   15.05388927   80.91110229    4.90999985    2.42000008
   15.05694485   84.05740356    4.90999985    2.46000004
   15.06027794   89.60829926    4.90999985    2.42000008
   15.06305599   87.99279785    4.90999985    2.39000010
   15.06388950   90.09709930    4.90999985    2.34999990
   15.06722260   90.81809998    4.90999985    2.39000010
   15.07055569   94.20980072    4.90999985    2.34999990
   15.07361126   94.96759796    4.90999985    2.26999998
   15.07694435   87.73210144    4.90999985    2.28999996
   15.08277798   87.73210144    4.90999985    2.28999996
   15.08694458   90.86679840    4.90999985    2.26999998
   15.09027767   87.65380096    4.90999985    2.32999992
   15.09333324   86.88140106    4.90999985    2.36999989
   15.09638882   86.71520233    4.90999985    2.32999992
   15.09749985   84.09200287    4.90999985    2.36999989
   15.10055637   90.55359650    4.90999985    2.46000004
   15.10388947   80.95490265    4.90999985    2.42000008
   15.10694504   85.02330017    4.90999985    2.44000006
   15.11027813   89.11199951    4.90999985    2.48000002
   15.11361122   79.47750092    4.90999985    2.50000000
   15.11666679   77.27339935    4.90999985    2.53999996
   15.11999989   76.04660034    4.90999985    2.55999994
   15.12555599   76.04660034    4.90999985    2.55999994
   15.12972260   81.11350250    4.90999985    2.55999994
   15.13305569   87.03700256    4.90999985    2.48000002
   15.13611126   84.64050293    4.90999985    2.51999998
   15.13944435   78.39540100    4.90999985    2.51999998
   15.14277744   82.24829865    4.90999985    2.51999998
   15.14583302   83.83300018    4.90999985    2.51999998
   15.14916611   83.64559937    4.90999985    2.51999998
   15.15249920   83.09829712    4.90999985    2.51999998
   15.15555477   78.28379822    4.90999985    2.55999994
   15.15888882   78.65550232    4.90999985    2.55999994
   15.16194439   76.51920319    4.90999985    2.57999992
   15.16305542   77.13079834    4.90999985    2.57999992
   15.16861153   77.13079834    4.65999985    2.59999990
   15.17250061   78.26950073    4.82999992    2.55999994
   15.17583370   80.87650299    4.90999985    2.57999992
   15.27888870   -1.00000000   -1.00000000   -1.00000000
   15.37527752   -1.00000000   -1.00000000   -1.00000000
   15.49638939   -1.00000000   -1.00000000   -1.00000000
   15.52638817   77.99990082    4.90999985    2.51999998
   15.52944374   85.08149719    4.90999985    2.50000000
   15.53277779   84.70220184    4.90999985    2.51999998
   15.53611183   80.90660095    4.90999985    2.51999998
   15.53916740   76.87030029    4.90999985    2.51999998
   15.54250050   82.66110229    4.90999985    2.50000000
   15.54666710   82.66110229    4.90999985    2.50000000
   15.55083370   93.16719818    4.90999985    2.48000002
   15.55388927   86.82119751    4.90999985    2.50000000
   15.55722237   81.51789856    4.90999985    2.50000000
   15.55944443   83.36289978    4.90999985    2.48000002
   15.56083393   76.64250183    4.90999985    2.50000000
   15.56416702   86.74009705    4.90999985    2.50000000
   15.56722260   75.76210022    4.90999985    2.50000000
   15.57055569   89.16580200    4.90999985    2.50000000
   15.57388878   79.09889984    4.90999985    2.51999998
   15.57694435   83.60610199    4.90999985    2.50000000
   15.58027744   81.02469635    4.90999985    2.50000000
   15.58333302   81.44719696    4.90999985    2.50000000
   15.58944416   81.44719696    4.90999985    2.46000004
   15.59361076   89.87129974    4.90999985    2.46000004
   15.59694386   79.48609924    4.90999985    2.46000004
   15.60000038   83.90100098    4.90999985    2.44000006
   15.60333347   84.48729706    4.90999985    2.42000008
   15.60666752   90.16739655    4.90999985    2.40000010
   15.60972214   83.88590240    4.90999985    2.40000010
   15.61305618   86.41940308    4.90999985    2.39000010
   15.61638927   83.84960175    4.90999985    2.36999989
   15.61944485   83.91619873    4.90999985    2.40000010
   15.62277794   85.39769745    4.90999985    2.42000008
   15.62583351   79.44180298    4.90999985    2.42000008
   15.62638855   90.87359619    4.90999985    2.40000010
   15.63222218   90.87359619    4.90999985    2.34999990
   15.63638878   88.24569702    4.90999985    2.34999990
   15.63972187   81.23989868    4.90999985    2.36999989
   15.64277744   91.30229950    4.90999985    2.32999992
   15.64611053   84.87380219    4.90999985    2.32999992
   15.64944458   90.26909637    4.90999985    2.34999990
   15.65249920   94.27929688    4.90999985    2.30999994
   15.65583324   83.52570343    4.90999985    2.32999992
   15.65916634   85.35150146    4.90999985    2.28999996
   15.65972137   97.48639679    4.90999985    2.32999992
   15.66277695   93.89800262    4.90999985    2.36999989
   15.66611099   96.67109680    4.90999985    2.39000010
   15.66916656   90.68779755    4.90999985    2.34999990
   15.67527771   90.68779755    4.90999985    2.32999992
   15.67916679   93.37359619    4.90999985    2.32999992
   15.68249989   83.72219849    4.90999985    2.32999992
   15.68583298  100.51399994    4.90999985    2.34999990
   15.68888855   94.74639893    4.90999985    2.34999990
   15.69222260   86.85169983    4.90999985    2.30999994
   15.69305515   93.10849762    4.90999985    2.32999992
   15.69583321   87.26869965    4.90999985    2.32999992
   15.69916630   95.74610138    4.90999985    2.32999992
   15.70222187   89.55639648    4.90999985    2.32999992
   15.70555496   93.83789825    4.90999985    2.32999992
   15.70888901   88.21140289    4.90999985    2.34999990
   15.71194458   90.04969788    4.90999985    2.36999989
   15.71805477   90.04969788    4.90999985    2.39000010
   15.72222137   88.63169861    4.90999985    2.39000010
   15.72527695   91.59559631    4.90999985    2.39000010
   15.72638798   92.84500122    4.90999985    2.36999989
   15.72888851   82.39389801    4.90999985    2.36999989
   15.73222160   90.59500122    4.90999985    2.39000010
   15.73527813   83.52989960    4.90999985    2.39000010
   15.73861122   79.83769989    4.90999985    2.39000010
   15.74194431   89.94010162    4.90999985    2.36999989
   15.74499989   91.88580322    4.90999985    2.32999992
   15.74833393   91.23000336    4.90999985    2.28999996
   15.75138855   84.31060028    4.90999985    2.28999996
   15.75472260   88.23210144    4.90999985    2.32999992
   15.76083374   88.23210144    4.90999985    2.32999992
   15.76500034   94.37220001    4.90999985    2.28999996
   15.76833344   90.71700287    4.90999985    2.30999994
   15.77138901   85.30249786    4.90999985    2.34999990
   15.77472210   97.14839935    4.90999985    2.34999990
   15.77777767   84.43409729    4.90999985    2.34999990
   15.78111076   83.97560120    4.90999985    2.34999990
   15.78444481   85.47129822    4.90999985    2.34999990
   15.78750038   81.74839783    4.90999985    2.39000010
   15.79083347   90.37860107    4.90999985    2.39000010
   15.79305553   87.85759735    4.90999985    2.39000010
   15.79444504   86.32800293    4.90999985    2.39000010
   15.79777813   83.29039764    4.90999985    2.39000010
   15.80361176   83.29039764    4.90999985    2.40000010
   15.80777836   92.79940033    4.90999985    2.39000010
   15.81111145   83.70939636    4.90999985    2.40000010
   15.81416702   89.69699860    4.90999985    2.42000008
   15.81750011   91.09110260    4.90999985    2.44000006
   15.82083321   89.68579865    4.90999985    2.39000010
   15.82388878   85.08000183    4.90999985    2.36999989
   15.82638836   86.25759888    4.90999985    2.40000010
   15.82750034   90.50420380    4.90999985    2.39000010
   15.83083344   86.99379730    4.90999985    2.36999989
   15.83388901   83.06449890    4.90999985    2.34999990
   15.83722210   85.94490051    4.90999985    2.42000008
   15.84055519   80.10410309    4.90999985    2.39000010
   15.84666634   80.10410309    4.90999985    2.28999996
   15.85055637   90.07900238    4.90999985    2.36999989
   15.85388947   84.45950317    4.90999985    2.39000010
   15.85722256   94.75720215    4.90999985    2.34999990
   15.85972214   90.03389740    4.90999985    2.34999990
   15.86083412   81.79609680    4.90999985    2.34999990
   15.86416721   82.02929688    4.90999985    2.30999994
   15.86722279   98.33180237    4.90999985    2.28999996
   15.87055588   87.95400238    4.90999985    2.32999992
   15.87388897   93.03600311    4.90999985    2.34999990
   15.87694454   92.38670349    4.90999985    2.28999996
   15.88027763   88.55609894    4.90999985    2.26999998
   15.88333321   96.38929749    4.90999985    2.25000000
   15.88944435   96.38929749    4.90999985    2.25000000
   15.89361095   90.79399872    4.90999985    2.25000000
   15.89666653   84.92659760    4.90999985    2.26999998
   15.89999962   95.48999786    4.90999985    2.28999996
   15.90333271   83.45770264    4.90999985    2.34999990
   15.90638828   83.99279785    4.90999985    2.40000010
   15.90972137   87.16130066    4.90999985    2.42000008
   15.91277695   87.71040344    4.90999985    2.40000010
   15.91611099   84.33540344    4.90999985    2.42000008
   15.91944504   85.80190277    4.90999985    2.44000006
   15.92250061   80.01290131    4.90999985    2.40000010
   15.92583370   85.36450195    4.90999985    2.40000010
   15.92666721   87.86009979    4.90999985    2.40000010
   15.93222237   87.86009979    4.90999985    2.40000010
   15.93638897   90.76699829    4.90999985    2.40000010
   15.93972206   83.34410095    4.90999985    2.40000010
   15.94277763   84.26860046    4.90999985    2.46000004
   15.94611073   80.03559875    4.90999985    2.40000010
   15.94944477   79.44640350    4.90999985    2.40000010
   15.95249939   78.21990204    4.90999985    2.42000008
   15.95583344   85.21530151    4.90999985    2.44000006
   15.95888901   87.65969849    4.90999985    2.46000004
   15.96000004   82.25430298    4.90999985    2.46000004
   15.96249962   86.85520172    4.90999985    2.46000004
   15.96583271   87.62660217    4.90999985    2.48000002
   15.96888828   76.32469940    4.90999985    2.48000002
   15.97499943   76.32469940    4.90999985    2.50000000
   15.97916603   86.38420105    4.90999985    2.48000002
   15.98249912   83.93489838    4.90999985    2.50000000
   15.98555565   81.49349976    4.90999985    2.50000000
   15.98888874   79.98149872    4.90999985    2.48000002
   15.99222279   79.74659729    4.90999985    2.46000004
   15.99333382   82.48519897    4.90999985    2.46000004
   15.99583340   80.18399811    4.90999985    2.48000002
   15.99916649   85.18229675    4.90999985    2.48000002
   16.00222206   77.74009705    4.90999985    2.48000002
   16.00555611   82.42520142    4.90999985    2.48000002
   16.00888824   76.76110077    4.90999985    2.48000002
   16.01194382   83.23220062    4.90999985    2.48000002
   16.01805496   83.23220062    4.90999985    2.42000008
   16.02194405   80.02189636    4.90999985    2.48000002
   16.02527809   82.06870270    4.90999985    2.40000010
   16.02666664   84.67359924    4.90999985    2.44000006
   16.02888870   84.56040192    4.90999985    2.42000008
   16.03222275   85.78450012    4.90999985    2.40000010
   16.03555489   84.89199829    4.90999985    2.40000010
   16.03861046   84.69419861    4.90999985    2.36999989
   16.04194450   91.20390320    4.90999985    2.36999989
   16.04500008   93.83350372    4.90999985    2.32999992
   16.04833221   83.44760132    4.90999985    2.34999990
   16.05166626   85.20980072    4.90999985    2.36999989
   16.05472183  104.90699768    4.90999985    2.34999990
   16.06083298  104.90699768    4.90999985    2.34999990
   16.06499863  118.39800262    4.90999985    2.28999996
   16.06805611   97.44319916    4.90999985    2.30999994
   16.07139015   94.80159760    4.90999985    2.30999994
   16.07472229   80.92839813    4.90999985    2.36999989
   16.07777786   95.73780060    4.90999985    2.32999992
   16.08111191   95.20670319    4.90999985    2.34999990
   16.08416748   87.04389954    4.90999985    2.36999989
   16.08750153   79.33899689    4.90999985    2.36999989
   16.09083366   88.63430023    4.90999985    2.39000010
   16.09333420   88.11170197    4.90999985    2.36999989
   16.09444427   83.91020203    4.90999985    2.36999989
   16.09777832   84.90779877    4.90999985    2.39000010
   16.10361099   84.90779877    4.90999985    2.36999989
   16.10777855  100.08899689    4.90999985    2.36999989
   16.11111069  105.06900024    4.90999985    2.40000010
   16.11416626   87.40249634    4.90999985    2.42000008
   16.11750031   89.08370209    4.90999985    2.44000006
   16.12055588   88.09190369    4.90999985    2.40000010
   16.12388992   85.20490265    4.90999985    2.40000010
   16.12666702   88.99970245    4.90999985    2.40000010
   16.12750053   81.44129944    4.90999985    2.39000010
   16.13083267   84.40090179    4.90999985    2.40000010
   16.13388824   96.14589691    4.90999985    2.39000010
   16.13722229   81.77649689    4.90999985    2.39000010
   16.14055634   88.80899811    4.90999985    2.39000010
   16.14638901   88.80899811    4.90999985    2.42000008
   16.15055466   87.50299835    4.90999985    2.39000010
   16.15388870   97.72830200    4.90999985    2.39000010
   16.15694427   89.94580078    4.90999985    2.39000010
   16.15999985   84.57569885    4.90999985    2.40000010
   16.16055489   89.52980042    4.90999985    2.39000010
   16.16388893   81.87609863    4.90999985    2.40000010
   16.16694450   83.42569733    4.90999985    2.42000008
   16.17027664   78.09899902    4.90999985    2.39000010
   16.17361069   86.59480286    4.90999985    2.39000010
   16.17666626   86.53119659    4.90999985    2.40000010
   16.18000031   83.05690002    4.90999985    2.42000008
   16.18333244   86.33959961    4.90999985    2.40000010
   16.18916512   86.33959961    4.90999985    2.39000010
   16.19333267   85.90200043    4.90999985    2.44000006
   16.19666672   86.84149933    4.90999985    2.44000006
   16.20000076   83.58529663    4.90999985    2.48000002
   16.20305634   83.93379974    4.90999985    2.46000004
   16.20639038   81.90820313    4.90999985    2.46000004
   16.20972252   78.90489960    4.90999985    2.46000004
   16.21277809   79.80950165    4.90999985    2.46000004
   16.21611214   79.10099792    4.90999985    2.50000000
   16.21916771   81.97319794    4.90999985    2.46000004
   16.22249985   87.08119965    4.90999985    2.46000004
   16.22583389   81.26959991    4.90999985    2.44000006
   16.22666740   85.31759644    4.90999985    2.42000008
   16.23222351   85.31759644    4.90999985    2.44000006
   16.23638916   84.96910095    4.90999985    2.44000006
   16.23944473   79.95690155    4.90999985    2.44000006
   16.24277878   86.11440277    4.90999985    2.48000002
   16.24611092   81.72669983    4.90999985    2.46000004
   16.24916649   84.62079620    4.90999985    2.48000002
   16.25250053   79.65709686    4.90999985    2.48000002
   16.25555611   83.98999786    4.90999985    2.40000010
   16.25888824   83.65059662    4.90999985    2.40000010
   16.26000023   83.69989777    4.90999985    2.40000010
   16.26250076   90.53130341    4.90999985    2.40000010
   16.26583290   82.25199890    4.90999985    2.40000010
   16.26916695   87.94570160    4.90999985    2.42000008
   16.27499962   87.94570160    4.90999985    2.34999990
   16.27916718   83.50930023    4.90999985    2.34999990
   16.28222275   87.31250000    4.90999985    2.26999998
   16.28555489   88.80699921    4.90999985    2.28999996
   16.28888893   82.23429871    4.90999985    2.30999994
   16.29194450   80.90309906    4.90999985    2.39000010
   16.29333305  100.13200378    4.90999985    2.39000010
   16.29555511   95.64450073    4.90999985    2.36999989
   16.29888916   87.32389832    4.90999985    2.30999994
   16.30222130   89.50700378    4.90999985    2.30999994
   16.30527687   95.61810303    4.90999985    2.39000010
   16.30861092   94.75849915    4.90999985    2.39000010
   16.31166649   83.00640106    4.90999985    2.40000010
   16.31777954   83.00640106    4.90999985    2.44000006
   16.32194519  109.91500092    4.90999985    2.34999990
   16.32527924   82.48470306    4.90999985    2.32999992
   16.32666779   94.24179840    4.90999985    2.34999990
   16.32861137   89.38800049    4.90999985    2.36999989
   16.33194542   88.25460052    4.90999985    2.39000010
   16.33527756   85.81179810    4.90999985    2.40000010
   16.33833313   82.36090088    4.90999985    2.39000010
   16.34166718   82.65699768    4.90999985    2.34999990
   16.34472275   85.69010162    4.90999985    2.32999992
   16.34805679   85.06529999    4.90999985    2.30999994
   16.35138893   88.40110016    4.90999985    2.28999996
   16.35444450   92.90070343    4.90999985    2.19000006
   16.36083412   92.90070343    4.90999985    2.26999998
   16.36472321   94.25360107    4.90999985    2.25000000
   16.36805534   98.74299622    4.90999985    2.36999989
   16.37138939  103.23699951    4.90999985    2.21000004
   16.37444496  115.41500092    4.90999985    2.23000002
   16.37777710  110.10500336    4.90999985    2.15000010
   16.38111115  117.26799774    4.90999985    2.11999989
   16.38416672  168.47999573    4.90999985    2.05999994
   16.38750076  112.24400330    4.90999985    2.15000010
   16.39083290  148.03599548    4.90999985    1.98000002
   16.39333344  104.44499969    4.90999985    2.07999992
   16.39416695  103.62699890    4.90999985    2.13000011
   16.39749908   98.95709991    4.90999985    2.17000008
   16.40361023   98.95709991    4.90999985    2.15000010
   16.40777779  109.51899719    4.90999985    2.13000011
   16.41083336   97.44799805    4.90999985    2.13000011
   16.41416550   91.12129974    4.90999985    2.15000010
   16.41749954   88.22660065    4.90999985    2.26999998
   16.42055511   88.18910217    4.90999985    2.30999994
   16.42388916   90.86160278    4.90999985    2.32999992
   16.42666626   87.02159882    4.90999985    2.34999990
   16.42749977   85.41729736    4.90999985    2.34999990
   16.43083191   85.85459900    4.90999985    2.32999992
   16.43416595   90.51210022    4.90999985    2.32999992
   16.43722153   90.95069885    4.90999985    2.32999992
   16.44055557   85.34739685    4.90999985    2.32999992
   16.44638824   85.34739685    4.90999985    2.39000010
   16.45055580   86.64299774    4.90999985    2.34999990
   16.45388985   82.58899689    4.90999985    2.32999992
   16.45694542   86.38580322    4.90999985    2.34999990
   16.46000099   92.04180145    4.90999985    2.36999989
   16.46055603   84.43419647    4.90999985    2.34999990
   16.46389008   86.89019775    4.90999985    2.30999994
   16.46722221   91.92829895    4.90999985    2.32999992
   16.47027779   87.58149719    4.90999985    2.28999996
   16.47361183   90.15529633    4.90999985    2.30999994
   16.47666740   80.56809998    4.90999985    2.32999992
   16.48000145   88.46060181    4.90999985    2.30999994
   16.48333359   85.16429901    4.90999985    2.25000000
   16.48916626   85.16429901    4.90999985    2.23000002
   16.49333382   89.73259735    4.90999985    2.23000002
   16.49666786   89.77680206    4.90999985    2.21000004
   16.49972153   89.07420349    4.90999985    2.17000008
   16.50305557   89.15640259    4.90999985    2.19000006
   16.50638962   91.99420166    4.90999985    2.15000010
   16.50944519  102.14199829    4.90999985    2.17000008
   16.51277733   81.43560028    4.90999985    2.25000000
   16.51583290   92.21050262    4.90999985    2.26999998
   16.51916695   96.94029999    4.90999985    2.28999996
   16.52249908   92.91280365    4.90999985    2.30999994
   16.52555466   90.56379700    4.90999985    2.32999992
   16.52666664   85.79180145    4.90999985    2.30999994
   16.54722214   85.79180145    4.90999985    2.36999989
   16.55138779   88.32949829    4.90999985    2.39000010
   16.55472183   83.10990143    4.90999985    2.39000010
   16.55777740   82.29850006    4.90999985    2.40000010
   16.55999947   84.78980255    4.90999985    2.40000010
   16.56138802   80.65979767    4.90999985    2.40000010
   16.56472206   83.48100281    4.90999985    2.40000010
   16.56805611   81.56999969    4.90999985    2.40000010
   16.57111168   80.25189972    4.90999985    2.42000008
   16.57444572   83.83380127    4.90999985    2.42000008
   16.57777786   81.95850372    4.90999985    2.39000010
   16.58083344   82.57659912    4.90999985    2.40000010
   16.58416748   87.17440033    4.90999985    2.39000010
   16.59000015   87.17440033    4.90999985    2.39000010
   16.59416771   82.59329987    4.90999985    2.39000010
   16.59749985   81.01809692    4.90999985    2.39000010
   16.60055542   85.88510132    4.90999985    2.39000010
   16.60388947  100.12200165    4.90999985    2.39000010
   16.60722351   92.03250122    4.90999985    2.39000010
   16.61027908   88.81680298    4.90999985    2.39000010
   16.61361122   81.20400238    4.90999985    2.39000010
   16.61666679   79.61630249    4.90999985    2.36999989
   16.62000084   83.90100098    4.90999985    2.39000010
   16.62333298   81.94920349    4.90999985    2.36999989
   16.62638855   86.60739899    4.90999985    2.34999990
   16.62694550   85.95980072    4.90999985    2.34999990
   16.63277817   85.95980072    4.90999985    2.34999990
   16.63694382   82.27189636    4.90999985    2.34999990
   16.64027786   89.57469940    4.90999985    2.36999989
   16.64361191   84.54170227    4.90999985    2.36999989
   16.64666748   78.21299744    4.90999985    2.36999989
   16.64999962   86.35169983    4.90999985    2.36999989
   16.65305519   87.40879822    4.90999985    2.36999989
   16.65638924   80.07360077    4.90999985    2.36999989
   16.65972137   88.72789764    4.90999985    2.34999990
   16.66027832   82.70899963    4.90999985    2.34999990
   16.66333389   82.61769867    4.90999985    2.34999990
   16.66666603   90.18260193    4.90999985    2.34999990
   16.66972160   90.53540039    4.90999985    2.36999989
   16.67583275   90.53540039    4.90999985    2.32999992
   16.68000031   92.82779694    4.90999985    2.36999989
   16.68305397   82.98529816    4.90999985    2.34999990
   16.68638802   79.18129730    4.90999985    2.34999990
   16.68944359   79.54699707    4.90999985    2.34999990
   16.69277763   87.08969879    4.90999985    2.34999990
   16.69361115   90.07640076    4.90999985    2.36999989
   16.69638824   88.32969666    4.90999985    2.36999989
   16.69972038   87.49040222    4.90999985    2.34999990
   16.70277786   78.22669983    4.90999985    2.36999989
   16.70611191   86.17600250    4.90999985    2.36999989
   16.70916748   79.94480133    4.90999985    2.39000010
   16.71250153   76.04299927    4.90999985    2.40000010
   16.71861076   76.04299927    4.90999985    2.42000008
   16.72277832   77.43579865    4.90999985    2.42000008
   16.72583389   81.76170349    4.90999985    2.42000008
   16.72694588   79.33380127    4.90999985    2.40000010
   16.72972298   79.63559723    4.90999985    2.39000010
   16.73305511   90.49279785    4.90999985    2.39000010
   16.73611069   84.33139801    4.90999985    2.39000010
   16.73944473   84.92919922    4.90999985    2.39000010
   16.74250031   82.71450043    4.90999985    2.36999989
   16.74583435   79.89479828    4.90999985    2.32999992
   16.74916649   85.32379913    4.90999985    2.32999992
   16.75222206   83.47540283    4.90999985    2.32999992
   16.75555611   85.18550110    4.90999985    2.28999996
   16.76138878   85.18550110    4.90999985    2.26999998
   16.76555634   91.91619873    4.90999985    2.26999998
   16.76888847   84.53900146    4.90999985    2.26999998
   16.77194405   87.71130371    4.90999985    2.26999998
   16.77527809   89.62509918    4.90999985    2.21000004
   16.77861023   83.08159637    4.90999985    2.19000006
   16.78166580   89.11990356    4.90999985    2.23000002
   16.78499985   86.04969788    4.90999985    2.19000006
   16.78805542   89.51110077    4.90999985    2.15000010
   16.79138756   92.21990204    4.90999985    2.09999990
   16.79361153   93.17389679    4.90999985    2.09999990
   16.79500008  107.36399841    4.90999985    2.09999990
   16.79833221   94.27149963    4.90999985    2.07999992
   16.80416679   94.27149963    4.90999985    2.09999990
   16.80833244   96.26399994    4.90999985    2.07999992
   16.81166649   88.11699677    4.90999985    2.07999992
   16.81499863   95.63919830    4.90999985    2.09999990
   16.81805611   95.44930267    4.90999985    2.11999989
   16.82139015   94.85009766    4.90999985    2.17000008
   16.82444572   91.09960175    4.90999985    2.15000010
   16.82694626   91.64029694    4.90999985    2.17000008
   16.82833481   92.11550140    4.90999985    2.17000008
   16.83166695   87.81849670    4.90999985    2.15000010
   16.83472252   92.65110016    4.90999985    2.17000008
   16.83805656   87.54820251    4.90999985    2.23000002
   16.84138870   83.48650360    4.90999985    2.25000000
   16.84722328   83.48650360    4.90999985    2.26999998
   16.85138893   78.11199951    4.90999985    2.30999994
   16.85444450   85.58930206    4.90999985    2.30999994
   16.85777855   79.01309967    4.90999985    2.32999992
   16.86027908   80.86090088    4.90999985    2.32999992
   16.86138916   84.29620361    4.90999985    2.32999992
   16.86472321   88.74919891    4.90999985    2.32999992
   16.86777878   80.46309662    4.90999985    2.32999992
   16.87111092   85.74289703    4.90999985    2.34999990
   16.87416649   85.44529724    4.90999985    2.39000010
   16.87750053   74.42569733    4.90999985    2.39000010
   16.88083267   76.70760345    4.90999985    2.39000010
   16.88416672   81.99590302    4.90999985    2.40000010
   16.88999939   81.99590302    4.90999985    2.39000010
   16.89416695   79.17340088    4.90999985    2.39000010
   16.89722252   77.91149902    4.90999985    2.39000010
   16.90055466   78.57849884    4.90999985    2.39000010
   16.90388870   77.56620026    4.90999985    2.39000010
   16.90694427   82.60220337    4.90999985    2.39000010
   16.91027832   79.25939941    4.90999985    2.39000010
   16.91361046   91.45899963    4.90999985    2.40000010
   16.91666603   79.58380127    4.90999985    2.40000010
   16.92000008   80.82710266    4.90999985    2.40000010
   16.92305565   90.91230011    4.90999985    2.39000010
   16.92638779   79.64649963    4.90999985    2.40000010
   16.92694473   86.78829956    4.90999985    2.40000010
   16.93277740   86.78829956    4.90999985    2.39000010
   16.93694305   85.63459778    4.90999985    2.39000010
   16.94027710   93.00469971    4.90999985    2.36999989
   16.94333267   94.20659637    4.90999985    2.36999989
   16.94666672   81.60569763    4.90999985    2.36999989
   16.95000076   87.15180206    4.90999985    2.39000010
   16.95305634   85.03710175    4.90999985    2.39000010
   16.95639038   87.33650208    4.90999985    2.36999989
   16.95944595   89.67350006    4.90999985    2.39000010
   16.96027946   83.91570282    4.90999985    2.39000010
   16.96305656   79.76640320    4.90999985    2.39000010
   16.96638870   85.64949799    4.90999985    2.36999989
   16.96944427   92.31449890    4.90999985    2.39000010
   16.97555542   92.31449890    4.90999985    2.39000010
   16.97972298  104.37300110    4.90999985    2.36999989
   16.98305511   80.06310272    4.90999985    2.36999989
   16.98638916   77.68270111    4.90999985    2.36999989
   16.98944473   78.16110229    4.90999985    2.36999989
   16.99277878   78.79820251    4.90999985    2.34999990
   16.99361229   85.64299774    4.90999985    2.32999992
   16.99638939   88.16239929    4.90999985    2.32999992
   16.99972153   79.90730286    4.90999985    2.32999992
   17.00277710   80.66490173    4.90999985    2.32999992
   17.00611115   83.17849731    4.90999985    2.32999992
   17.00944519   84.86710358    4.90999985    2.32999992
   17.01250076   86.29940033    4.90999985    2.32999992
   17.01861000   86.29940033    4.90999985    2.32999992
   17.02277756   95.98860168    4.90999985    2.30999994
   17.02583313   87.34089661    4.90999985    2.30999994
   17.02694511   85.17120361    4.90999985    2.30999994
   17.02944374   87.14009857    4.90999985    2.30999994
   17.03277779   85.31919861    4.90999985    2.30999994
   17.03583336   91.76920319    4.90999985    2.28999996
   17.03916550   84.46399689    4.90999985    2.30999994
   17.04249954   82.51550293    4.90999985    2.30999994
   17.04555511   87.64990234    4.90999985    2.30999994
   17.04888916   90.26439667    4.90999985    2.30999994
   17.05222130   80.42340088    4.90999985    2.28999996
   17.05527687   76.38500214    4.90999985    2.28999996
   17.06138802   76.38500214    4.90999985    2.30999994
   17.06555557   83.38870239    4.90999985    2.28999996
   17.06861115   83.85540009    4.90999985    2.28999996
   17.07194519   81.89510345    4.90999985    2.26999998
   17.07527924   83.87079620    4.90999985    2.26999998
   17.07833481   81.92350006    4.90999985    2.25000000
   17.08166695   76.77220154    4.90999985    2.25000000
   17.08500099   83.95770264    4.90999985    2.25000000
   17.08805656   80.14170074    4.90999985    2.25000000
   17.09138870   81.55560303    4.90999985    2.25000000
   17.09361267   87.15899658    4.90999985    2.23000002
   17.09500122   84.88040161    4.90999985    2.23000002
   17.09833336   90.19249725    4.90999985    2.21000004
   17.10416794   90.19249725    4.90999985    2.21000004
   17.10833359   80.23500061    4.90999985    2.19000006
   17.11166763   82.79409790    4.90999985    2.21000004
   17.11472321   82.72769928    4.90999985    2.19000006
   17.11805534   88.66149902    4.90999985    2.19000006
   17.12138939   82.18650055    4.90999985    2.17000008
   17.12444496   85.89759827    4.90999985    2.17000008
   17.12694550   79.92990112    4.90999985    2.15000010
   17.12805557   86.59149933    4.90999985    2.17000008
   17.13138962   88.50240326    4.90999985    2.15000010
   17.13444519   88.98390198    4.90999985    2.13000011
   17.13777733   85.03240204    4.90999985    2.15000010
   17.14083290   85.80010223    4.90999985    2.15000010
   17.14694405   85.80010223    4.90999985    2.15000010
   17.15111160   87.09420013    4.90999985    2.17000008
   17.15444374   84.29599762    4.90999985    2.17000008
   17.15749931   79.34339905    4.90999985    2.15000010
   17.16027832   86.90339661    4.90999985    2.15000010
   17.16110992   83.10279846    4.90999985    2.15000010
   17.16444397   80.19180298    4.90999985    2.15000010
   17.16749954   87.58049774    4.90999985    2.13000011
   17.17083359   89.54859924    4.90999985    2.13000011
   17.17388916   87.89260101    4.90999985    2.13000011
   17.17722130   86.75420380    4.90999985    2.11999989
   17.18055534   89.08339691    4.90999985    2.11999989
   17.18361092   91.02549744    4.90999985    2.11999989
   17.18999863   91.02549744    4.90999985    2.09999990
   17.19388771   94.13680267    4.90999985    2.09999990
   17.19722176   97.35690308    4.90999985    2.07999992
   17.20055580   87.83869934    4.90999985    2.05999994
   17.20361137   84.10320282    4.90999985    2.03999996
   17.20694542  106.80899811    4.90999985    2.03999996
   17.21027946  102.98400116    4.90999985    2.05999994
   17.21333504   88.65879822    4.90999985    2.05999994
   17.21666718   95.49859619    4.90999985    2.07999992
   17.21972275   94.46340179    4.90999985    2.07999992
   17.22305679   93.59449768    4.90999985    2.05999994
   17.22638893   88.19920349    4.90999985    2.05999994
   17.22694588   95.14140320    4.90999985    2.05999994
   17.23277855   95.14140320    4.90999985    2.05999994
   17.23694420   95.65979767    4.90999985    2.07999992
   17.23999977   94.30780029    4.90999985    2.07999992
   17.24333382   95.85019684    4.90999985    2.07999992
   17.24638939   95.91139984    4.90999985    2.05999994
   17.24972153   98.98020172    4.90999985    2.01999998
   17.25305557   93.65059662    4.90999985    2.01999998
   17.25611115  100.55000305    4.90999985    2.01999998
   17.25944519   97.04170227    4.90999985    2.01999998
   17.26027870   95.97789764    4.90999985    2.01999998
   17.26305580   92.81099701    4.90999985    2.00000000
   17.26638794   98.19349670    4.90999985    2.01999998
   17.26944351  102.92400360    4.90999985    2.00000000
   17.27555466  102.92400360    4.90999985    2.00000000
   17.27972221   97.95659637    4.90999985    2.00000000
   17.28277779   95.53530121    4.90999985    2.01999998
   17.28610992   98.05719757    4.90999985    2.01999998
   17.28944397  104.58100128    4.90999985    2.01999998
   17.29249954   91.41590118    4.90999985    2.05999994
   17.29388809   95.49890137    4.90999985    2.05999994
   17.29611015  105.34799957    4.90999985    2.05999994
   17.29944420   93.49479675    4.90999985    2.07999992
   17.30249977   89.42910004    4.90999985    2.07999992
   17.30583191   85.40039825    4.90999985    2.09999990
   17.30916595   90.24980164    4.90999985    2.13000011
   17.31222153   89.44029999    4.90999985    2.13000011
   17.31833458   89.44029999    4.90999985    2.11999989
   17.32250023   88.84100342    4.90999985    2.07999992
   17.32583427   89.22889709    4.90999985    2.09999990
   17.32722282   87.90670013    4.90999985    2.09999990
   17.32944489   92.88559723    4.90999985    2.09999990
   17.33277893   92.15350342    4.90999985    2.09999990
   17.33583450   91.33560181    4.90999985    2.09999990
   17.33916664   91.55909729    4.90999985    2.07999992
   17.34250069   88.54959869    4.90999985    2.09999990
   17.34555626   86.22570038    4.90999985    2.07999992
   17.34889030   98.33820343    4.90999985    2.09999990
   17.35222244   90.84230042    4.90999985    2.11999989
   17.35527802   96.27230072    4.90999985    2.13000011
   17.36138916   96.27230072    4.90999985    2.17000008
   17.36555672   89.69920349    4.90999985    2.15000010
   17.36861038   90.88050079    4.90999985    2.17000008
   17.37194443   86.25270081    4.90999985    2.17000008
   17.37500000   93.34739685    4.90999985    2.17000008
   17.37833405   99.84290314    4.90999985    2.13000011
   17.38166618   91.64140320    4.90999985    2.15000010
   17.38472176   89.42030334    4.90999985    2.17000008
   17.38805580   87.56449890    4.90999985    2.17000008
   17.39111137   92.50759888    4.90999985    2.19000006
   17.39388847   86.03209686    4.90999985    2.19000006
   17.39472198   79.69180298    4.90999985    2.21000004
   17.39805603   84.33209991    4.90999985    2.21000004
   17.40416718   84.33209991    4.90999985    2.25000000
   17.40833282   85.70659637    4.90999985    2.25000000
   17.41138840   86.08879852    4.90999985    2.21000004
   17.41472244   89.05339813    4.90999985    2.21000004
   17.41777802   93.08010101    4.90999985    2.17000008
   17.42111015   90.52940369    4.90999985    2.21000004
   17.42444420   95.82170105    4.90999985    2.17000008
   17.42722130   96.00289917    4.90999985    2.15000010
   17.42805481  102.20600128    4.90999985    2.15000010
   17.43138885   87.89980316    4.90999985    2.13000011
   17.43444443   93.97309875    4.90999985    2.17000008
   17.43777657   89.14569855    4.90999985    2.17000008
   17.44111061   94.93910217    4.90999985    2.17000008
   17.44694328   94.93910217    4.90999985    2.11999989
   17.45111275   84.62619781    4.90999985    2.17000008
   17.45416832   86.94290161    4.90999985    2.21000004
   17.45750046   82.88970184    4.90999985    2.21000004
   17.46055603   85.02809906    4.90999985    2.19000006
   17.46111107   93.46970367    4.90999985    2.19000006
   17.46444511   89.14179993    4.90999985    2.23000002
   17.46750069   86.67089844    4.90999985    2.26999998
   17.47083473   85.55979919    4.90999985    2.28999996
   17.47416687   90.65380096    4.90999985    2.32999992
   17.47722244   84.72360229    4.90999985    2.30999994
   17.48055649   84.46040344    4.90999985    2.28999996
   17.48388863   79.41960144    4.90999985    2.28999996
   17.48972321   79.41960144    4.90999985    2.26999998
   17.49388885   83.00109863    4.90999985    2.21000004
   17.49722290   90.40419769    4.90999985    2.19000006
   17.50027847   89.52890015    4.90999985    2.15000010
   17.50361061   84.76090240    4.90999985    2.17000008
   17.50694466   89.31649780    4.90999985    2.19000006
   17.51000023   92.44589996    4.90999985    2.21000004
   17.51333427   95.78780365    4.90999985    2.23000002
   17.51638794   93.66680145    4.90999985    2.19000006
   17.51972198   87.59010315    4.90999985    2.19000006
   17.52305603   82.08319855    4.90999985    2.21000004
   17.52611160   87.18499756    4.90999985    2.21000004
   17.52722168   89.64060211    4.90999985    2.21000004
   17.53277779   89.64060211    4.90999985    2.25000000
   17.53666687   84.49620056    4.90999985    2.28999996
   17.53999901   84.35859680    4.90999985    2.34999990
   17.54333305   85.59609985    4.90999985    2.36999989
   17.56083298   81.26820374    4.90999985    2.40000010
   17.56333351   89.09410095    4.90999985    2.39000010
   17.56638718   85.79090118    4.90999985    2.40000010
   17.56972313   79.82479858    4.90999985    2.40000010
   17.57555580   79.82479858    4.90999985    2.44000006
   17.57972336   79.42459869    4.90999985    2.42000008
   17.58305550   82.59290314    4.90999985    2.42000008
   17.58611107   80.99990082    4.90999985    2.42000008
   17.58944511   77.80740356    4.90999985    2.42000008
   17.59277916   85.77459717    4.90999985    2.42000008
   17.59416771   88.23269653    4.90999985    2.42000008
   17.59638977   76.34349823    4.90999985    2.46000004
   17.59972191   78.96549988    4.90999985    2.50000000
   17.60305595   79.41510010    4.90999985    2.48000002
   17.60611153   82.37590027    4.90999985    2.48000002
   17.60944557   87.22059631    4.90999985    2.48000002
   17.61250114   83.62860107    4.90999985    2.50000000
   17.61861038   83.62860107    4.90999985    2.53999996
   17.62249947   82.40630341    4.90999985    2.51999998
   17.62583351   73.61340332    4.90999985    2.53999996
   17.62750053   78.40049744    4.90999985    2.51999998
   17.62944412   83.47540283    4.90999985    2.53999996
   17.63277817   81.18689728    4.90999985    2.55999994
   17.63611031   73.10549927    4.90999985    2.57999992
   17.63916588   79.67179871    4.90999985    2.57999992
   17.64249992   77.24340057    4.90999985    2.57999992
   17.64583397   77.96800232    4.90999985    2.59999990
   17.64888954   79.71209717    4.90999985    2.57999992
   17.65222168   75.08409882    4.90999985    2.55999994
   17.65527725   72.52590179    4.90999985    2.55999994
   17.66138840   72.52590179    4.90999985    2.59999990
   17.66555595   75.91950226    4.90999985    2.57999992
   17.66860962   76.46309662    4.90999985    2.55999994
   17.67194366   73.37329865    4.90999985    2.57999992
   17.67527771   70.77739716    4.90999985    2.59999990
   17.67833328   76.16490173    4.90999985    2.59999990
   17.68166542   79.49269867    4.90999985    2.57999992
   17.68499947   76.21179962    4.90999985    2.57999992
   17.68805504   74.53649902    4.90999985    2.57999992
   17.69138718   80.24680328    4.90999985    2.55999994
   17.69416618   75.45300293    4.90999985    2.55999994
   17.69472122   71.83740234    4.90999985    2.53999996
   17.69805527   72.28690338    4.90999985    2.55999994
   17.70416832   72.28690338    4.90999985    2.55999994
   17.70833397   76.43949890    4.90999985    2.53999996
   17.71166801   79.12480164    4.90999985    2.53999996
   17.71472359   79.69139862    4.90999985    2.55999994
   17.71805573   80.76450348    4.90999985    2.51999998
   17.72138977   80.05180359    4.90999985    2.51999998
   17.72444534   80.04560089    4.90999985    2.50000000
   17.72750092   74.37930298    4.90999985    2.51999998
   17.72833443   72.25199890    4.90999985    2.51999998
   17.73139000   80.23310089    4.90999985    2.53999996
   17.73472214   79.16809845    4.90999985    2.51999998
   17.73777771   76.85230255    4.90999985    2.51999998
   17.74111176   78.70639801    4.90999985    2.51999998
   17.74694443   78.70639801    4.90999985    2.53999996
   17.75111198   74.87229919    4.90999985    2.53999996
   17.75444412   76.02310181    4.90999985    2.53999996
   17.75777817   75.53209686    4.90999985    2.53999996
   17.76083374   80.17900085    4.90999985    2.53999996
   17.76111031   75.93219757    4.90999985    2.53999996
   17.76444435   75.64579773    4.90999985    2.55999994
   17.76777840   74.69020081    4.90999985    2.57999992
   17.77083397   77.06600189    4.13999987    2.57999992
   17.77416611   75.56109619    3.14000010    2.59999990
   17.77722168   81.29239655    2.48000002    2.61999989
   17.78055573   74.24299622    2.32999992    2.61999989
   17.78388786   75.33290100    2.21000004    2.64000010
   17.78999901   75.33290100    2.64000010    2.64000010
   17.79416656   74.88020325    3.39000010    2.61999989
   17.79444313   73.72720337    3.39000010    2.61999989
   17.79777718   74.46700287    4.34999990    2.61999989
   17.80111122   74.85109711    4.90999985    2.61999989
   17.80416679   76.66519928    4.90999985    2.61999989
   17.80749893   74.26429749    4.90999985    2.59999990
   17.81055450   72.76850128    4.90999985    2.57999992
   17.81388855   75.24720001    4.90999985    2.57999992
   17.81722260   75.76339722    4.90999985    2.57999992
   17.82027817   76.54940033    4.90999985    2.55999994
   17.82361221   76.34719849    4.90999985    2.55999994
   17.82694626   74.21690369    4.90999985    2.53999996
   17.82750130   74.30580139    4.90999985    2.53999996
   17.83277893   74.30580139    4.90999985    2.51999998
   17.83694458   80.96109772    4.90999985    2.48000002
   17.84000015   76.51730347    4.90999985    2.48000002
   17.84333420   77.95829773    4.90999985    2.48000002
   17.84666824   75.30809784    4.90999985    2.50000000
   17.84972191   80.06009674    4.90999985    2.46000004
   17.85305595   78.47470093    4.90999985    2.48000002
   17.85611153   76.38300323    4.90999985    2.48000002
   17.85944557   79.42079926    4.90999985    2.48000002
   17.86083412   77.47660065    4.90999985    2.48000002
   17.86305618   77.31420135    4.90999985    2.48000002
   17.86638832   82.58100128    4.90999985    2.48000002
   17.86972237   80.67729950    4.90999985    2.46000004
   17.87555504   80.67729950    4.90999985    2.44000006
   17.87972260   77.46759796    4.90999985    2.42000008
   17.88305473   83.44129944    4.90999985    2.42000008
   17.88611031   80.46890259    4.90999985    2.42000008
   17.88944435   85.91040039    4.90999985    2.42000008
   17.89249992   82.76719666    4.90999985    2.42000008
   17.89416695   77.66770172    4.90999985    2.44000006
   17.89611053   77.92410278    4.90999985    2.40000010
   17.89944458   85.29660034    4.90999985    2.40000010
   17.90277672   81.88580322    4.90999985    2.40000010
   17.90583229   81.79579926    4.90999985    2.40000010
   17.90916634   79.98200226    4.90999985    2.40000010
   17.91250038   83.73249817    4.90999985    2.40000010
   17.91833305   83.73249817    4.90999985    2.46000004
   17.92249870   73.24929810    4.90999985    2.51999998
   17.92583275   76.04440308    4.90999985    2.55999994
   17.92749977   82.29479980    4.90999985    2.55999994
   17.92916679   77.29799652    4.90999985    2.55999994
   17.93249893   77.78790283    4.90999985    2.53999996
   17.93583298   76.65859985    4.90999985    2.53999996
   17.93888855   75.53399658    4.90999985    2.51999998
   17.94222069   79.57170105    4.90999985    2.48000002
   17.94555473   82.85179901    4.90999985    2.48000002
   17.94861031   84.05780029    4.90999985    2.42000008
   17.95194435   89.56770325    4.90999985    2.46000004
   17.95499992   79.16439819    4.90999985    2.48000002
   17.96138954   79.16439819    4.90999985    2.44000006
   17.96555710   90.71749878    4.90999985    2.40000010
   17.96861076   75.48639679    4.90999985    2.30999994
   17.97194481   79.10520172    4.90999985    2.36999989
   17.97500038   81.53959656    4.90999985    2.42000008
   17.97833443   72.12670135    4.90999985    2.50000000
   17.98166656   76.59999847    4.90999985    2.53999996
   17.98472214   79.80419922    4.90999985    2.51999998
   17.98805618   78.98459625    4.90999985    2.50000000
   17.99138832   76.44979858    4.90999985    2.53999996
   17.99416733   79.75299835    4.90999985    2.53999996
   17.99472237   76.96469879    4.90999985    2.53999996
   17.99805641   77.14340210    4.90999985    2.55999994
   18.00416756   77.14340210    4.90999985    2.57999992
   18.00833321   74.22250366    4.90999985    2.57999992
   18.01138878   73.63490295    4.90999985    2.57999992
   18.01472282   86.31809998    4.90999985    2.55999994
   18.01805496   79.30480194    4.90999985    2.53999996
   18.02111053   75.06159973    4.90999985    2.53999996
   18.02444458   72.26850128    4.90999985    2.55999994
   18.02750015   79.42099762    4.90999985    2.55999994
   18.02777672   82.44940186    4.90999985    2.55999994
   18.03111076   77.23239899    4.90999985    2.55999994
   18.03444481   73.77130127    4.90999985    2.55999994
   18.03750038   76.10150146    4.90999985    2.55999994
   18.04083252   77.11160278    4.90999985    2.55999994
   18.04694366   77.11160278    4.90999985    2.53999996
   18.05111122   76.41739655    4.90999985    2.57999992
   18.05444336   79.84690094    4.90999985    2.57999992
   18.05749893   85.74069977    4.90999985    2.55999994
   18.06083298   82.61039734    4.90999985    2.51999998
   18.06110954   78.10119629    4.90999985    2.51999998
   18.06444359   76.12460327    4.90999985    2.53999996
   18.06777954   76.84079742    4.90999985    2.55999994
   18.07083511   78.39920044    4.90999985    2.57999992
   18.07416725   75.01490021    4.63999987    2.57999992
   18.07750130   81.25569916    4.53999996    2.59999990
   18.08055687   76.73200226    4.90999985    2.57999992
   18.08388901   79.57700348    4.90999985    2.57999992
   18.08972359   79.57700348    4.90999985    2.57999992
   18.09388924   77.89489746    4.90999985    2.59999990
   18.09444427   74.19450378    4.90999985    2.59999990
   18.09777832   76.86669922    4.90999985    2.55999994
   18.10111237   76.11450195    4.90999985    2.57999992
   18.10416794   77.88490295    4.90999985    2.55999994
   18.10750008   83.23999786    4.90999985    2.53999996
   18.11055565   74.14649963    4.90999985    2.55999994
   18.11388969   80.42359924    4.90999985    2.53999996
   18.11722183   84.12519836    4.90999985    2.51999998
   18.12027740   81.85790253    4.90999985    2.48000002
   18.12361145   77.90260315    4.90999985    2.48000002
   18.12694550   76.35240173    4.90999985    2.46000004
   18.12777710   76.97720337    4.90999985    2.46000004
   18.13277817   76.97720337    4.90999985    2.51999998
   18.13694382   74.82350159    4.90999985    2.53999996
   18.13999939   75.56900024    4.90999985    2.53999996
   18.14333344   77.97139740    4.90999985    2.53999996
   18.14638901   76.75050354    4.90999985    2.55999994
   18.14972115   77.56980133    4.90999985    2.57999992
   18.15305519   80.55110168    4.90999985    2.57999992
   18.15638924   78.55500031    4.90999985    2.57999992
   18.15944481   78.63490295    4.90999985    2.57999992
   18.16110992   76.16169739    4.90999985    2.55999994
   18.16305542   77.10710144    4.90999985    2.55999994
   18.16638756   76.53620148    4.90999985    2.57999992
   18.16944313   77.41860199    4.90999985    2.59999990
   18.17555428   77.41860199    4.90999985    2.57999992
   18.17972183   71.22160339    4.90999985    2.55999994
   18.18277740   72.73870087    4.90999985    2.53999996
   18.18610954   76.18930054    4.90999985    2.55999994
   18.18944359   73.31629944    4.90999985    2.55999994
   18.19249916   81.55770111    4.90999985    2.55999994
   18.19444275   77.59850311    4.90999985    2.55999994
   18.19638824   77.29470062    4.69999981    2.59999990
   18.19972038   78.07389832    4.05999994    2.59999990
   18.20277786   76.61509705    3.55999994    2.59999990
   18.20611191   79.22570038    3.64000010    2.61999989
   18.20916748   75.99510193    4.44999981    2.57999992
   18.21250153   77.51509857    4.90999985    2.59999990
   18.21833420   77.51509857    4.90999985    2.57999992
   18.22249985   85.16989899    4.90999985    2.57999992
   18.22583389   75.81030273    4.90999985    2.53999996
   18.22777748   79.25669861    4.90999985    2.53999996
   18.22944450   81.39959717    4.90999985    2.53999996
   18.23277855   79.03060150    4.90999985    2.55999994
   18.23583412   81.79969788    4.90999985    2.53999996
   18.23916626   80.01100159    4.90999985    2.55999994
   18.24222183   83.86669922    4.90999985    2.55999994
   18.24555588   78.67449951    4.90999985    2.55999994
   18.24888992   75.49210358    4.90999985    2.55999994
   18.25194359   81.44509888    4.90999985    2.57999992
   18.25527763   76.99649811    4.90999985    2.59999990
   18.26111031   76.99649811    4.90999985    2.59999990
   18.26527786   73.97619629    4.90999985    2.57999992
   18.26861000   80.63009644    4.90999985    2.59999990
   18.27166557   74.28320313    4.90999985    2.59999990
   18.27499962   75.10469818    4.90999985    2.59999990
   18.27833366   77.23950195    4.90999985    2.59999990
   18.28138924   76.16069794    4.90999985    2.57999992
   18.28472137   81.37899780    4.90999985    2.57999992
   18.28805542   72.39630127    4.90999985    2.57999992
   18.29111099   77.31230164    4.90999985    2.59999990
   18.29444313   90.12760162    4.90999985    2.59999990
   18.29500008   84.33529663    4.73999977    2.59999990
   18.29805565   82.11250305    3.97000003    2.59999990
   18.30416679   82.11250305    3.07999992    2.61999989
   18.30805397   82.98539734    3.28999996    2.61999989
   18.31138802   77.36340332    3.78999996    2.59999990
   18.31472206   78.35759735    4.26999998    2.59999990
   18.31777954   85.13800049    4.69999981    2.57999992
   18.32111168   85.04340363    4.90999985    2.57999992
   18.32444572   81.62519836    4.90999985    2.51999998
   18.32750130   78.34989929    4.90999985    2.48000002
   18.32833481   78.97660065    4.90999985    2.48000002
   18.33111191   78.70439911    4.90999985    2.48000002
   18.33444595   73.58270264    4.90999985    2.51999998
   18.33777809   74.26969910    4.90999985    2.53999996
   18.34083366   76.54190063    4.90999985    2.55999994
   18.34694481   76.54190063    4.90999985    2.55999994
   18.35111237   76.12200165    4.90999985    2.55999994
   18.35416794   74.60489655    4.90999985    2.55999994
   18.35750008   76.40789795    4.90999985    2.57999992
   18.36083412   77.04589844    4.90999985    2.57999992
   18.36166763   75.09089661    4.86999989    2.59999990
   18.36416626   75.56639862    4.26999998    2.59999990
   18.36750031   80.12220001    4.07999992    2.57999992
   18.37083435   70.56109619    4.11999989    2.59999990
   18.37388992   78.72850037    4.28999996    2.59999990
   18.37722206   77.02799988    4.59999990    2.59999990
   18.38055611   76.82790375    4.90999985    2.59999990
   18.38361168   77.62059784    4.90999985    2.59999990
   18.38972282   77.62059784    4.90999985    2.55999994
   18.39388847   81.05940247    4.90999985    2.57999992
   18.39500046   76.92330170    4.90999985    2.59999990
   18.39749908   86.56439972    4.90999985    2.59999990
   18.40083313   78.32140350    4.90999985    2.57999992
   18.40416718   74.77649689    4.90999985    2.55999994
   18.40722275   79.19139862    4.90999985    2.53999996
   18.41055489   82.66909790    4.90999985    2.50000000
   18.41388893   85.47180176    4.90999985    2.51999998
   18.41694450   85.85759735    4.90999985    2.51999998
   18.42027664   79.80169678    4.90999985    2.53999996
   18.42333221   77.63880157    4.90999985    2.53999996
   18.42666626   74.00949860    4.90999985    2.51999998
   18.42833328   80.19190216    4.90999985    2.53999996
   18.43249893   80.19190216    4.90999985    2.53999996
   18.43666649   82.41200256    4.90999985    2.55999994
   18.43999863   80.75849915    4.90999985    2.55999994
   18.44305420   75.14070129    4.90999985    2.59999990
   18.44638824   78.77149963    4.90999985    2.57999992
   18.44972038   83.05889893    4.90999985    2.59999990
   18.45277786   78.26260376    4.90999985    2.57999992
   18.45611191   73.41500092    4.90999985    2.55999994
   18.45944595   73.10939789    4.90999985    2.57999992
   18.46166801   73.59980011    4.90999985    2.57999992
   18.46277809   71.10700226    4.90999985    2.57999992
   18.46611214   71.73560333    4.90999985    2.57999992
   18.46944427   71.81379700    4.90999985    2.57999992
   18.47555542   71.81379700    4.90999985    2.55999994
   18.47944450   72.71849823    4.90999985    2.57999992
   18.48277855   75.19670105    4.90999985    2.59999990
   18.48611069   76.35800171    4.90999985    2.55999994
   18.48916626   71.81749725    4.90999985    2.57999992
   18.49250031   81.40270233    4.90999985    2.57999992
   18.49500084   73.35600281    4.90999985    2.59999990
   18.49666786   77.40209961    4.90999985    2.57999992
   18.49972153   80.11699677    4.90999985    2.57999992
   18.50305557   77.12740326    4.90999985    2.55999994
   18.50611115   83.23760223    4.90999985    2.53999996
   18.50944519   74.42400360    4.90999985    2.53999996
   18.51277733   75.78489685    4.90999985    2.55999994
   18.51833344   75.78489685    4.90999985    2.55999994
   18.52249908   82.99610138    4.90999985    2.55999994
   18.52555466   75.07550049    4.90999985    2.57999992
   18.52833366   77.09860229    4.90999985    2.57999992
   18.52916718   73.80280304    4.90999985    2.57999992
   18.53249931   75.12879944    4.90999985    2.57999992
   18.53583336   74.66190338    4.90999985    2.57999992
   18.53888893   75.22280121    4.86999989    2.57999992
   18.54222107   73.55979919    4.73999977    2.57999992
   18.54555511   76.87830353    4.61999989    2.57999992
   18.54861069   84.49579620    4.53000021    2.57999992
   18.55194283   77.00430298    4.38999987    2.57999992
   18.55499840   74.81819916    4.30999994    2.57999992
   18.56110954   74.81819916    4.38999987    2.55999994
   18.57944489   86.25330353    4.38999987    2.57999992
   18.58277893   78.39710236    4.38999987    2.57999992
   18.58611107   78.01699829    4.38999987    2.57999992
   18.58916664   84.82479858    4.46999979    2.55999994
   18.59250069   78.11969757    4.59999990    2.57999992
   18.59555626   84.07389832    4.76000023    2.57999992
   18.59889030   87.98660278    4.90999985    2.55999994
   18.60416794   87.98660278    4.90999985    2.55999994
   18.60833359   76.58969879    4.90999985    2.55999994
   18.61166763   80.12789917    4.90999985    2.55999994
   18.61250114   80.42559814    4.90999985    2.55999994
   18.61527824   79.41979980    4.90999985    2.55999994
   18.61861038   83.62830353    4.90999985    2.55999994
   18.62166595   82.73000336    4.90999985    2.55999994
   18.62500000   76.41870117    4.90999985    2.55999994
   18.62805557   79.41840363    4.90999985    2.55999994
   18.63138962   83.14520264    4.90999985    2.55999994
   18.63472176   81.69509888    4.84999990    2.55999994
   18.63777733   78.83830261    4.73999977    2.55999994
   18.64111137   81.49320221    4.63999987    2.57999992
   18.64722252   81.49320221    4.53999996    2.55999994
   18.65111160   81.16149902    4.59999990    2.55999994
   18.65444374   79.65540314    4.63999987    2.55999994
   18.65777779   79.96170044    4.63999987    2.57999992
   18.66083336   73.94570160    4.55999994    2.55999994
   18.66416550   75.01239777    4.46999979    2.55999994
   18.66749954   73.29260254    4.44999981    2.55999994
   18.67055511   75.87789917    4.44999981    2.55999994
   18.67388916   79.53230286    4.61999989    2.55999994
   18.67722130   74.87779999    4.76000023    2.55999994
   18.67916679   80.19779968    4.86999989    2.53999996
   18.68083191   78.23049927    4.88999987    2.55999994
   18.68416595   83.04640198    4.90999985    2.55999994
   18.68999863   83.04640198    4.90999985    2.55999994
   18.69416618   75.56220245    4.90999985    2.55999994
   18.69722176   76.70760345    4.90999985    2.53999996
   18.70055580   82.49140167    4.90999985    2.55999994
   18.70361137   78.03579712    4.88999987    2.55999994
   18.70694542   78.10459900    4.86999989    2.55999994
   18.71027946   76.55729675    4.76000023    2.55999994
   18.71250153   74.18859863    4.61999989    2.55999994
   18.71389008   76.40129852    4.48999977    2.57999992
   18.71722221   76.99559784    4.26000023    2.57999992
   18.72027779   75.30760193    4.00000000    2.57999992
   18.72361183   80.54930115    3.80999994    2.55999994
   18.72694588   81.18840027    3.66000009    2.55999994
   18.73277855   81.18840027    3.45000005    2.57999992
   18.73694420   75.49240112    3.36999989    2.57999992
   18.73999977   78.83249664    3.46000004    2.57999992
   18.74333382   72.20780182    3.50000000    2.57999992
   18.74583435   74.21640015    3.34999990    2.55999994
   18.74694443   80.76080322    3.26999998    2.55999994
   18.75027847   74.48909760    3.07999992    2.55999994
   18.75333405   78.90299988    3.00000000    2.57999992
   18.75666618   78.21150208    2.89000010    2.57999992
   18.76000023   74.68499756    2.71000004    2.57999992
   18.76305580   75.02870178    2.59999990    2.57999992
   18.76638794   76.39739990    2.59999990    2.57999992
   18.76944351   77.03530121    2.59999990    2.57999992
   18.77555466   77.03530121    2.61999989    2.57999992
   18.77972221   74.60150146    2.59999990    2.57999992
   18.78305435   78.65850067    2.57999992    2.57999992
   18.78610992   76.57319641    2.55999994    2.57999992
   18.78944397   75.91419983    2.50000000    2.57999992
   18.79277802   75.39129639    2.53999996    2.55999994
   18.79583359   77.24819946    2.64000010    2.57999992
   18.79916573   72.69899750    2.82999992    2.55999994
   18.80222130   80.54070282    3.03999996    2.55999994
   18.80555534   73.83709717    3.26999998    2.55999994
   18.80888748   78.01640320    3.50000000    2.55999994
   18.81194305   75.17510223    3.73000002    2.55999994
   18.81250000   75.40840149    3.73000002    2.55999994
   18.81861115   75.40840149    4.03999996    2.55999994
   18.82250023   75.43620300    4.19999981    2.55999994
   18.82583427   76.81030273    4.32999992    2.55999994
   18.82916832   74.71749878    4.42999983    2.55999994
   18.83222389   79.75839996    4.46999979    2.55999994
   18.83555603   74.54100037    4.53000021    2.53999996
   18.83889008   79.59799957    4.46999979    2.53999996
   18.84194565   75.21089935    4.44999981    2.55999994
   18.84527779   80.99960327    4.53999996    2.55999994
   18.84583473   79.77539825    4.55999994    2.53999996
   18.84889030   77.71379852    4.53999996    2.53999996
   18.85222244   77.99140167    4.53000021    2.53999996
   18.85527802   76.72460175    4.55999994    2.53999996
   18.86138916   76.72460175    4.86999989    2.55999994
   18.86555672   77.21849823    4.90999985    2.53999996
   18.86861038   76.33860016    4.90999985    2.55999994
   18.87194443   75.41860199    4.80999994    2.53999996
   18.87500000   76.88739777    4.59999990    2.53999996
   18.87833405   75.13950348    4.30999994    2.55999994
   18.87916756   76.14430237    4.26000023    2.53999996
   18.88194466   84.55899811    4.05999994    2.55999994
   18.88527679   79.01879883    3.78999996    2.55999994
   18.88833237   80.58039856    3.57999992    2.55999994
   18.89166641   76.62770081    3.45000005    2.55999994
   18.89500046   77.63130188    3.36999989    2.55999994
   18.89805603   81.75460052    3.32999992    2.55999994
   18.90416718   81.75460052    3.21000004    2.55999994
   18.90833282   73.38899994    3.07999992    2.55999994
   18.91138840   73.77980042    3.01999998    2.55999994
   18.91250038   72.26129913    2.96000004    2.55999994
   18.91499901   76.82479858    2.96000004    2.55999994
   18.91833305   75.85559845    2.84999990    2.55999994
   18.92138863   78.68569946    2.69000006    2.55999994
   18.92472076   75.38939667    2.50000000    2.55999994
   18.92805481   78.34649658    2.32999992    2.55999994
   18.93111038   74.38999939    2.17000008    2.55999994
   18.93444443   75.20690155    2.05999994    2.55999994
   18.93750000   77.06179810    1.98000002    2.55999994
   18.94083214   78.78040314    1.89999998    2.55999994
   18.94694328   78.78040314    1.01999998    2.55999994
   18.95111275   72.62799835    0.92000002    2.53999996
   18.95444489   77.63780212    0.86000001    2.55999994
   18.95750046   78.71160126    0.81999999    2.55999994
   18.96083450   72.89469910    0.80000001    2.55999994
   18.96416664   79.40170288    0.81999999    2.55999994
   18.96722221   82.58499908    0.81999999    2.55999994
   18.97055626   78.31079865    0.86000001    2.55999994
   18.97389030   77.71080017    0.86000001    2.55999994
   18.97694588   79.24949646    0.81999999    2.55999994
   18.97916794   78.65850067    0.80000001    2.55999994
   18.98055649   83.63179779    0.75000000    2.53999996
   18.98388863   76.35659790    0.73000002    2.55999994
   18.98999977   76.35659790    0.70999998    2.55999994
   18.99388885   76.67340088    0.64999998    2.55999994
   18.99722290   77.01509857    0.63000000    2.55999994
   19.00055504   74.96099854    0.63000000    2.55999994
   19.00361061   79.17500305    0.67000002    2.55999994
   19.00694466   77.27380371    0.83999997    2.55999994
   19.01027870   73.29530334    0.86000001    2.55999994
   19.01250076   78.47540283    0.86000001    2.55999994
   19.01388931   75.89869690    0.86000001    2.55999994
   19.01722145   77.21209717    0.89999998    2.55999994
   19.02027702   77.95800018    1.00000000    2.53999996
   19.02361107   81.07319641    1.09000003    2.55999994
   19.02694511   81.80599976    1.16999996    2.55999994
   19.03277779   81.80599976    1.21000004    2.53999996
   19.03694344   75.35489655    1.25000000    2.53999996
   19.03999901   78.21440125    1.25000000    2.53999996
   19.04333305   76.79769897    1.28999996    2.55999994
   19.04611015   76.65229797    1.34000003    2.53999996
   19.04694366   76.91500092    1.34000003    2.53999996
   19.05027771   76.91130066    1.41999996    2.55999994
   19.05333328   77.96990204    1.38000000    2.53999996
   19.05666542   78.44439697    1.28999996    2.53999996
   19.05999947   81.93740082    1.28999996    2.53999996
   19.06305504   79.54679871    0.92000002    2.53999996
   19.06638718   75.37190247    0.83999997    2.55999994
   19.06972313   77.21060181    0.79000002    2.53999996
   19.07555580   77.21060181    0.75000000    2.55999994
   19.07972336   74.13259888    0.75000000    2.53999996
   19.08305550   80.10679626    0.70999998    2.55999994
   19.08611107   77.08699799    0.69000000    2.53999996
   19.08944511   77.50209808    0.69000000    2.53999996
   19.09277916   78.11199951    0.67000002    2.53999996
   19.09583473   77.75229645    0.64999998    2.55999994
   19.09916687   76.49340057    0.64999998    2.53999996
   19.10222244   76.86609650    0.63000000    2.55999994
   19.10555649   80.56150055    0.56999999    2.55999994
   19.10888863   77.05619812    0.56999999    2.55999994
   19.11194420   72.78109741    0.56999999    2.55999994
   19.11277771   74.50710297    0.56999999    2.55999994
   19.11833382   74.50710297    0.51999998    2.55999994
   19.12277794   76.81870270    0.51999998    2.53999996
   19.12583351   74.32289886    0.51999998    2.53999996
   19.12916756   77.34339905    0.52999997    2.53999996
   19.13222313   76.43849945    0.52999997    2.53999996
   19.13555527   77.68569946    0.56999999    2.53999996
   19.13888931   74.44159698    0.56999999    2.53999996
   19.14194489   74.88790131    0.56999999    2.53999996
   19.14527702   75.50240326    0.56999999    2.53999996
   19.14611053   74.24189758    0.61000001    2.55999994
   19.14888954   73.71269989    0.61000001    2.55999994
   19.15222168   78.04570007    0.61000001    2.55999994
   19.15527725   75.50720215    0.73000002    2.53999996
   19.16110992   75.50720215    0.86000001    2.53999996
   19.16527748   75.33989716    0.88000000    2.53999996
   19.16860962   75.36979675    0.92000002    2.53999996
   19.17194366   75.99839783    0.92000002    2.53999996
   19.17499924   73.66000366    0.75000000    2.53999996
   19.17833328   74.01979828    0.67000002    2.53999996
   19.17944336   72.50240326    0.67000002    2.53999996
   19.18194389   72.91560364    0.69000000    2.51999998
   19.18527603   75.56220245    0.75000000    2.55999994
   19.18833160   72.62159729    1.00000000    2.55999994
   19.19166565   75.52749634    1.00000000    2.55999994
   19.19499969   76.14240265    2.40000010    2.50000000
   19.19805527   78.36889648    2.61999989    2.51999998
   19.20416832   78.36889648    3.11999989    2.51999998
   19.20833397   76.74179840    3.20000005    2.51999998
   19.21138954   72.13559723    3.05999994    2.51999998
   19.21277809   77.10610199    3.01999998    2.51999998
   19.21500015   76.03469849    2.98000002    2.51999998
   19.21833420   74.71849823    3.11999989    2.51999998
   19.22166634   73.61389923    3.48000002    2.50000000
   19.22472191   75.10939789    3.82999992    2.50000000
   19.22805595   76.48100281    4.07999992    2.50000000
   19.23111153   73.10320282    4.21999979    2.48000002
   19.23444557   74.60820007    4.30999994    2.48000002
   19.23777771   76.05159760    4.15999985    2.50000000
   19.24083328   75.51129913    4.00000000    2.51999998
   19.24694443   75.51129913    4.26999998    2.51999998
   19.25111198   74.50440216    4.73999977    2.48000002
   19.25416756   74.91190338    4.90999985    2.50000000
   19.25749969   77.28890228    4.90999985    2.48000002
   19.26083374   79.09539795    4.90999985    2.48000002
   19.26388931   78.70279694    4.90999985    2.48000002
   19.26722145   73.65440369    4.90999985    2.48000002
   19.27055550   74.21070099    4.90999985    2.48000002
   19.27361107   77.63369751    4.90999985    2.48000002
   19.27694511   77.31880188    4.90999985    2.46000004
   19.27944374   75.19419861    4.90999985    2.48000002
   19.28055573   77.49839783    4.90999985    2.46000004
   19.28388786   74.50589752    4.90999985    2.48000002
   19.28972244   74.50589752    4.90999985    2.46000004
   19.29388809   78.53269958    4.90999985    2.48000002
   19.29722214   76.84919739    4.90999985    2.48000002
   19.30027771   81.12280273    4.90999985    2.48000002
   19.30360985   81.96040344    4.90999985    2.46000004
   19.30694389   80.30899811    4.90999985    2.46000004
   19.30999947   85.22470093    4.90999985    2.46000004
   19.31277657   75.88050079    4.90999985    2.48000002
   19.31361008   80.62909698    4.90999985    2.48000002
   19.31694603   76.12779999    4.90999985    2.48000002
   19.32027817   77.01399994    4.90999985    2.48000002
   19.32333374   78.16960144    4.82999992    2.48000002
   19.32666779   75.39959717    4.78000021    2.50000000
   19.33305550   75.39959717    4.90999985    2.46000004
   19.33694458   77.99369812    4.90999985    2.46000004
   19.34027863   79.60820007    4.90999985    2.46000004
   19.34361267   77.38040161    4.90999985    2.46000004
   19.34611130   78.21199799    4.90999985    2.44000006
   19.34722328   75.89779663    4.90999985    2.46000004
   19.35055542   77.16230011    4.90999985    2.46000004
   19.35388947   79.41760254    4.90999985    2.44000006
   19.35694504   82.28260040    4.90999985    2.46000004
   19.36027908   79.31800079    4.90999985    2.46000004
   19.36333466   79.34519958    4.90999985    2.46000004
   19.36666679   79.12480164    4.90999985    2.46000004
   19.37000084   79.71399689    4.90999985    2.46000004
   19.37555504   79.71399689    4.90999985    2.46000004
   19.37972260   78.02490234    4.90999985    2.48000002
   19.38277817   77.24120331    4.90999985    2.46000004
   19.38611031   82.30390167    4.90999985    2.48000002
   19.38916588   76.96369934    4.90999985    2.46000004
   19.39249992   83.15360260    4.90999985    2.46000004
   19.39583397   75.20629883    4.90999985    2.46000004
   19.39888954   76.30719757    4.90999985    2.48000002
   19.40222168   74.08219910    4.90999985    2.48000002
   19.40555573   77.80460358    4.90999985    2.48000002
   19.40861130   75.47380066    4.90999985    2.46000004
   19.41194344   78.84700012    4.90999985    2.40000010
   19.41277695   79.84429932    4.90999985    2.40000010
   19.41833305   79.84429932    4.90999985    2.11999989
   19.42249870  104.09200287    4.90999985    1.89999998
   19.42555428   84.57649994    4.90999985    2.09999990
   19.42888832   83.81809998    4.90999985    2.28999996
   19.43222237   96.75289917    4.90999985    2.17000008
   19.43527603  156.54100037    4.90999985    1.86000001
   19.43861008  102.97799683    4.90999985    1.86000001
   19.44194412   80.65820313    4.90999985    2.11999989
   19.44499969   77.27570343    4.90999985    2.44000006
   19.44610977   79.37580109    4.90999985    2.46000004
   19.44861031   77.74680328    4.90999985    2.44000006
   19.45194435   78.11799622    4.90999985    2.42000008
   19.45527840   77.35289764    4.90999985    2.42000008
   19.46111107   77.35289764    4.90999985    2.39000010
   19.46527863   73.76629639    4.90999985    2.40000010
   19.46861076   81.68409729    4.90999985    2.39000010
   19.47166634   80.77239990    4.90999985    2.39000010
   19.47500038   81.01909637    4.90999985    2.36999989
   19.47833443   77.10489655    4.90999985    2.32999992
   19.47944450   78.39489746    4.90999985    2.32999992
   19.48166656   77.74829865    4.90999985    2.36999989
   19.48500061   82.67269897    4.90999985    2.34999990
   19.48833275   77.63939667    4.90999985    2.32999992
   19.49138832   81.20149994    4.90999985    2.32999992
   19.49472237   80.27970123    4.90999985    2.30999994
   19.49805641   88.98799896    4.90999985    2.19000006
   19.50388908   88.98799896    4.90999985    2.36999989
   19.50805473   82.69049835    4.90999985    2.42000008
   19.51138878   79.95140076    4.90999985    2.40000010
   19.51277733   75.24539948    4.90999985    2.40000010
   19.51499939   79.51789856    4.90999985    2.40000010
   19.51833344   74.60410309    4.90999985    2.42000008
   19.52166557   77.20230103    4.90999985    2.42000008
   19.52472115   82.02380371    4.90999985    2.44000006
   19.52805519   79.58809662    4.90999985    2.42000008
   19.53138924   74.15529633    4.90999985    2.42000008
   19.53444481   78.08679962    4.90999985    2.42000008
   19.53777695   75.33850098    4.90999985    2.42000008
   19.54138756   79.63359833    4.90999985    2.44000006
   19.54694366   79.63359833    4.71999979    2.46000004
   19.55111122   77.25930023    4.07999992    2.46000004
   19.55416679   73.57489777    3.51999998    2.48000002
   19.55749893   77.20680237    3.07999992    2.48000002
   19.56055450   76.31839752    2.89000010    2.48000002
   19.56388855   75.46029663    2.89000010    2.46000004
   19.56722260   76.28690338    2.91000009    2.48000002
   19.57027817   76.58580017    2.75000000    2.48000002
   19.57361221   75.27729797    2.46000004    2.46000004
   19.57694626   82.10169983    2.17000008    2.46000004
   19.57944489   76.03230286    2.03999996    2.46000004
   19.60000038   76.03230286    1.34000003    2.46000004
   19.60416794   77.10479736    1.38000000    2.48000002
   19.60750008   72.64730072    1.51999998    2.48000002
   19.61055565   80.38739777    1.60000002    2.46000004
   19.61277771   76.70010376    1.71000004    2.48000002
   19.61444473   73.86789703    1.71000004    2.48000002
   19.61750031   76.87870026    1.89999998    2.48000002
   19.62083435   75.31269836    2.05999994    2.46000004
   19.62416649   75.70259857    2.19000006    2.46000004
   19.62722206   73.96710205    2.40000010    2.44000006
   19.63055611   79.86409760    2.46000004    2.44000006
   19.63361168   74.87239838    2.66000009    2.46000004
   19.63694382   76.63719940    2.53999996    2.46000004
   19.64277840   76.63719940    2.50000000    2.46000004
   19.64694405   75.53839874    2.30999994    2.46000004
   19.64999962   74.80879974    2.28999996    2.46000004
   19.65333366   76.51599884    2.17000008    2.46000004
   19.65666580   77.34040070    2.15000010    2.46000004
   19.65972137   77.70870209    2.21000004    2.46000004
   19.66305542   74.73320007    2.03999996    2.46000004
   19.66638756   78.50360107    1.96000004    2.46000004
   19.66944313   74.23100281    1.96000004    2.46000004
   19.67277718   76.00800323    1.91999996    2.48000002
   19.67583275   78.27809906    1.86000001    2.46000004
   19.67916679   72.81410217    1.76999998    2.46000004
   19.67972183   78.94979858    1.76999998    2.46000004
   19.68555450   78.94979858    1.66999996    2.46000004
   19.68972206   73.40969849    1.69000006    2.46000004
   19.69305420   79.73909760    1.69000006    2.46000004
   19.69610977   78.12860107    1.66999996    2.44000006
   19.69944382   75.31759644    1.63000000    2.46000004
   19.70277786   77.74150085    1.60000002    2.46000004
   19.70583344   80.01470184    1.60000002    2.46000004
   19.70916748   77.26969910    1.66999996    2.44000006
   19.71222305   81.67289734    2.17000008    2.46000004
   19.71305656   77.02159882    2.32999992    2.44000006
   19.71611214   76.19570160    2.42000008    2.44000006
   19.71916771   80.99780273    2.82999992    2.44000006
   19.72249985   74.25229645    2.98000002    2.42000008
   19.72833443   74.25229645    2.94000006    2.44000006
   19.73250008   76.90219879    2.69000006    2.44000006
   19.73583412  113.73000336    2.73000002    2.44000006
   19.73916626   75.72360229    2.86999989    2.42000008
   19.74222183   75.54499817    2.93000007    2.44000006
   19.74555588   80.41690063    3.00000000    2.42000008
   19.74638939   78.30740356    3.01999998    2.42000008
   19.74916649   73.54720306    3.07999992    2.42000008
   19.75222206   80.75939941    3.20000005    2.42000008
   19.75555611   79.15529633    3.26999998    2.42000008
   19.75888824   74.73020172    3.36999989    2.42000008
   19.76194382   75.54019928    3.50000000    2.42000008
   19.76527786   79.40979767    3.70000005    2.42000008
   19.77138901   79.40979767    4.26999998    2.42000008
   19.77555466  152.16000366    4.53000021    2.40000010
   19.77861023  149.45199585    4.65999985    2.40000010
   19.77972221  168.86999512    4.71999979    2.40000010
   19.78249931  198.80599976    4.90999985    2.40000010
   19.78555489  212.14300537    4.90999985    2.40000010
   19.78888893  250.30599976    4.90999985    2.40000010
   19.79222107  286.99398804    4.90999985    2.40000010
