    HOUR (UT)   FLARE FACTOR    SKY TESTER    SUN TESTER
   11.99444485   -1.00000000   -1.00000000   -1.00000000
   12.04250050  116.07399750    0.55000001    0.41999999
   12.04583359  118.80699921    0.55000001    0.41999999
   12.04888916  120.19300079    0.55000001    0.41999999
   12.05222225  118.66500092    0.55000001    0.41999999
   12.05527782  119.75700378    0.55000001    0.41999999
   12.05861092  115.21900177    0.55000001    0.41999999
   12.06277752  115.21900177    0.55000001    0.41999999
   12.06694412  118.20700073    4.23999977    2.07999992
   12.06999969  120.86599731    4.59999990    2.07999992
   12.07333374  127.26799774    4.90999985    2.07999992
   12.07583332  128.64199829    4.90999985    2.05999994
   12.07694435  126.40799713    4.90999985    2.01999998
   12.08027744  123.61799622    4.90999985    2.00000000
   12.08361053  116.32599640    4.90999985    2.01999998
   12.08666611  125.82599640    4.90999985    2.01999998
   12.09000015  129.93600464    4.90999985    1.96000004
   12.09305477  127.71900177    4.90999985    1.96000004
   12.09638882  122.86299896    4.90999985    2.00000000
   12.09972191  130.84399414    4.90999985    2.03999996
   12.10555553  130.84399414    4.90999985    1.91999996
   12.10972214  120.60299683    4.90999985    1.98000002
   12.11305618  124.88500214    4.90999985    2.05999994
   12.11638927  122.58999634    4.90999985    1.98000002
   12.11972237  130.13200378    4.90999985    1.98000002
   12.12277794  122.14199829    4.90999985    2.01999998
   12.12611103  122.93699646    4.90999985    2.05999994
   12.12916660  122.53600311    4.90999985    2.03999996
   12.13249969  118.58899689    4.90999985    2.11999989
   12.13583279  121.60099792    4.90999985    2.09999990
   12.13888836  129.96400452    4.90999985    2.07999992
   12.14222240  114.27799988    4.90999985    2.01999998
   12.14277744  119.61000061    4.90999985    2.00000000
   12.14833355  119.61000061    4.80999994    2.03999996
   12.15249920  117.08999634    4.26999998    1.94000006
   12.15583324  116.04199982    4.17999983    2.05999994
   12.15888882  112.90699768    4.17999983    2.09999990
   12.16222191  118.98200226    3.86999989    2.11999989
   12.16555500  117.08200073    3.57999992    2.09999990
   12.16861153  113.25700378    3.53999996    2.13000011
   12.17194462  111.73100281    3.43000007    2.13000011
   12.17527771  107.22399902    3.14000010    2.11999989
   12.17611122  112.25700378    3.05999994    2.09999990
   12.17861176  116.75599670    3.11999989    2.09999990
   12.18194485  112.70800018    3.43000007    2.09999990
   12.18527794  114.51799774    3.75000000    2.13000011
   12.19138908  114.51799774    3.76999998    2.13000011
   12.19527817  117.29499817    3.80999994    2.11999989
   12.19861126  112.86499786    3.93000007    2.13000011
   12.20194435  113.47499847    3.97000003    2.13000011
   12.20499992  118.03900146    3.82999992    2.15000010
   12.20833302  119.79199982    3.36999989    2.15000010
   12.20944405  116.90799713    3.26999998    2.13000011
   12.21166611  112.92099762    3.16000009    2.13000011
   12.21500015  109.85399628    3.21000004    2.13000011
   12.21833324  117.86100006    3.41000009    2.13000011
   12.22138882  117.06099701    3.48000002    2.13000011
   12.22472191  118.17299652    3.26999998    2.13000011
   12.22805500  122.83699799    3.09999990    2.13000011
   12.23472214  122.83699799    2.91000009    2.13000011
   12.23888874  122.28399658    2.89000010    2.15000010
   12.24222279  121.44699860    2.96000004    2.15000010
   12.24277782  120.25099945    2.96000004    2.15000010
   12.24555588  121.41400146    2.89000010    2.15000010
   12.24888897  116.85500336    2.73000002    2.15000010
   12.25222206  117.99900055    2.55999994    2.15000010
   12.25527763  119.71199799    2.39000010    2.17000008
   12.25861073  128.40199280    2.32999992    2.15000010
   12.26194477  119.62200165    2.30999994    2.15000010
   12.26500034  121.03099823    2.26999998    2.17000008
   12.26833344  122.73899841    2.25000000    2.17000008
   12.27138901  123.74400330    2.23000002    2.17000008
   12.27694416  123.74400330    2.23000002    2.17000008
   12.28111076  125.89800262    2.23000002    2.17000008
   12.28444481  125.22399902    2.21000004    2.17000008
   12.28750038  121.16100311    2.21000004    2.17000008
   12.29083347  118.93499756    2.19000006    2.17000008
   12.29388905  120.67099762    2.19000006    2.17000008
   12.29722309  118.27300262    2.19000006    2.17000008
   12.30055618  119.98699951    2.19000006    2.17000008
   12.30361176  117.06500244    2.17000008    2.19000006
   12.30694485  119.25499725    2.17000008    2.19000006
   12.30944443  117.56600189    2.15000010    2.19000006
   12.31027794  121.93399811    2.15000010    2.17000008
   12.31361103  118.30300140    2.15000010    2.19000006
   12.31972218  118.30300140    2.15000010    2.19000006
   12.32388878  121.33999634    2.13000011    2.21000004
   12.32722187  121.63200378    2.13000011    2.21000004
   12.33027744  119.65499878    2.13000011    2.21000004
   12.33361053  119.40899658    2.11999989    2.21000004
   12.33694458  121.20500183    2.11999989    2.21000004
   12.34000015  129.08299255    2.11999989    2.21000004
   12.34277725  127.76799774    2.11999989    2.21000004
   12.34361076  124.03900146    2.11999989    2.21000004
   12.34694386  124.76999664    2.11999989    2.21000004
   12.35027790  125.06900024    2.11999989    2.21000004
   12.35333347  123.28199768    2.11999989    2.21000004
   12.35666752  121.38999939    2.11999989    2.21000004
   12.36277771  121.38999939    2.09999990    2.21000004
   12.36666679  122.49199677    2.09999990    2.21000004
   12.36999989  123.82599640    2.09999990    2.21000004
   12.37333393  122.05699921    2.09999990    2.21000004
   12.37611103  124.93000031    2.09999990    2.23000002
   12.37666702  120.94100189    2.09999990    2.21000004
   12.38000011  123.62699890    2.09999990    2.23000002
   12.38333321  121.14900208    2.09999990    2.23000002
   12.38638878  120.55200195    2.07999992    2.23000002
   12.38972187  126.00499725    2.07999992    2.23000002
   12.39305496  125.49199677    2.09999990    2.23000002
   12.39611053  124.41500092    2.09999990    2.23000002
   12.39944458  126.37000275    2.09999990    2.23000002
   12.40555477  126.37000275    2.11999989    2.23000002
   12.40972137  127.27100372    2.11999989    2.23000002
   12.41277695  125.99800110    2.11999989    2.23000002
   12.41611099  125.73699951    2.11999989    2.23000002
   12.41944504  126.31700134    2.11999989    2.25000000
   12.42250061  135.33200073    2.11999989    2.25000000
   12.42583370  126.48600006    2.11999989    2.23000002
   12.42888927  130.52400208    2.09999990    2.26999998
   12.43222237  120.24400330    2.11999989    2.23000002
   12.43555546  122.52500153    2.09999990    2.23000002
   12.43861103  123.43000031    2.09999990    2.23000002
   12.44194412  127.79699707    2.09999990    2.26999998
   12.44277763  128.59500122    2.09999990    2.25000000
   12.44833374  128.59500122    2.09999990    2.25000000
   12.45249939  132.10800171    2.07999992    2.25000000
   12.45583344  132.06300354    2.07999992    2.25000000
   12.45888901  128.61399841    2.07999992    2.25000000
   12.46222210  125.51399994    2.07999992    2.25000000
   12.46555519  125.05999756    2.07999992    2.25000000
   12.46861076  127.34899902    2.07999992    2.25000000
   12.47194386  128.20700073    2.05999994    2.26999998
   12.47527695  131.53599548    2.05999994    2.26999998
   12.47611046  129.01899719    2.03999996    2.26999998
   12.47888851  127.11499786    2.03999996    2.26999998
   12.48194408  129.64799500    2.01999998    2.26999998
   12.48527813  128.42500305    2.01999998    2.26999998
   12.49111176  128.42500305    2.01999998    2.26999998
   12.49527836  129.67500305    2.01999998    2.26999998
   12.49861145  136.06599426    2.01999998    2.26999998
   12.50166702  134.48800659    2.00000000    2.26999998
   12.50500011  132.13099670    2.01999998    2.28999996
   12.50833321  133.77299500    2.01999998    2.28999996
   12.50944424  132.19500732    2.01999998    2.28999996
   12.51194477  128.43899536    2.01999998    2.28999996
   12.51500034  122.24099731    2.01999998    2.28999996
   12.51833344  129.06199646    2.01999998    2.26999998
   12.52138901  129.50300598    2.01999998    2.26999998
   12.52472210  130.66099548    2.00000000    2.28999996
   12.52805519  130.74899292    2.00000000    2.28999996
   12.53416729  130.74899292    2.00000000    2.28999996
   12.53805637  129.75199890    2.00000000    2.28999996
   12.54138947  128.53799438    2.00000000    2.28999996
   12.54277802  123.76499939    2.01999998    2.28999996
   12.54500008  123.45600128    2.00000000    2.28999996
   12.54805565  130.23500061    2.00000000    2.26999998
   12.55138874  128.42900085    2.00000000    2.28999996
   12.55472279  126.05100250    2.00000000    2.26999998
   12.55777836  127.13400269    2.00000000    2.28999996
   12.56111145  123.99700165    2.00000000    2.28999996
   12.56444454  128.89999390    2.00000000    2.28999996
   12.56750011  131.69500732    2.00000000    2.28999996
   12.57083321  123.35800171    2.00000000    2.30999994
   12.57694435  123.35800171    1.98000002    2.28999996
   12.58111095  125.16999817    1.96000004    2.28999996
   12.58416653  127.59500122    1.96000004    2.30999994
   12.58749962  127.48100281    1.96000004    2.30999994
   12.59083271  128.95199585    1.96000004    2.30999994
   12.59388828  126.78099823    1.94000006    2.30999994
   12.59722233  125.11799622    1.94000006    2.30999994
   12.60027790  129.81399536    1.94000006    2.30999994
   12.60361195  124.20300293    1.94000006    2.32999992
   12.60694504  123.36100006    1.94000006    2.30999994
   12.60944462  119.78399658    1.94000006    2.30999994
   12.61055565  122.26799774    1.94000006    2.30999994
   12.61361122  124.14700317    1.94000006    2.28999996
   12.61972237  124.14700317    1.91999996    2.30999994
   12.62388897  130.55999756    1.91999996    2.32999992
   12.62722206  129.29100037    1.91999996    2.30999994
   12.63027763  131.92700195    1.91999996    2.30999994
   12.63361073  126.05500031    1.91999996    2.32999992
   12.63666630  127.01599884    1.91999996    2.30999994
   12.64000034  125.70800018    1.89999998    2.32999992
   12.64277744  130.06500244    1.89999998    2.32999992
   12.64361095  126.54799652    1.89999998    2.32999992
   12.64666653  129.95199585    1.89999998    2.32999992
   12.64999962  132.32099915    1.88000000    2.32999992
   12.65305519  128.72000122    1.88000000    2.32999992
   12.65638828  124.84700012    1.88000000    2.32999992
   12.66249943  124.84700012    1.88000000    2.30999994
   12.66666698  125.00700378    1.88000000    2.32999992
   12.67000008  123.94999695    1.86000001    2.32999992
   12.67305565  122.19100189    1.86000001    2.32999992
   12.67611122  124.62000275    1.85000002    2.32999992
   12.67694473  117.88400269    1.85000002    2.32999992
   12.68000031  124.59899902    1.86000001    2.32999992
   12.68333340  125.29699707    1.86000001    2.32999992
   12.68638897  123.33599854    1.88000000    2.32999992
   12.68972206  127.30100250    1.89999998    2.34999990
   12.69305515  121.41899872    1.89999998    2.34999990
   12.69611073  124.86199951    1.89999998    2.34999990
   12.69944477  123.41000366    1.89999998    2.32999992
   12.70555496  123.41000366    1.88000000    2.34999990
   12.70972157  126.28900146    1.88000000    2.32999992
   12.71277714  129.61099243    1.89999998    2.32999992
   12.71611118  129.92799377    1.88000000    2.34999990
   12.71944427  128.13200378    1.88000000    2.34999990
   12.72249985  132.57099915    1.89999998    2.34999990
   12.72583294  133.11300659    1.89999998    2.34999990
   12.72888851  126.06500244    1.89999998    2.36999989
   12.73222160  132.65199280    1.91999996    2.34999990
   12.73555565  130.74000549    1.91999996    2.34999990
   12.73861122  132.84100342    1.94000006    2.36999989
   12.74194431  132.64500427    1.94000006    2.36999989
   12.74277782  133.45199585    1.94000006    2.36999989
   12.74833393  133.45199585    1.91999996    2.32999992
   12.75249958  125.01899719    1.94000006    2.36999989
   12.75555515  131.72999573    1.91999996    2.34999990
   12.75888920  122.06099701    1.91999996    2.34999990
   12.76222229  126.47100067    1.91999996    2.34999990
   12.76527786  128.04800415    1.91999996    2.34999990
   12.76861095  123.51999664    1.94000006    2.34999990
   12.77166653  124.73799896    1.96000004    2.36999989
   12.77499962  124.78800201    1.96000004    2.34999990
   12.77611065  128.57499695    1.96000004    2.36999989
   12.77861118  129.87800598    2.00000000    2.36999989
   12.78166676  123.44300079    1.94000006    2.36999989
   12.78500080  132.91099548    1.89999998    2.34999990
   12.79111195  132.91099548    1.91999996    2.36999989
   12.79527855  133.40499878    1.91999996    2.36999989
   12.79861164  128.44999695    1.91999996    2.36999989
   12.80166721  129.56700134    1.91999996    2.36999989
   12.80500031  121.99299622    1.94000006    2.36999989
   12.80805588  123.93800354    1.91999996    2.36999989
   12.80944443  120.92099762    1.91999996    2.36999989
   12.81194496  128.64900208    1.89999998    2.36999989
   12.81500053  130.85600281    1.89999998    2.36999989
   12.81833363  127.83599854    1.89999998    2.36999989
   12.82166672  121.93499756    1.89999998    2.36999989
   12.82472229  124.96900177    1.89999998    2.36999989
   12.82805538  128.01400757    1.89999998    2.36999989
   12.83388901  128.01400757    1.89999998    2.36999989
   12.83805561  125.06099701    1.88000000    2.36999989
   12.84138870  123.75800323    1.88000000    2.36999989
   12.84277725  123.66999817    1.88000000    2.36999989
   12.84499931  125.67299652    1.88000000    2.36999989
   12.84805489  119.47000122    1.86000001    2.36999989
   12.85138893  123.90399933    1.86000001    2.36999989
   12.85472298  123.38999939    1.85000002    2.39000010
   12.85777855  122.42099762    1.85000002    2.39000010
   12.86111164  124.03299713    1.85000002    2.39000010
   12.86416721  127.27300262    1.83000004    2.36999989
   12.86750031  123.41899872    1.83000004    2.36999989
   12.87083340  126.55500031    1.83000004    2.39000010
   12.87666702  126.55500031    1.83000004    2.39000010
   12.88083363  127.45500183    1.83000004    2.39000010
   12.88416672  121.52500153    1.80999994    2.39000010
   12.88749981  124.18299866    1.80999994    2.39000010
   12.89083290  129.54299927    1.80999994    2.40000010
   12.89388847  130.20799255    1.80999994    2.40000010
   12.89722252  126.23699951    1.80999994    2.39000010
   12.90027714  133.06799316    1.78999996    2.39000010
   12.90361118  124.91999817    1.78999996    2.39000010
   12.90694427  122.35199738    1.80999994    2.39000010
   12.90944386  124.62799835    1.80999994    2.39000010
   12.91055489  125.58999634    1.80999994    2.39000010
   12.91361046  125.85299683    1.83000004    2.39000010
   12.91972256  125.85299683    1.83000004    2.39000010
   12.92388916  118.49700165    1.83000004    2.39000010
   12.92694473  126.90299988    1.83000004    2.39000010
   12.93027782  123.52400208    1.80999994    2.40000010
   12.93361092  123.60500336    1.80999994    2.40000010
   12.93666649  124.61699677    1.80999994    2.40000010
   12.94000053  122.40399933    1.80999994    2.39000010
   12.94277763  121.34500122    1.80999994    2.40000010
   12.94361115  125.54599762    1.80999994    2.40000010
   12.94666672  125.89299774    1.80999994    2.40000010
   12.94999981  128.21000671    1.80999994    2.39000010
   12.95333290  125.96199799    1.80999994    2.39000010
   12.95638847  124.77100372    1.80999994    2.39000010
   12.96249962  124.77100372    1.80999994    2.39000010
   12.96666622  125.27899933    1.78999996    2.40000010
   12.96972179  123.73600006    1.78999996    2.40000010
   12.97305489  126.26300049    1.78999996    2.39000010
   12.97611046  128.91200256    1.78999996    2.40000010
   12.97666645  125.80799866    1.78999996    2.40000010
   12.97972202  124.22899628    1.78999996    2.40000010
   12.98305511  119.16200256    1.78999996    2.40000010
   12.98638916  117.35099792    1.78999996    2.40000010
   12.98944473  122.09999847    1.78999996    2.40000010
   12.99277782  123.68800354    1.78999996    2.40000010
   12.99611092  123.83499908    1.76999998    2.40000010
   12.99916649  119.98400116    1.76999998    2.40000010
   13.00527763  119.98400116    1.73000002    2.40000010
   13.00944424  126.79499817    1.71000004    2.40000010
   13.01000023  130.29100037    1.71000004    2.40000010
   13.01305580  120.38899994    1.69000006    2.40000010
   13.01638889  127.67500305    1.69000006    2.40000010
   13.01972198  131.49499512    1.69000006    2.42000008
   13.02277756  122.62000275    1.69000006    2.40000010
   13.02611065  124.75399780    1.69000006    2.40000010
   13.02916622  126.70400238    1.71000004    2.42000008
   13.03249931  124.66400146    1.71000004    2.40000010
   13.03583336  126.19000244    1.71000004    2.42000008
   13.03888893  122.79199982    1.71000004    2.40000010
   13.04222298  120.61100006    1.71000004    2.40000010
   13.04277802  124.53099823    1.71000004    2.40000010
   13.06361103  124.53099823    1.66999996    2.42000008
   13.06750011  124.80599976    1.66999996    2.42000008
   13.07083321  123.87799835    1.64999998    2.42000008
   13.07416630  121.17400360    1.63000000    2.42000008
   13.07611084  131.47200012    1.63000000    2.42000008
   13.07777786  123.35399628    1.63000000    2.42000008
   13.08083344  127.02999878    1.63000000    2.44000006
   13.08416653  130.36399841    1.61000001    2.42000008
   13.08749962  123.28900146    1.61000001    2.44000006
   13.09055519  119.57800293    1.63000000    2.40000010
   13.09388828  131.77900696    1.63000000    2.42000008
   13.09722233  124.00000000    1.64999998    2.44000006
   13.10027790  126.11100006    1.64999998    2.44000006
   13.10611153  126.11100006    1.64999998    2.42000008
   13.11027813  128.55599976    1.64999998    2.44000006
   13.11361122  124.22599792    1.64999998    2.40000010
   13.11694431  124.58300018    1.66999996    2.44000006
   13.11999989  126.51799774    1.66999996    2.42000008
   13.12333393  127.66300201    1.66999996    2.42000008
   13.12638855  130.41700745    1.64999998    2.44000006
   13.12972260  127.23600006    1.64999998    2.44000006
   13.13305569  125.91400146    1.64999998    2.44000006
   13.13611126  128.39500427    1.63000000    2.44000006
   13.13944435  128.00799561    1.64999998    2.44000006
   13.14277744  124.55400085    1.64999998    2.44000006
   13.14333344  126.86199951    1.64999998    2.44000006
   13.14916611  126.86199951    1.64999998    2.44000006
   13.15333271  130.13299561    1.64999998    2.44000006
   13.15638828  126.94000244    1.64999998    2.44000006
   13.15972137  124.95500183    1.63000000    2.44000006
   13.16277695  126.57499695    1.63000000    2.42000008
   13.16611099  123.63800049    1.64999998    2.44000006
   13.16944504  129.02699280    1.64999998    2.44000006
   13.17250061  124.99700165    1.64999998    2.44000006
   13.17583370  127.11900330    1.64999998    2.44000006
   13.17638874  125.30699921    1.63000000    2.44000006
   13.17944431  126.54399872    1.63000000    2.44000006
   13.18277836  124.95400238    1.63000000    2.44000006
   13.18583298  133.67700195    1.63000000    2.44000006
   13.19194412  133.67700195    1.63000000    2.44000006
   13.19611073  127.23600006    1.63000000    2.44000006
   13.19916630  128.41000366    1.63000000    2.44000006
   13.20249939  126.18399811    1.63000000    2.44000006
   13.20583344  126.58000183    1.61000001    2.46000004
   13.20888901  127.10299683    1.61000001    2.44000006
   13.20972157  128.29499817    1.61000001    2.44000006
   13.21249962  126.50199890    1.61000001    2.44000006
   13.21583271  128.11399841    1.61000001    2.44000006
   13.21888828  125.75599670    1.61000001    2.44000006
   13.22222137  124.62899780    1.60000002    2.46000004
   13.22527695  123.89600372    1.60000002    2.46000004
   13.22861099  128.71000671    1.60000002    2.44000006
   13.23472214  128.71000671    1.60000002    2.46000004
   13.23888874  122.48000336    1.60000002    2.44000006
   13.24222279  123.36699677    1.60000002    2.46000004
   13.24305534  121.97699738    1.60000002    2.46000004
   13.24583340  119.24299622    1.60000002    2.44000006
   13.24916649  123.95999908    1.60000002    2.46000004
   13.25222206  127.59799957    1.60000002    2.46000004
   13.25555515  122.99700165    1.60000002    2.46000004
   13.25888920  123.54399872    1.60000002    2.44000006
   13.26194477  130.30799866    1.60000002    2.46000004
   13.26527786  129.44700623    1.60000002    2.46000004
   13.26833344  129.71699524    1.60000002    2.46000004
   13.27166653  125.09700012    1.60000002    2.46000004
   13.27777767  125.09700012    1.60000002    2.46000004
   13.28166676  122.57499695    1.60000002    2.46000004
   13.28500080  123.31400299    1.60000002    2.46000004
   13.28833389  128.11599731    1.58000004    2.44000006
   13.29138947  126.85099792    1.58000004    2.46000004
   13.29472256  121.71399689    1.60000002    2.46000004
   13.29777813  127.64299774    1.60000002    2.46000004
   13.30111122  132.01499939    1.60000002    2.46000004
   13.30444431  123.95500183    1.61000001    2.46000004
   13.30749989  124.14099884    1.61000001    2.46000004
   13.30972195  124.46900177    1.61000001    2.46000004
   13.31111145  126.59500122    1.61000001    2.46000004
   13.31444454  120.63700104    1.61000001    2.46000004
   13.32055569  120.63700104    1.61000001    2.46000004
   13.32444477  126.88700104    1.61000001    2.46000004
   13.32777786  128.89399719    1.61000001    2.46000004
   13.33111095  128.68299866    1.61000001    2.48000002
   13.33416653  121.45500183    1.61000001    2.48000002
   13.33749962  121.42500305    1.61000001    2.48000002
   13.34083271  128.26100159    1.61000001    2.48000002
   13.34305477  128.28900146    1.61000001    2.46000004
   13.34444427  123.94999695    1.61000001    2.46000004
   13.34777737  119.51200104    1.61000001    2.46000004
   13.35083389  120.14499664    1.61000001    2.46000004
   13.35416698  119.10399628    1.60000002    2.46000004
   13.35722256  114.66500092    1.60000002    2.46000004
   13.36333370  114.66500092    1.58000004    2.48000002
   13.36750031  121.84500122    1.55999994    2.48000002
   13.37055588  122.44200134    1.55999994    2.48000002
   13.37388897  125.77500153    1.55999994    2.46000004
   13.37638855  124.02400208    1.55999994    2.48000002
   13.37750053  130.72500610    1.55999994    2.48000002
   13.38083363  129.35899353    1.55999994    2.48000002
   13.38416672  124.66600037    1.55999994    2.48000002
   13.38722229  123.65499878    1.55999994    2.48000002
   13.39055538  120.79699707    1.55999994    2.48000002
   13.39388847  122.08599854    1.55999994    2.48000002
   13.39694405  126.75599670    1.55999994    2.48000002
   13.40027714  128.93800354    1.58000004    2.46000004
   13.40611076  128.93800354    1.58000004    2.48000002
   13.41027737  123.31099701    1.58000004    2.48000002
   13.41361046  119.21299744    1.58000004    2.48000002
   13.41666698  103.67099762    1.60000002    2.48000002
   13.42000008  121.07499695    1.60000002    2.48000002
   13.42333412  121.74800110    1.60000002    2.48000002
   13.42638874  126.39299774    1.60000002    2.48000002
   13.42972279  122.05000305    1.60000002    2.48000002
   13.43305588  124.80100250    1.60000002    2.48000002
   13.43611145  110.80400085    1.55999994    2.48000002
   13.43944454  124.45099640    1.55999994    2.48000002
   13.44250011  126.77500153    1.53999996    2.48000002
   13.44305515  115.52200317    1.53999996    2.48000002
   13.44888878  115.52200317    1.53999996    2.48000002
   13.45305538  127.57399750    1.53999996    2.48000002
   13.45638847  115.53600311    1.53999996    2.48000002
   13.45944405  122.01599884    1.53999996    2.48000002
   13.46277714  123.97899628    1.53999996    2.50000000
   13.46611118  118.00000000    1.53999996    2.48000002
   13.46916580  122.56099701    1.53999996    2.48000002
   13.47249985  123.82599640    1.53999996    2.48000002
   13.47583294  123.32700348    1.53999996    2.48000002
   13.47638798  127.46600342    1.53999996    2.48000002
   13.47916603  120.38600159    1.53999996    2.48000002
   13.48249912  123.02500153    1.51999998    2.48000002
   13.48555565  122.58200073    1.51999998    2.50000000
   13.49194431  122.58200073    1.51999998    2.50000000
   13.49583340  125.87999725    1.50000000    2.48000002
   13.49916649  123.29599762    1.50000000    2.48000002
   13.50249958  126.38999939    1.50000000    2.48000002
   13.50555515  118.88099670    1.50000000    2.48000002
   13.50888920  122.66500092    1.50000000    2.48000002
   13.50972176  119.46900177    1.48000002    2.50000000
   13.51249981  117.31800079    1.48000002    2.50000000
   13.51583290  120.68399811    1.48000002    2.50000000
   13.51888847  115.72799683    1.50000000    2.50000000
   13.52222157  118.99299622    1.50000000    2.51999998
   13.52555561  119.09700012    1.50000000    2.50000000
   13.52861118  115.28099823    1.50000000    2.50000000
   13.53472233  115.28099823    1.50000000    2.50000000
   13.53888893  122.95999908    1.51999998    2.50000000
   13.54194450  126.31700134    1.51999998    2.50000000
   13.54333401  127.27600098    1.51999998    2.48000002
   13.54583359  122.62799835    1.51999998    2.48000002
   13.54888916  123.61499786    1.51999998    2.50000000
   13.55222225  122.92900085    1.50000000    2.50000000
   13.55555534  116.43599701    1.50000000    2.50000000
   13.55861092  127.44000244    1.50000000    2.50000000
   13.56194496  121.48200226    1.50000000    2.50000000
   13.56527805  121.47499847    1.50000000    2.50000000
   13.56833363  126.39900208    1.48000002    2.48000002
   13.57166672  124.67600250    1.48000002    2.48000002
   13.57750034  124.67600250    1.48000002    2.50000000
   13.58166695  119.91400146    1.48000002    2.51999998
   13.58500004  122.86900330    1.48000002    2.51999998
   13.58805561  120.10800171    1.48000002    2.51999998
   13.59138870  121.59200287    1.48000002    2.50000000
   13.59444427  115.21099854    1.48000002    2.51999998
   13.59777737  119.77500153    1.48000002    2.51999998
   13.60111141  118.78900146    1.48000002    2.50000000
   13.60416698  120.15899658    1.48000002    2.50000000
   13.60750008  112.66300201    1.48000002    2.51999998
   13.60972214  117.53299713    1.50000000    2.50000000
   13.61111164  117.48899841    1.50000000    2.50000000
   13.61444473  122.13200378    1.51999998    2.51999998
   13.62027836  122.13200378    1.51999998    2.50000000
   13.62444496  123.25900269    1.51999998    2.51999998
   13.62777805  121.40799713    1.51999998    2.50000000
   13.63083363  117.90699768    1.51999998    2.50000000
   13.63416672  128.43899536    1.51999998    2.50000000
   13.63749981  124.05400085    1.50000000    2.51999998
   13.64055538  122.96199799    1.50000000    2.51999998
   13.64305496  128.05200195    1.50000000    2.51999998
   13.64416695  123.35399628    1.50000000    2.51999998
   13.64750004  118.98000336    1.50000000    2.51999998
   13.65083313  120.79299927    1.48000002    2.50000000
   13.65388870  123.52899933    1.48000002    2.50000000
   13.65722179  118.06700134    1.48000002    2.51999998
   13.66333294  118.06700134    1.48000002    2.51999998
   13.66750050  123.96499634    1.46000004    2.51999998
   13.67083359  118.76399994    1.46000004    2.50000000
   13.67388916  119.99500275    1.48000002    2.50000000
   13.67638874  119.08899689    1.48000002    2.50000000
   13.67750072  117.49800110    1.48000002    2.51999998
   13.68083382  118.73699951    1.48000002    2.51999998
   13.68388939  120.55599976    1.48000002    2.51999998
   13.68722248  114.54599762    1.48000002    2.51999998
   13.69055557  113.19599915    1.48000002    2.51999998
   13.69361115  115.11100006    1.50000000    2.51999998
   13.69694424  118.84700012    1.50000000    2.51999998
   13.70027733  117.86399841    1.48000002    2.51999998
   13.70611095  117.86399841    1.50000000    2.51999998
   13.71027756  122.62999725    1.48000002    2.51999998
   13.71333313  120.12500000    1.48000002    2.51999998
   13.71666622  117.50599670    1.48000002    2.51999998
   13.71999931  123.21800232    1.48000002    2.51999998
   13.72305489  124.27200317    1.46000004    2.51999998
   13.72638798  123.84600067    1.44000006    2.50000000
   13.72972202  127.19999695    1.44000006    2.51999998
   13.73277760  119.50199890    1.44000006    2.51999998
   13.73611164  120.17800140    1.44000006    2.51999998
   13.73916721  126.80200195    1.44000006    2.51999998
   13.74250031  123.37899780    1.44000006    2.51999998
   13.74333382  129.54100037    1.44000006    2.51999998
   13.74888897  129.54100037    1.44000006    2.51999998
   13.75305557  122.62100220    1.44000006    2.51999998
   13.75638866  130.35699463    1.44000006    2.51999998
   13.75944424  119.91000366    1.44000006    2.51999998
   13.76277733  120.11399841    1.44000006    2.51999998
   13.76583290  121.63300323    1.44000006    2.51999998
   13.76916599  114.27400208    1.41999996    2.53999996
   13.77250004  116.93399811    1.44000006    2.51999998
   13.77555561  120.48999786    1.41999996    2.53999996
   13.77666664  122.11399841    1.41999996    2.53999996
   13.77916622  117.02700043    1.41999996    2.51999998
   13.78249931  122.59500122    1.41999996    2.51999998
   13.78555584  115.49099731    1.41999996    2.51999998
   13.79166698  115.49099731    1.41999996    2.53999996
   13.79583359  118.64900208    1.41999996    2.51999998
   13.79916668  121.31400299    1.39999998    2.53999996
   13.80222225  122.80999756    1.39999998    2.51999998
   13.80555534  119.50299835    1.39999998    2.51999998
   13.80888939  117.60700226    1.39999998    2.53999996
   13.81000042  118.48100281    1.39999998    2.53999996
   13.81222248  120.69000244    1.38000000    2.53999996
   13.81555557  120.50599670    1.38000000    2.53999996
   13.81888866  117.62500000    1.36000001    2.53999996
   13.82194424  126.96099854    1.36000001    2.53999996
   13.82527733  126.13999939    1.36000001    2.53999996
   13.82861137  126.25499725    1.36000001    2.53999996
   13.83472157  126.25499725    1.36000001    2.51999998
   13.83861065  119.44300079    1.36000001    2.53999996
   13.84194374  110.33699799    1.36000001    2.53999996
   13.84333324  121.75399780    1.36000001    2.53999996
   13.84555531  121.55400085    1.36000001    2.53999996
   13.84888840  121.84700012    1.34000003    2.53999996
   13.85194492  120.44599915    1.34000003    2.55999994
   13.85527802  118.08399963    1.34000003    2.53999996
   13.85861111  120.93699646    1.34000003    2.55999994
   13.86166668  121.06999969    1.34000003    2.55999994
   13.86500072  115.02200317    1.34000003    2.53999996
   13.86833382  115.26999664    1.34000003    2.53999996
   13.87138939  117.64800262    1.34000003    2.53999996
   13.87750053  117.64800262    1.34000003    2.53999996
   13.88166714  121.26399994    1.34000003    2.53999996
   13.88472176  123.52899933    1.34000003    2.53999996
   13.88805580  124.98400116    1.34000003    2.53999996
   13.89138889  123.91799927    1.34000003    2.53999996
   13.89444447  120.03099823    1.33000004    2.53999996
   13.89777756  121.89600372    1.30999994    2.55999994
   13.90111065  121.16000366    1.30999994    2.53999996
   13.90416622  123.01100159    1.28999996    2.53999996
   13.90749931  120.63300323    1.26999998    2.53999996
   13.90999985  119.51100159    1.26999998    2.55999994
   13.91111088  118.92600250    1.26999998    2.53999996
   13.91444397  115.12400055    1.28999996    2.55999994
   13.92027855  115.12400055    1.30999994    2.55999994
   13.92444515  117.75000000    1.30999994    2.55999994
   13.92777824  116.62100220    1.30999994    2.55999994
   13.93083382  119.73600006    1.30999994    2.55999994
   13.93416691  120.89399719    1.30999994    2.55999994
   13.93750000  120.26300049    1.30999994    2.55999994
   13.94055557  112.74700165    1.33000004    2.53999996
   13.94333363  116.53700256    1.33000004    2.53999996
   13.94416714  119.20899963    1.33000004    2.53999996
   13.94750023  119.63600159    1.33000004    2.53999996
   13.95055580  115.72499847    1.34000003    2.53999996
   13.95388889  120.61299896    1.34000003    2.53999996
   13.95722198  110.44000244    1.33000004    2.55999994
   13.96305561  110.44000244    1.33000004    2.55999994
   13.96722221  116.62200165    1.33000004    2.55999994
   13.97055531  117.80500031    1.33000004    2.55999994
   13.97361088  117.95400238    1.34000003    2.55999994
   13.97666645  119.03399658    1.34000003    2.55999994
   13.97722149  118.94599915    1.34000003    2.55999994
   13.98055553  118.63500214    1.34000003    2.53999996
   13.98361111  121.82499695    1.36000001    2.55999994
   13.98694515  117.92600250    1.36000001    2.55999994
   13.99027824  118.90000153    1.36000001    2.53999996
   13.99333382  121.71399689    1.36000001    2.53999996
   13.99666691  118.51599884    1.36000001    2.55999994
   14.00000000  122.66000366    1.34000003    2.55999994
   14.00611115  122.66000366    1.33000004    2.55999994
   14.01027775  119.15899658    1.33000004    2.55999994
   14.01361084  128.44999695    1.30999994    2.53999996
   14.01666641  119.58499908    1.30999994    2.53999996
   14.01999950  119.14700317    1.30999994    2.53999996
   14.02333355  124.63200378    1.30999994    2.55999994
   14.02638817  120.07099915    1.30999994    2.55999994
   14.02972221  116.87999725    1.30999994    2.55999994
   14.03277779  118.82499695    1.30999994    2.55999994
   14.03611183  123.96099854    1.28999996    2.55999994
   14.03944492  118.90100098    1.30999994    2.55999994
   14.04250050  121.48699951    1.30999994    2.55999994
   14.04333401  119.96199799    1.30999994    2.55999994
   14.04888916  119.96199799    1.30999994    2.55999994
   14.05305576  117.87599945    1.30999994    2.55999994
   14.05611134  122.44000244    1.30999994    2.55999994
   14.05944443  121.71900177    1.33000004    2.55999994
   14.07694435  110.65399933    1.34000003    2.55999994
   14.07944393  119.86900330    1.33000004    2.55999994
   14.08249950  119.01699829    1.33000004    2.55999994
   14.08583260  115.17500305    1.33000004    2.55999994
   14.09166622  115.17500305    1.30999994    2.51999998
   14.09583282  123.56700134    1.30999994    2.57999992
   14.09916592  119.74800110    1.30999994    2.57999992
   14.10222244  124.86699677    1.30999994    2.55999994
   14.10555553  120.48200226    1.30999994    2.55999994
   14.10888958  115.79000092    1.30999994    2.55999994
   14.11027813  120.67400360    1.28999996    2.55999994
   14.11250019  117.71399689    1.28999996    2.55999994
   14.11583328  117.28700256    1.28999996    2.55999994
   14.11916637  115.87200165    1.28999996    2.55999994
   14.12222195  119.78800201    1.28999996    2.57999992
   14.12555599  119.85099792    1.28999996    2.55999994
   14.12861156  115.41999817    1.28999996    2.55999994
   14.13444424  115.41999817    1.30999994    2.55999994
   14.13861084  121.20999908    1.28999996    2.57999992
   14.14194393  112.80599976    1.26999998    2.55999994
   14.14361095  116.76100159    1.26999998    2.55999994
   14.14583302  123.48400116    1.26999998    2.55999994
   14.14888859  117.58599854    1.26999998    2.57999992
   14.15222168  116.17500305    1.25000000    2.57999992
   14.15555477  117.76999664    1.25000000    2.57999992
   14.15861034  122.36399841    1.25000000    2.55999994
   14.16194439  119.86799622    1.25000000    2.57999992
   14.16499996  122.87100220    1.25000000    2.57999992
   14.16833401  119.43699646    1.25000000    2.57999992
   14.17166710  116.83699799    1.25000000    2.57999992
   14.17750072  116.83699799    1.25000000    2.55999994
   14.18166733  119.66400146    1.23000002    2.57999992
   14.18472195  127.98999786    1.23000002    2.57999992
   14.18805599  128.13299561    1.21000004    2.55999994
   14.19111156  126.43800354    1.19000006    2.57999992
   14.19444466  119.34899902    1.19000006    2.57999992
   14.19777775  129.64399719    1.19000006    2.57999992
   14.20083332  124.65399933    1.19000006    2.59999990
   14.20416641  121.04000092    1.19000006    2.55999994
   14.20749950  123.71700287    1.19000006    2.55999994
   14.21027756  125.33899689    1.19000006    2.55999994
   14.21083355  125.20800018    1.21000004    2.59999990
   14.21416664  120.04900360    1.23000002    2.57999992
   14.22027779  120.04900360    1.25000000    2.59999990
   14.22444439  123.10299683    1.25000000    2.59999990
   14.22749996  117.26100159    1.26999998    2.59999990
   14.23083305  116.65000153    1.25000000    2.59999990
   14.23416710  115.54799652    1.26999998    2.57999992
   14.23750019  117.22699738    1.28999996    2.57999992
   14.24055576  122.60600281    1.28999996    2.57999992
   14.24361134  115.85399628    1.30999994    2.59999990
   14.24444485  115.45700073    1.30999994    2.59999990
   14.24750042  117.56099701    1.38000000    2.59999990
   14.25083351  115.59899902    1.36000001    2.57999992
   14.25416660  114.70099640    1.36000001    2.57999992
   14.25722218  117.02999878    1.36000001    2.57999992
   14.26305580  117.02999878    1.38000000    2.57999992
   14.26722240  121.85700226    1.36000001    2.57999992
   14.27055550  123.12100220    1.38000000    2.57999992
   14.27388859  120.38099670    1.38000000    2.57999992
   14.27694416  128.07600403    1.36000001    2.59999990
   14.27750015  112.22499847    1.36000001    2.59999990
   14.28083324  118.97000122    1.33000004    2.57999992
   14.28416729  122.83599854    1.33000004    2.57999992
   14.28722286  113.59700012    1.33000004    2.57999992
   14.29055595  124.60800171    1.33000004    2.57999992
   14.29361153  117.12100220    1.30999994    2.57999992
   14.29694462  120.26899719    1.28999996    2.57999992
   14.30027771  115.74800110    1.26999998    2.57999992
   14.30583382  115.74800110    1.26999998    2.57999992
   14.31000042  115.52899933    1.25000000    2.57999992
   14.31055546  118.11100006    1.25000000    2.57999992
   14.31388950  113.36199951    1.25000000    2.57999992
   14.31694412  115.43299866    1.25000000    2.55999994
   14.32027817  123.94699860    1.25000000    2.57999992
   14.32361126  118.94899750    1.23000002    2.57999992
   14.32666683  114.76200104    1.23000002    2.57999992
   14.32999992  112.76399994    1.23000002    2.57999992
   14.33333302  122.30100250    1.23000002    2.57999992
   14.33638859  118.75700378    1.23000002    2.57999992
   14.33972168  119.13600159    1.23000002    2.59999990
   14.34305477  114.86000061    1.23000002    2.55999994
   14.34388828  119.73400116    1.23000002    2.55999994
   14.34888840  119.73400116    1.23000002    2.57999992
   14.35305595  121.15699768    1.23000002    2.57999992
   14.35611153  121.06400299    1.23000002    2.59999990
   14.35944462  122.14099884    1.23000002    2.59999990
   14.36250019  122.35600281    1.23000002    2.59999990
   14.36583328  116.46600342    1.23000002    2.59999990
   14.36916637  120.54799652    1.23000002    2.59999990
   14.37222195  122.56300354    1.23000002    2.59999990
   14.37555599  117.80799866    1.23000002    2.59999990
   14.37722206  116.52600098    1.23000002    2.59999990
   14.37916660  116.12500000    1.23000002    2.59999990
   14.38222218  121.47899628    1.23000002    2.59999990
   14.38555527  119.87799835    1.25000000    2.57999992
   14.39166641  119.87799835    1.25000000    2.59999990
   14.39583302  122.61699677    1.25000000    2.59999990
   14.39888859  117.47200012    1.25000000    2.57999992
   14.40222168  119.28700256    1.23000002    2.59999990
   14.40555477  113.27700043    1.23000002    2.59999990
   14.40861034  118.27400208    1.23000002    2.59999990
   14.41055489  121.08499908    1.23000002    2.57999992
   14.41222191  120.05999756    1.23000002    2.57999992
   14.41527748  113.91799927    1.23000002    2.59999990
   14.41861153  115.31700134    1.23000002    2.59999990
   14.42194462  122.40699768    1.25000000    2.59999990
   14.42500019  115.73100281    1.25000000    2.59999990
   14.42833328  120.06400299    1.23000002    2.59999990
   14.43444443  120.06400299    1.23000002    2.59999990
   14.43861103  118.54000092    1.25000000    2.59999990
   14.44194412  119.85500336    1.21000004    2.59999990
   14.44388866  123.47899628    1.21000004    2.59999990
   14.44555569  117.69699860    1.21000004    2.59999990
   14.44888878  122.50499725    1.21000004    2.57999992
   14.45194435  124.44100189    1.21000004    2.59999990
   14.45527744  122.03800201    1.21000004    2.59999990
   14.45861053  116.69499969    1.21000004    2.59999990
   14.46194458  117.30999756    1.21000004    2.59999990
   14.46500015  115.80500031    1.21000004    2.59999990
   14.46833324  115.46099854    1.19000006    2.59999990
   14.47166634  116.65299988    1.19000006    2.59999990
   14.47722149  116.65299988    1.19000006    2.59999990
   14.48138809  113.14700317    1.21000004    2.59999990
   14.48472214  113.88600159    1.23000002    2.59999990
   14.48805618  120.07199860    1.21000004    2.59999990
   14.49111176  117.76499939    1.23000002    2.61999989
   14.49444485  120.08499908    1.25000000    2.59999990
   14.49777794  116.93800354    1.25000000    2.59999990
   14.50083351  119.98999786    1.26999998    2.59999990
   14.50416660  115.45700073    1.26999998    2.59999990
   14.50722218  116.63800049    1.26999998    2.59999990
   14.51055527  111.76200104    1.26999998    2.59999990
   14.51111126  117.10900116    1.26999998    2.59999990
   14.51444435  113.20800018    1.26999998    2.59999990
   14.52027798  113.20800018    1.25000000    2.59999990
   14.52416611  123.78199768    1.23000002    2.59999990
   14.52750015  111.13800049    1.23000002    2.59999990
   14.53083324  122.49800110    1.23000002    2.59999990
   14.53388977  118.20400238    1.23000002    2.59999990
   14.53722286  110.98600006    1.21000004    2.59999990
   14.54055595  113.36299896    1.21000004    2.59999990
   14.54361153  116.05799866    1.21000004    2.59999990
   14.54444504  119.30899811    1.21000004    2.59999990
   14.54750061  118.68099976    1.19000006    2.59999990
   14.55083370  116.40000153    1.19000006    2.59999990
   14.55388927  120.58699799    1.19000006    2.59999990
   14.55722237  113.09100342    1.16999996    2.59999990
   14.56305599  113.09100342    1.16999996    2.59999990
   14.56722260  117.22599792    1.16999996    2.59999990
   14.57027817  117.30699921    1.14999998    2.59999990
   14.57361126  108.41600037    1.14999998    2.59999990
   14.57694435  115.91999817    1.16999996    2.59999990
   14.57750034  114.05100250    1.16999996    2.59999990
   14.58055592  117.84600067    1.16999996    2.59999990
   14.58388901  120.23500061    1.16999996    2.59999990
   14.58694458  123.44499969    1.16999996    2.64000010
   14.59027767  120.04799652    1.16999996    2.61999989
   14.59333324  116.87500000    1.16999996    2.59999990
   14.59666634  117.11499786    1.19000006    2.59999990
   14.60000038  124.82099915    1.19000006    2.59999990
   14.60583401  124.82099915    1.19000006    2.59999990
   14.61000061  114.42199707    1.19000006    2.57999992
   14.61083412  117.79199982    1.19000006    2.57999992
   14.61361122  117.53199768    1.19000006    2.59999990
   14.61666679  118.46700287    1.19000006    2.59999990
   14.61999989  117.21499634    1.19000006    2.59999990
   14.62305546  113.02700043    1.19000006    2.61999989
   14.62638855  117.96399689    1.19000006    2.61999989
   14.62972260  122.20099640    1.19000006    2.59999990
   14.63277817  112.96399689    1.19000006    2.61999989
   14.63611126  120.29499817    1.19000006    2.61999989
   14.63944435  118.27600098    1.19000006    2.59999990
   14.64249992  117.18099976    1.19000006    2.61999989
   14.64416695  118.59700012    1.19000006    2.61999989
   14.64861107  118.59700012    1.19000006    2.61999989
   14.65277767  116.41699982    1.19000006    2.61999989
   14.65611076  114.19200134    1.19000006    2.59999990
   14.65916634  118.23799896    1.19000006    2.61999989
   14.66249943  112.65599823    1.16999996    2.59999990
   14.66583252  120.68099976    1.16999996    2.61999989
   14.66916656  116.48999786    1.16999996    2.61999989
   14.67222214  120.27899933    1.16999996    2.59999990
   14.67555618  108.82399750    1.16999996    2.61999989
   14.67750072  119.88500214    1.16999996    2.61999989
   14.67916679  119.76399994    1.16999996    2.61999989
   14.68222237  121.05899811    1.14999998    2.64000010
   14.68555546  119.43699646    1.14999998    2.61999989
   14.69166660  119.43699646    1.13000000    2.59999990
   14.69555569  115.80200195    1.13000000    2.59999990
   14.69888878  114.94499969    1.13000000    2.59999990
   14.70222187  115.62500000    1.11000001    2.61999989
   14.70527744  114.99400330    1.13000000    2.59999990
   14.70861053  120.80899811    1.11000001    2.59999990
   14.71083355  116.56500244    1.11000001    2.59999990
   14.71222210  120.43299866    1.13000000    2.64000010
   14.71527767  124.14900208    1.13000000    2.59999990
   14.71861076  111.36199951    1.13000000    2.59999990
   14.72194386  120.22799683    1.13000000    2.61999989
   14.72499943  116.62000275    1.13000000    2.61999989
   14.72833252  116.48200226    1.13000000    2.61999989
   14.73444462  116.48200226    1.14999998    2.61999989
   14.73861122  117.54799652    1.14999998    2.61999989
   14.74166679  124.12899780    1.14999998    2.61999989
   14.74416733  121.98400116    1.14999998    2.61999989
   14.74555588  119.57299805    1.14999998    2.61999989
   14.74861145  122.48100281    1.13000000    2.61999989
   14.75194454  115.91699982    1.13000000    2.61999989
   14.75527763  119.55400085    1.11000001    2.61999989
   14.75833321  118.34300232    1.11000001    2.64000010
   14.76166630  116.50199890    1.11000001    2.64000010
   14.76472187  114.71499634    1.11000001    2.61999989
   14.76805496  115.58300018    1.09000003    2.61999989
   14.77138901  121.02400208    1.09000003    2.61999989
   14.77722168  121.02400208    1.11000001    2.64000010
   14.78138828  114.90200043    1.09000003    2.61999989
   14.78472233  123.92199707    1.09000003    2.64000010
   14.78777790  114.35299683    1.09000003    2.61999989
   14.79111195  120.33499908    1.09000003    2.59999990
   14.79444504  117.45400238    1.09000003    2.61999989
   14.79777813  114.39600372    1.09000003    2.61999989
   14.80083370  108.88300323    1.11000001    2.61999989
   14.80416679  107.75599670    1.11000001    2.61999989
   14.80749989  114.37200165    1.11000001    2.61999989
   14.81055546  118.41999817    1.11000001    2.61999989
   14.81222248  120.85700226    1.11000001    2.61999989
   14.81416702  113.81900024    1.13000000    2.61999989
   14.81999969  113.81900024    1.13000000    2.61999989
   14.82416630  112.59600067    1.13000000    2.61999989
   14.82750034  113.15499878    1.14999998    2.61999989
   14.83083344  119.26799774    1.13000000    2.61999989
   14.83388901  113.99700165    1.13000000    2.64000010
   14.83722210  118.56900024    1.13000000    2.64000010
   14.84055519  118.90799713    1.13000000    2.61999989
   14.84361076  122.81900024    1.13000000    2.61999989
   14.84555531  125.36199951    1.13000000    2.61999989
   14.84722233  115.18499756    1.11000001    2.61999989
   14.85027790  116.76699829    1.11000001    2.61999989
   14.85361195  124.62300110    1.13000000    2.64000010
   14.85694504  119.41200256    1.13000000    2.61999989
   14.86305618  119.41200256    1.14999998    2.64000010
   14.86722279  121.19200134    1.14999998    2.61999989
   14.87055588  113.35900116    1.14999998    2.61999989
   14.87361145  123.34200287    1.14999998    2.64000010
   14.87694454  113.24400330    1.14999998    2.64000010
   14.87888908  117.51599884    1.14999998    2.61999989
   14.88055611  114.27400208    1.14999998    2.61999989
   14.88388920  121.77100372    1.16999996    2.64000010
   14.88694477  118.16400146    1.16999996    2.64000010
   14.89027786  124.00599670    1.16999996    2.59999990
   14.89361095  120.27600098    1.16999996    2.61999989
   14.89666653  125.85500336    1.16999996    2.61999989
   14.89999962  122.16600037    1.16999996    2.61999989
   14.90583324  122.16600037    1.16999996    2.61999989
   14.90999985  120.63300323    1.14999998    2.61999989
   14.91222191  117.09600067    1.14999998    2.64000010
   14.91361046  119.30200195    1.14999998    2.64000010
   14.91694450  118.02799988    1.14999998    2.61999989
   14.92000008  117.04699707    1.14999998    2.61999989
   14.92333412  114.79900360    1.13000000    2.61999989
   14.92666721  120.67500305    1.13000000    2.61999989
   14.92972279  116.58200073    1.13000000    2.61999989
   14.93305588  117.17299652    1.13000000    2.61999989
   14.93611145  120.70300293    1.13000000    2.61999989
   14.93944454  114.78600311    1.13000000    2.61999989
   14.94277763  116.66699982    1.13000000    2.61999989
   14.94861126  116.66699982    1.13000000    2.61999989
   14.95277786  115.17500305    1.14999998    2.64000010
   14.95611095  119.18299866    1.14999998    2.61999989
   14.95916653  119.25399780    1.14999998    2.64000010
   14.96249962  122.08699799    1.14999998    2.64000010
   14.96555519  131.07400513    1.14999998    2.64000010
   14.96888828  125.74800110    1.13000000    2.61999989
   14.97222137  121.37899780    1.13000000    2.61999989
   14.97527695  119.81500244    1.13000000    2.61999989
   14.97861099  116.66100311    1.13000000    2.61999989
   14.97944355  114.97100067    1.13000000    2.61999989
   14.98222160  120.76799774    1.13000000    2.64000010
   14.98555565  118.68399811    1.13000000    2.64000010
   14.99138927  118.68399811    1.11000001    2.64000010
   14.99555588  113.98000336    1.11000001    2.64000010
   14.99888897  120.45300293    1.11000001    2.64000010
   15.00194454  114.63300323    1.11000001    2.64000010
   15.00527763  123.48799896    1.14999998    2.61999989
   15.00861073  122.85700226    1.14999998    2.61999989
   15.01166630  120.22200012    1.14999998    2.61999989
   15.01277733  114.98699951    1.14999998    2.61999989
   15.01527786  118.64700317    1.14999998    2.61999989
   15.01861095  114.44699860    1.14999998    2.61999989
   15.02166653  111.86000061    1.14999998    2.61999989
   15.02499962  120.69799805    1.14999998    2.64000010
   15.02833271  112.97799683    1.14999998    2.64000010
   15.03444481  112.97799683    1.16999996    2.61999989
   15.03833389  119.08000183    1.19000006    2.64000010
   15.04166698  117.61799622    1.21000004    2.61999989
   15.04500008  120.53099823    1.21000004    2.61999989
   15.04638958  120.44599915    1.21000004    2.61999989
   15.04861164  117.87100220    1.21000004    2.64000010
   15.05166721  122.94499969    1.21000004    2.64000010
   15.05500031  120.04000092    1.23000002    2.61999989
   15.05833340  114.75700378    1.23000002    2.61999989
   15.06138897  118.91600037    1.23000002    2.61999989
   15.06472206  123.09899902    1.23000002    2.61999989
   15.06805515  123.11299896    1.26999998    2.61999989
   15.07111073  122.47899628    1.26999998    2.64000010
   15.07722187  122.47899628    1.30999994    2.64000010
   15.09555531  120.50800323    1.21000004    2.64000010
   15.09888840  121.58399963    1.21000004    2.64000010
   15.10194492  121.24900055    1.16999996    2.64000010
   15.10527802  115.16899872    1.13000000    2.64000010
   15.10861111  115.63700104    1.14999998    2.64000010
   15.11166668  118.15799713    1.13000000    2.64000010
   15.11500072  114.51300049    1.13000000    2.64000010
   15.12027836  114.51300049    1.11000001    2.64000010
   15.12444496  125.01999664    1.11000001    2.66000009
   15.12750053  126.85099792    1.13000000    2.64000010
   15.12861156  113.06800079    1.13000000    2.64000010
   15.13138866  125.69999695    1.14999998    2.64000010
   15.13444424  117.28299713    1.14999998    2.64000010
   15.13777733  124.06199646    1.16999996    2.64000010
   15.14111137  114.80100250    1.14999998    2.64000010
   15.14444447  118.02200317    1.11000001    2.61999989
   15.14750004  117.52799988    1.11000001    2.61999989
   15.15083313  118.54299927    1.11000001    2.61999989
   15.15416622  121.91000366    1.11000001    2.64000010
   15.15722179  126.42199707    1.09000003    2.64000010
   15.16305542  126.42199707    1.09000003    2.64000010
   15.26277733   -1.00000000   -1.00000000   -1.00000000
   15.39055538   -1.00000000   -1.00000000   -1.00000000
   15.68388939   -1.00000000   -1.00000000   -1.00000000
   15.72694397   72.87059784    0.94000000    2.67000008
   15.73027706  124.61499786    0.94000000    2.64000010
   15.73361111  119.94499969    0.95999998    2.67000008
   15.73666668  121.16899872    0.98000002    2.67000008
   15.74000072  126.47100067    0.98000002    2.66000009
   15.74333382  122.95400238    0.98000002    2.66000009
   15.74750042  122.95400238    0.98000002    2.66000009
   15.75166702  121.67500305    0.98000002    2.64000010
   15.75500011  125.36499786    0.98000002    2.66000009
   15.75833321  127.41100311    0.98000002    2.66000009
   15.76055527  127.12100220    0.98000002    2.67000008
   15.76166630  121.13500214    0.98000002    2.67000008
   15.76500034  118.87400055    0.95999998    2.66000009
   15.76833344  117.47100067    0.98000002    2.67000008
   15.77138901  120.55400085    0.98000002    2.67000008
   15.77472210  123.33499908    0.98000002    2.67000008
   15.77805519  119.84899902    1.05999994    2.66000009
   15.78111076  120.90299988    1.03999996    2.66000009
   15.78444481  119.08399963    1.03999996    2.67000008
   15.79027843  119.08399963    1.11000001    2.67000008
   15.79444504  123.83499908    1.11000001    2.67000008
   15.79777813  117.21900177    1.11000001    2.67000008
   15.80111122  117.27700043    1.13000000    2.67000008
   15.80416679  120.42800140    1.05999994    2.67000008
   15.80749989  122.41500092    1.05999994    2.67000008
   15.81083393  116.27500153    0.98000002    2.67000008
   15.81388950  126.35500336    0.98000002    2.66000009
   15.81722260  125.48899841    0.98000002    2.66000009
   15.82055569  121.00099945    0.98000002    2.66000009
   15.82361126  124.98300171    0.98000002    2.67000008
   15.82694435  119.68000031    0.98000002    2.67000008
   15.82750034  119.31099701    0.95999998    2.67000008
   15.83305550  119.31099701    0.95999998    2.67000008
   15.83722210  120.74199677    0.94000000    2.67000008
   15.84055519  121.31900024    0.94000000    2.67000008
   15.84361076  124.66500092    0.92000002    2.67000008
   15.84694386  119.75700378    0.92000002    2.67000008
   15.85027790  123.63300323    0.92000002    2.67000008
   15.85333347  121.56800079    0.92000002    2.66000009
   15.85666752  122.88099670    0.92000002    2.66000009
   15.85972214  116.31300354    0.92000002    2.66000009
   15.86083412  117.73799896    0.92000002    2.66000009
   15.86333370  115.43099976    0.92000002    2.66000009
   15.86666679  117.52400208    0.92000002    2.67000008
   15.86999989  117.09400177    0.92000002    2.67000008
   15.87611103  117.09400177    0.92000002    2.66000009
   15.88000011  119.63800049    0.92000002    2.67000008
   15.88333321  119.65000153    0.92000002    2.67000008
   15.88666630  126.57599640    0.92000002    2.66000009
   15.88972187  123.54100037    0.92000002    2.67000008
   15.89305496  116.15399933    0.94000000    2.67000008
   15.89416695  115.74600220    0.94000000    2.67000008
   15.89666653  114.11499786    0.94000000    2.67000008
   15.89999962  119.35500336    0.94000000    2.67000008
   15.90333271  119.32299805    0.94000000    2.67000008
   15.90638828  115.44300079    0.94000000    2.66000009
   15.90972137  125.53900146    0.94000000    2.66000009
   15.91277695  119.86699677    0.94000000    2.66000009
   15.91888905  119.86699677    0.89999998    2.66000009
   15.92305565  121.62899780    0.89999998    2.67000008
   15.92611122  117.33599854    0.92000002    2.67000008
   15.92750072  121.92700195    0.92000002    2.67000008
   15.92972279  120.92900085    0.92000002    2.67000008
   15.93305588  117.69599915    0.92000002    2.67000008
   15.93611145  116.97200012    0.92000002    2.67000008
   15.93944454  121.10500336    0.92000002    2.67000008
   15.94277763  122.33100128    0.92000002    2.67000008
   15.94583321  117.18000031    0.92000002    2.67000008
   15.94916630  118.35600281    0.92000002    2.67000008
   15.95249939  127.95300293    0.92000002    2.67000008
   15.95555496  117.60800171    0.92000002    2.64000010
   15.96166611  117.60800171    0.94000000    2.66000009
   15.96583271  118.12300110    0.94000000    2.66000009
   15.96916580  115.79699707    0.94000000    2.67000008
   15.97222137  118.45800018    0.94000000    2.67000008
   15.97555542  121.55899811    0.94000000    2.67000008
   15.97861099  117.60700226    0.94000000    2.66000009
   15.98194408  119.93399811    0.94000000    2.67000008
   15.98527813  123.40899658    0.94000000    2.67000008
   15.98833370  123.19400024    0.94000000    2.66000009
   15.99166679  115.82399750    0.94000000    2.67000008
   15.99416733  119.82900238    0.94000000    2.66000009
   15.99527836  116.45300293    0.94000000    2.66000009
   15.99861145  121.06900024    0.94000000    2.67000008
   16.00444412  121.06900024    0.94000000    2.66000009
   16.00861168  120.37400055    0.94000000    2.66000009
   16.01194382  123.61599731    0.94000000    2.66000009
   16.01499939  124.79699707    0.94000000    2.66000009
   16.01833344  124.30899811    0.94000000    2.66000009
   16.02166557  121.69999695    0.94000000    2.67000008
   16.02472115  121.01999664    0.94000000    2.67000008
   16.02750015  120.71900177    0.94000000    2.66000009
   16.02833366  117.83799744    0.94000000    2.66000009
   16.03166580  124.25900269    0.94000000    2.67000008
   16.03499985  120.27100372    0.95999998    2.67000008
   16.03805542  118.82399750    0.95999998    2.67000008
   16.04138756  118.51699829    0.95999998    2.67000008
   16.04749870  118.51699829    0.95999998    2.67000008
   16.05138779  113.90799713    0.95999998    2.67000008
   16.05472183  116.67400360    0.95999998    2.67000008
   16.05805397  112.68699646    0.95999998    2.66000009
   16.06083298  118.68199921    0.95999998    2.67000008
   16.06138802  113.79699707    0.95999998    2.67000008
   16.06472206  118.20999908    0.95999998    2.67000008
   16.06805611  117.25900269    0.95999998    2.66000009
   16.07111168  121.14399719    0.95999998    2.67000008
   16.07444572  115.50700378    0.95999998    2.66000009
   16.07750130  122.16999817    0.95999998    2.66000009
   16.08083344  119.44499969    0.94000000    2.66000009
   16.08416748  118.24299622    0.94000000    2.67000008
   16.09027863  118.24299622    0.94000000    2.66000009
   16.09444427  114.03800201    0.92000002    2.67000008
   16.09749985  113.31800079    0.92000002    2.67000008
   16.10083389  118.26799774    0.94000000    2.67000008
   16.10416794  117.42400360    0.94000000    2.67000008
   16.10722351  113.25000000    0.94000000    2.66000009
   16.11055565  118.62200165    0.94000000    2.67000008
   16.11361122  120.72399902    0.95999998    2.67000008
   16.11694527  116.89800262    0.95999998    2.67000008
   16.12027740  117.98400116    0.94000000    2.67000008
   16.12333298  120.70099640    0.94000000    2.67000008
   16.12666702  118.52799988    0.95999998    2.67000008
   16.12750053  113.56900024    0.95999998    2.67000008
   16.13305473  113.56900024    0.95999998    2.67000008
   16.13722229  119.05599976    0.94000000    2.67000008
   16.14055634  118.55500031    0.94000000    2.67000008
   16.14361191  119.40699768    0.94000000    2.69000006
   16.14694405  115.43599701    0.94000000    2.67000008
   16.14999962  116.12599945    0.92000002    2.66000009
   16.15333366  116.30200195    0.92000002    2.66000009
   16.15666580  113.65599823    0.89999998    2.67000008
   16.15972137  113.35500336    0.88000000    2.67000008
   16.16083336  117.31500244    0.88000000    2.67000008
   16.16333389  118.11599731    0.88000000    2.67000008
   16.16666603  115.75800323    0.88000000    2.67000008
   16.17000008  115.69899750    0.88000000    2.67000008
   16.17583275  115.69899750    0.86000001    2.67000008
   16.18000031  121.35800171    0.86000001    2.67000008
   16.18333244  123.37699890    0.86000001    2.67000008
   16.18638802  120.53399658    0.86000001    2.67000008
   16.18972206  117.88400269    0.86000001    2.67000008
   16.19305420  118.82599640    0.86000001    2.67000008
   16.19416618  112.33000183    0.86000001    2.67000008
   16.19666672  119.33000183    0.86000001    2.67000008
   16.19972038  113.43699646    0.86000001    2.67000008
   16.20305634  115.27500153    0.86000001    2.66000009
   16.20611191  114.69499969    0.86000001    2.66000009
   16.20944595  112.65399933    0.86000001    2.67000008
   16.21277809  121.21900177    0.86000001    2.67000008
   16.21861076  121.21900177    0.86000001    2.67000008
   16.22277832  115.43199921    0.89999998    2.67000008
   16.22611237  114.97899628    0.89999998    2.67000008
   16.22750092  116.42500305    0.89999998    2.67000008
   16.23000145  114.75199890    0.89999998    2.67000008
   16.23305511  118.92900085    0.89999998    2.67000008
   16.23638916  120.43800354    0.92000002    2.67000008
   16.23972321  120.84100342    0.94000000    2.67000008
   16.24277878  121.85800171    0.94000000    2.67000008
   16.24611092  119.71099854    0.94000000    2.67000008
   16.24944496  121.22699738    0.94000000    2.67000008
   16.25277710  117.87500000    0.95999998    2.67000008
   16.25583267  124.04399872    0.95999998    2.67000008
   16.26166725  124.04399872    0.95999998    2.67000008
   16.26583290  112.06900024    0.94000000    2.67000008
   16.26888847  116.10199738    0.94000000    2.67000008
   16.27222252  119.70999908    0.94000000    2.67000008
   16.27555466  120.01100159    0.94000000    2.67000008
   16.27861023  115.30999756    0.92000002    2.67000008
   16.28194427  122.74800110    0.92000002    2.67000008
   16.28499985  121.03500366    0.92000002    2.67000008
   16.28833199  118.95200348    0.92000002    2.67000008
   16.29166603  119.30100250    0.92000002    2.67000008
   16.29416656  121.13899994    0.89999998    2.67000008
   16.29500008  118.38500214    0.89999998    2.67000008
   16.29833221  118.93900299    0.89999998    2.67000008
   16.30444336  118.93900299    0.89999998    2.66000009
   16.30861092  118.92400360    0.89999998    2.67000008
   16.31166649  119.32499695    0.89999998    2.67000008
   16.31499863  120.70400238    0.88000000    2.67000008
   16.31833458  122.93000031    0.89999998    2.67000008
   16.32139015  115.47100067    0.89999998    2.67000008
   16.32472229  121.17900085    0.89999998    2.67000008
   16.32750130  120.57199860    0.89999998    2.67000008
   16.32861137  119.01399994    0.89999998    2.67000008
   16.33166695  120.06600189    0.89999998    2.67000008
   16.33500099  118.86599731    0.89999998    2.67000008
   16.33805656  121.70200348    0.92000002    2.67000008
   16.34138870  120.77200317    0.94000000    2.67000008
   16.34722328  120.77200317    0.94000000    2.67000008
   16.35138893  121.01799774    0.95999998    2.67000008
   16.35472298  115.19699860    0.95999998    2.67000008
   16.35777855  115.17299652    0.94000000    2.67000008
   16.36083412  117.71199799    0.94000000    2.67000008
   16.36138916  117.42199707    0.94000000    2.67000008
   16.36472321  119.83100128    0.94000000    2.67000008
   16.36805534  121.20700073    0.94000000    2.67000008
   16.37111092  117.61599731    0.94000000    2.69000006
   16.37444496  118.76200104    0.94000000    2.67000008
   16.37777710  122.90399933    0.94000000    2.67000008
   16.38083267  124.66500092    0.94000000    2.67000008
   16.38416672  123.00499725    0.94000000    2.67000008
   16.39027786  123.00499725    0.92000002    2.67000008
   16.39444351  126.87999725    0.92000002    2.67000008
   16.39777756  117.06999969    0.92000002    2.67000008
   16.40083313  122.98999786    0.92000002    2.67000008
   16.40416718  124.19000244    0.89999998    2.67000008
   16.40722275  117.45400238    0.89999998    2.67000008
   16.41055489  119.51100159    0.89999998    2.67000008
   16.41388893  122.09899902    0.89999998    2.67000008
   16.41694450  121.74400330    0.89999998    2.67000008
   16.42027664  119.26300049    0.89999998    2.67000008
   16.42361069  122.36599731    0.89999998    2.67000008
   16.42666626  119.38300323    0.89999998    2.67000008
   16.42749977  116.55300140    0.89999998    2.67000008
   16.43305397  116.55300140    0.89999998    2.67000008
   16.43722153  129.84399414    0.89999998    2.67000008
   16.44027710  133.92999268    0.92000002    2.67000008
   16.44361115  137.73899841    0.92000002    2.67000008
   16.44694328  128.91700745    0.89999998    2.67000008
   16.45000076  130.46000671    0.89999998    2.67000008
   16.45333481  128.45300293    0.89999998    2.67000008
   16.45639038  133.55499268    0.89999998    2.67000008
   16.45972252  129.27900696    0.92000002    2.67000008
   16.46083450  128.92700195    0.92000002    2.67000008
   16.46333504  137.82099915    0.92000002    2.67000008
   16.46666718  139.50500488    0.94000000    2.67000008
   16.47000122  131.68299866    0.94000000    2.67000008
   16.47583389  131.68299866    0.98000002    2.67000008
   16.48000145  132.87600708    1.00000000    2.67000008
   16.48333359  140.60699463    1.00000000    2.67000008
   16.48638916  132.55599976    1.00000000    2.67000008
   16.48972321  128.17300415    0.95999998    2.67000008
   16.49277878  133.89300537    0.94000000    2.67000008
   16.49416733  132.68800354    0.94000000    2.67000008
   16.49666786  126.05000305    0.94000000    2.67000008
   16.49972153  132.32200623    0.94000000    2.67000008
   16.50305557  133.81399536    0.94000000    2.67000008
   16.50638962  129.77299500    0.94000000    2.67000008
   16.50944519  132.86599731    0.94000000    2.67000008
   16.51277733  138.25700378    0.94000000    2.67000008
   16.51861000  138.25700378    0.94000000    2.67000008
   16.52277756  134.92700195    0.95999998    2.66000009
   16.52611160  139.57800293    0.94000000    2.67000008
   16.52750015  142.46499634    0.94000000    2.67000008
   16.52944374  139.40400696    0.94000000    2.67000008
   16.53277779  129.81700134    0.94000000    2.67000008
   16.53610992  136.89199829    0.94000000    2.67000008
   16.53916550  129.53700256    0.94000000    2.66000009
   16.54249954  141.20799255    0.94000000    2.66000009
   16.54583359  127.62200165    0.94000000    2.67000008
   16.54888916  126.27799988    0.94000000    2.67000008
   16.55222130  128.67100525    0.94000000    2.67000008
   16.55527687  128.72099304    0.94000000    2.67000008
   16.56166649  128.72099304    0.94000000    2.67000008
   16.56555557  128.62600708    0.94000000    2.67000008
   16.56888962  129.74200439    0.94000000    2.67000008
   16.57222366  126.47200012    0.94000000    2.67000008
   16.57527924  131.21899414    0.94000000    2.67000008
   16.57861137  125.56300354    0.94000000    2.67000008
   16.58194542  129.64199829    0.94000000    2.67000008
   16.58500099  130.16099548    0.92000002    2.67000008
   16.58833313  131.72700500    0.89999998    2.67000008
   16.59166718  119.56500244    0.89999998    2.67000008
   16.59416771  121.80300140    0.89999998    2.67000008
   16.59500122  128.80599976    0.89999998    2.67000008
   16.59833336  124.55899811    0.89999998    2.67000008
   16.60444450  124.55899811    0.89999998    2.67000008
   16.60861206  123.79699707    0.89999998    2.66000009
   16.61166763  128.69999695    0.89999998    2.67000008
   16.61499977  122.57499695    0.89999998    2.67000008
   16.61833382  129.08200073    0.89999998    2.67000008
   16.62138939  124.22899628    0.89999998    2.67000008
   16.62472153  124.14199829    0.92000002    2.69000006
   16.62750053  122.07099915    0.92000002    2.69000006
   16.62861061  119.85800171    0.92000002    2.67000008
   16.63166618  118.35700226    0.92000002    2.67000008
   16.63500023  118.24099731    0.92000002    2.67000008
   16.63805580  124.57099915    0.92000002    2.67000008
   16.64138794  126.23100281    0.94000000    2.67000008
   16.64722252  126.23100281    0.94000000    2.66000009
   16.65138817  127.27300262    0.95999998    2.67000008
   16.65472221  118.54100037    0.95999998    2.67000008
   16.65777779  125.47699738    0.95999998    2.67000008
   16.66083336  128.93200684    0.95999998    2.67000008
   16.66166687  124.38899994    0.95999998    2.67000008
   16.66472244  130.53700256    0.98000002    2.67000008
   16.66805458  122.22399902    0.95999998    2.67000008
   16.67111015  125.92700195    0.95999998    2.67000008
   16.67444420  126.82800293    0.95999998    2.67000008
   16.67777634  123.20899963    0.95999998    2.67000008
   16.68083191  126.96099854    0.95999998    2.67000008
   16.68416595  124.98200226    0.95999998    2.67000008
   16.68999863  124.98200226    0.95999998    2.67000008
   16.69416618  130.78100586    0.95999998    2.67000008
   16.69749832  124.04199982    0.95999998    2.67000008
   16.70055580  127.95500183    0.95999998    2.67000008
   16.70388985  127.08200073    0.94000000    2.66000009
   16.70722389  132.63000488    0.94000000    2.66000009
   16.71027946  131.39300537    0.95999998    2.66000009
   16.71361160  128.43600464    0.98000002    2.67000008
   16.71666718  125.92299652    0.95999998    2.67000008
   16.72000122  124.20200348    0.95999998    2.67000008
   16.72333336  125.93399811    0.94000000    2.67000008
   16.72638893  124.20700073    0.94000000    2.67000008
   16.72750092  121.88300323    0.94000000    2.67000008
   16.74805641  121.88300323    0.98000002    2.67000008
   16.75222206  127.07599640    0.95999998    2.67000008
   16.75555611  124.68800354    0.95999998    2.67000008
   16.75861168  128.60699463    0.95999998    2.67000008
   16.76083374  128.55599976    0.98000002    2.67000008
   16.76250076  127.56999969    0.98000002    2.67000008
   16.76583290  130.80200195    0.98000002    2.67000008
   16.76888847  127.13400269    1.00000000    2.67000008
   16.77222252  127.23600006    1.00000000    2.67000008
   16.77527809  123.81800079    1.01999998    2.67000008
   16.77861023  127.93699646    1.01999998    2.67000008
   16.78194427  127.86499786    0.98000002    2.66000009
   16.78499985  134.13000488    0.98000002    2.66000009
   16.79083252  134.13000488    0.92000002    2.67000008
   16.79500008  122.72599792    0.92000002    2.67000008
   16.79833221  125.30799866    0.94000000    2.67000008
   16.80138779  122.41999817    0.94000000    2.67000008
   16.80472183  126.79299927    0.92000002    2.67000008
   16.80777740  127.58399963    0.92000002    2.67000008
   16.81110954  123.10199738    0.92000002    2.66000009
   16.81444359  119.86799622    0.92000002    2.67000008
   16.81750107  124.44799805    0.92000002    2.67000008
   16.82083511  127.82299805    0.92000002    2.66000009
   16.82416725  122.52700043    0.92000002    2.66000009
   16.82722282  130.78300476    0.92000002    2.67000008
   16.82777786  130.21699524    0.92000002    2.67000008
   16.83388901  130.21699524    0.92000002    2.67000008
   16.83805656  125.18800354    0.89999998    2.67000008
   16.84138870  118.65000153    0.89999998    2.67000008
   16.84444427  124.44699860    0.89999998    2.67000008
   16.84777832  125.19799805    0.89999998    2.67000008
   16.85111237  116.92800140    0.89999998    2.67000008
   16.85444450  124.33599854    0.88000000    2.67000008
   16.85750008  128.46800232    0.88000000    2.67000008
   16.86083412  124.10099792    0.86000001    2.67000008
   16.86138916  126.70800018    0.86000001    2.67000008
   16.86444473  125.31500244    0.86000001    2.67000008
   16.86777878  128.98100281    0.86000001    2.67000008
   16.87111092  125.07499695    0.86000001    2.67000008
   16.87638855  125.07499695    0.86000001    2.67000008
   16.88055611  125.76000214    0.88000000    2.67000008
   16.88388824  122.19899750    0.88000000    2.67000008
   16.88722229  124.64099884    0.88000000    2.67000008
   16.89027786  116.34300232    0.89999998    2.67000008
   16.89361191  123.26000214    0.89999998    2.67000008
   16.89472198  123.35099792    0.89999998    2.67000008
   16.89722252  127.56099701    0.92000002    2.69000006
   16.90055466  120.66100311    0.94000000    2.67000008
   16.90388870  128.33799744    0.94000000    2.67000008
   16.90694427  122.40299988    0.94000000    2.67000008
   16.91027832  126.97299957    0.94000000    2.67000008
   16.91333389  122.75800323    0.95999998    2.67000008
   16.91944313  122.75800323    1.03999996    2.67000008
   16.92361069  118.23000336    1.03999996    2.67000008
   16.92666626  124.72100067    1.03999996    2.67000008
   16.92805481  124.81900024    1.03999996    2.67000008
   16.93027687  126.12200165    1.07000005    2.67000008
   16.93361092  127.16600037    1.09000003    2.67000008
   16.93694305  119.81099701    1.11000001    2.67000008
   16.93999863  121.90299988    1.11000001    2.67000008
   16.94333267  126.37799835    1.13000000    2.67000008
   16.94666672  126.95500183    1.13000000    2.67000008
   16.94972038  124.15499878    1.13000000    2.67000008
   16.95305634  119.38800049    1.13000000    2.66000009
   16.95611191  121.96700287    1.00000000    2.67000008
   16.96222305  121.96700287    0.98000002    2.67000008
   16.96638870  121.90899658    0.95999998    2.67000008
   16.96944427  121.83999634    0.95999998    2.66000009
   16.97277832  118.58499908    0.95999998    2.67000008
   16.97611237  126.74400330    0.98000002    2.67000008
   16.97916794  126.15599823    0.98000002    2.67000008
   16.98250008  124.69699860    0.98000002    2.67000008
   16.98583412  126.40399933    0.95999998    2.67000008
   16.98888969  117.89800262    0.94000000    2.67000008
   16.99222183  125.82199860    0.94000000    2.67000008
   16.99472237  124.08300018    0.94000000    2.67000008
   16.99583435  119.51000214    0.94000000    2.67000008
   16.99916649  122.65200043    0.94000000    2.67000008
   17.00499916  122.65200043    0.98000002    2.66000009
   17.00916672  122.30200195    0.94000000    2.67000008
   17.01250076  115.78600311    0.94000000    2.67000008
   17.01583290  120.23899841    0.94000000    2.67000008
   17.01888847  124.38800049    0.92000002    2.67000008
   17.02222252  123.56199646    1.01999998    2.67000008
   17.02527809  128.70100403    1.25000000    2.67000008
   17.02805519  123.67299652    1.30999994    2.67000008
   17.02888870  126.24099731    1.30999994    2.67000008
   17.03222275  123.07499695    2.09999990    2.66000009
   17.03555489  129.56300354    3.76999998    2.66000009
   17.03861046  123.63899994    4.05999994    2.59999990
   17.04194450  122.58899689    2.67000008    2.59999990
   17.04777718  122.58899689    2.73000002    2.66000009
   17.05194283  128.16999817    1.64999998    2.67000008
   17.05527687  128.14100647    1.11000001    2.66000009
   17.05861092  124.39600372    1.03999996    2.67000008
   17.06138802  121.16200256    0.94000000    2.67000008
   17.06194305  122.63200378    0.94000000    2.67000008
   17.06527710  121.35399628    0.92000002    2.66000009
   17.06861115  126.10900116    0.94000000    2.67000008
   17.07166672  115.12400055    0.94000000    2.67000008
   17.07500076  121.32399750    0.94000000    2.67000008
   17.07805634  122.63999939    0.94000000    2.67000008
   17.08139038  110.52899933    0.92000002    2.67000008
   17.08472252  118.83699799    0.92000002    2.67000008
   17.09083366  118.83699799    0.92000002    2.67000008
   17.09500122  122.20500183    0.92000002    2.67000008
   17.09805679  121.90499878    0.92000002    2.67000008
   17.10138893  122.67900085    0.89999998    2.67000008
   17.10472298  122.73000336    0.89999998    2.67000008
   17.10777855  126.36699677    0.89999998    2.67000008
   17.11111069  123.19699860    0.89999998    2.67000008
   17.11416626  119.30899811    0.89999998    2.67000008
   17.11750031  119.52600098    0.89999998    2.67000008
   17.12083435  120.76100159    0.89999998    2.67000008
   17.12388992  128.24899292    0.92000002    2.67000008
   17.12722206  126.68199921    0.92000002    2.67000008
   17.12805557  120.07499695    0.98000002    2.67000008
   17.13361168  120.07499695    3.45000005    2.66000009
   17.13777733  128.68899536    4.90999985    2.59999990
   17.14083290  134.05200195    4.90999985    2.48000002
   17.14416695  147.16000366    4.90999985    2.46000004
   17.14749908  140.02299500    4.90999985    2.36999989
   17.15055466  176.11700439    4.90999985    2.25000000
   17.15388870  171.25999451    4.90999985    2.19000006
   17.15722275  206.63999939    4.90999985    2.05999994
   17.16027832  158.51699829    4.90999985    2.00000000
   17.16138840  190.09399414    4.90999985    1.98000002
   17.16388893  173.09100342    4.90999985    2.21000004
   17.16722107  181.19999695    4.90999985    2.11999989
   17.17055511  304.54199219    4.90999985    2.15000010
   17.17638779  304.54199219    4.90999985    2.34999990
   17.18055534  146.29899597    4.90999985    2.39000010
   17.18388748  131.12300110    4.90999985    2.40000010
   17.18694305  185.07899475    4.90999985    2.55999994
   17.19027710  134.49299622    4.90999985    2.44000006
   17.19361115  156.74299622    4.90999985    2.34999990
   17.19472122  137.62100220    4.90999985    2.34999990
   17.19694328  270.24301147    4.90999985    2.30999994
   17.20027924  140.65899658    4.90999985    2.21000004
   17.20361137  141.65400696    4.90999985    2.30999994
   17.20666695  130.21099854    4.90999985    2.48000002
   17.21000099  138.30499268    4.90999985    2.34999990
   17.21333504  191.35000610    4.90999985    2.28999996
   17.21916771  191.35000610    4.90999985    1.96000004
   17.22333336  211.36700439    4.90999985    1.91999996
   17.22666740  169.84800720    4.90999985    2.19000006
   17.22805595  135.95899963    4.90999985    1.94000006
   17.23055649  131.20899963    4.90999985    2.32999992
   17.23361206  135.22700500    4.90999985    2.36999989
   17.23694420  137.50199890    4.90999985    2.48000002
   17.23999977  130.86399841    4.90999985    2.50000000
   17.24333382  168.59100342    4.90999985    2.46000004
   17.24666786  143.44799805    4.90999985    2.09999990
   17.24972153  152.10000610    4.90999985    2.46000004
   17.25305557  160.08999634    4.90999985    2.42000008
   17.25638962  145.33299255    4.90999985    2.05999994
   17.26222229  145.33299255    4.90999985    2.42000008
   17.26638794  124.76200104    4.90999985    2.30999994
   17.26944351  133.14399719    4.90999985    2.36999989
   17.27277756  136.96299744    4.90999985    2.32999992
   17.27583313  150.31700134    4.90999985    2.34999990
   17.27916718  147.13900757    4.90999985    2.28999996
   17.28249931  148.31799316    4.90999985    2.32999992
   17.28555489  139.32299805    4.90999985    2.36999989
   17.28888893  136.38499451    4.90999985    2.32999992
   17.29222107  148.17700195    4.90999985    2.28999996
   17.29472160  146.79100037    4.90999985    2.32999992
   17.29555511  130.99400330    4.90999985    2.30999994
   17.29888916  152.62800598    4.90999985    2.44000006
   17.30499840  152.62800598    4.90999985    2.26999998
   17.30916595  132.13099670    4.90999985    2.34999990
   17.31222153  144.44200134    4.90999985    2.44000006
   17.31555557  153.73599243    4.90999985    2.32999992
   17.31888962  167.35099792    4.90999985    2.25000000
   17.32194519  128.84500122    4.90999985    2.30999994
   17.32527924  132.22200012    4.90999985    2.40000010
   17.32805634  131.32800293    4.90999985    2.40000010
   17.32888985  128.34700012    4.90999985    2.40000010
   17.33194542  130.41000366    4.90999985    2.61999989
   17.33527756  140.86000061    4.90999985    2.32999992
   17.33833313  172.07400513    4.90999985    1.55999994
   17.34166718  223.66700745    4.90999985    1.94000006
   17.34777832  223.66700745    4.90999985    2.28999996
   17.35194397  144.09800720    4.90999985    1.86000001
   17.35527802  231.18400574    4.90999985    2.25000000
   17.35833359   96.24279785    4.90999985    1.63000000
   17.36194420   96.47209930    4.90999985    1.89999998
   17.36527824  112.18800354    4.90999985    1.66999996
   17.36861038  126.71800232    4.90999985    1.91999996
   17.37166595  113.38200378    4.90999985    2.44000006
   17.37500000  128.59800720    4.90999985    2.55999994
   17.37805557  133.83999634    4.90999985    2.48000002
   17.38138962  144.16900635    4.90999985    2.25000000
   17.38472176  142.81599426    4.90999985    2.46000004
   17.39055634  142.81599426    4.90999985    1.58000004
   17.39472198  165.45100403    4.90999985    1.75000000
   17.39805603  136.01699829    4.90999985    2.44000006
   17.40138817  152.51600647    4.90999985    2.13000011
   17.40444374  147.35299683    4.90999985    2.50000000
   17.40777779  136.04200745    4.90999985    2.51999998
   17.41083336  255.35699463    4.90999985    2.05999994
   17.41416550  157.46099854    4.90999985    1.78999996
   17.41749954  163.63299561    4.90999985    2.13000011
   17.42055511  124.02799988    4.90999985    2.51999998
   17.42388916  201.50500488    4.90999985    2.67000008
   17.42722130   -1.00000000    4.90999985    1.91999996
   17.43361092   -1.00000000    4.90999985    1.76999998
   17.43777657  159.56900024    4.90999985    1.69000006
   17.44083214   56.52569962    4.90999985    2.19000006
   17.44416618   92.15260315    4.90999985    1.55999994
   17.44722176  254.17799377    4.90999985    1.94000006
   17.45055580  280.80398560    4.90999985    2.00000000
   17.45388985  153.19599915    4.90999985    2.09999990
   17.45722389  126.65799713    4.90999985    2.25000000
   17.46027946  160.74499512    4.90999985    2.57999992
   17.46138954  127.76599884    4.90999985    2.46000004
   17.46416664  173.50199890    4.90999985    2.00000000
   17.46722221  178.19500732    4.90999985    2.21000004
   17.47055626  254.62699890    4.90999985    1.60000002
   17.47638893  254.62699890    4.90999985    1.76999998
   17.48055649  158.71699524    4.90999985    2.23000002
   17.48361206  122.80300140    4.90999985    2.26999998
   17.48694420  150.68800354    4.90999985    2.40000010
   17.49027824  134.93800354    4.90999985    2.34999990
   17.49333382  135.39799500    4.90999985    2.55999994
   17.49472237  135.90600586    4.90999985    2.46000004
   17.49722290  137.51800537    4.90999985    2.64000010
   17.50027847  136.18299866    4.90999985    2.59999990
   17.50361061  147.93600464    4.90999985    2.55999994
   17.50694466  261.28900146    4.90999985    1.94000006
   17.51000023   -1.00000000    4.90999985    1.44000006
   17.51333427  159.57800293    4.90999985    1.58000004
   17.51916695  159.57800293    4.90999985    2.32999992
   17.52333260  128.11000061    4.90999985    2.48000002
   17.52666664  129.13400269    4.90999985    2.53999996
   17.52805519  127.72499847    4.90999985    2.66000009
   17.53027725  132.51800537    3.55999994    2.66000009
   17.53333282  139.41799927    4.90999985    2.61999989
   17.53666687  132.75700378    4.90999985    2.39000010
   17.53972244  130.53399658    4.90999985    2.57999992
   17.54305458  127.81700134    4.38999987    2.67000008
   17.54638863  129.52999878    4.90999985    2.40000010
   17.54944420  133.42199707    4.63999987    2.66000009
   17.55277634  127.97399902    4.03999996    2.59999990
   17.55611038  126.78600311    4.90999985    2.61999989
   17.56194305  126.78600311    4.90999985    2.05999994
   17.56611061  176.54600525    4.90999985    2.05999994
   17.56944466  245.43699646    4.90999985    2.13000011
   17.57250023   -1.00000000    4.90999985    1.86000001
   17.57583427  131.29899597    4.90999985    1.89999998
   17.57916832  132.01800537    4.90999985    2.40000010
   17.58222389  132.14900208    4.90999985    2.57999992
   17.58555603  164.83999634    4.90999985    2.53999996
   17.58889008  185.66200256    4.90999985    2.03999996
   17.59194565  151.26699829    4.90999985    2.32999992
   17.59472275  136.87500000    4.90999985    2.30999994
   17.59583473  133.23800659    4.90999985    2.53999996
   17.59889030  159.93800354    4.90999985    2.51999998
   17.60499954  159.93800354    4.90999985    2.36999989
   17.60916710   -1.00000000    4.90999985    1.50000000
   17.61222267  206.42799377    4.90999985    1.91999996
   17.61555672  309.64099121    4.90999985    2.07999992
   17.61888885  264.70300293    4.90999985    1.80999994
   17.62194443  159.50000000    4.90999985    2.03999996
   17.62527847  193.73199463    4.90999985    2.28999996
   17.62805557  172.70500183    4.90999985    2.03999996
   17.62888908  149.47799683    4.90999985    2.17000008
   17.63194466  146.24200439    4.90999985    2.25000000
   17.63527679  244.84100342    4.90999985    2.34999990
   17.63861084   -1.00000000    4.90999985    2.00000000
   17.64166641   -1.00000000    4.90999985    1.46000004
   17.64777756   -1.00000000    4.90999985    1.16999996
   17.65194321   89.27059937    4.90999985    1.58000004
   17.65499878  139.76199341    4.90999985    1.60000002
   17.65833282  163.00100708    4.90999985    1.83000004
   17.66138840  182.77299500    4.90999985    2.11999989
   17.66194344  170.62899780    4.90999985    2.15000010
   17.66499901  148.91799927    4.90999985    2.19000006
   17.66833305  138.96699524    4.90999985    2.34999990
   17.67138863  318.91900635    4.90999985    2.32999992
   17.67472076  159.52000427    4.90999985    1.89999998
   17.67805481  143.63299561    4.90999985    2.28999996
   17.68111038  131.91999817    4.90999985    2.50000000
   17.68444443  156.42399597    4.90999985    2.32999992
   17.69055557  156.42399597    4.90999985    2.50000000
   17.69472122  136.86700439    4.90999985    2.61999989
   17.69527626  148.11000061    4.90999985    2.61999989
   17.69833183  133.16299438    4.90999985    2.53999996
   17.70166779  153.82099915    4.90999985    2.51999998
   17.70499992  135.25000000    4.90999985    2.44000006
   17.70805550  134.57800293    4.73999977    2.66000009
   17.71138954  125.84999847    4.90999985    2.51999998
   17.71472359  135.83000183    4.90999985    2.40000010
   17.71777916  132.02299500    4.90999985    2.48000002
   17.72111130  136.92399597    4.90999985    2.48000002
   17.72416687  135.27999878    4.90999985    2.40000010
   17.72750092  137.53700256    4.90999985    2.48000002
   17.72805595  133.52799988    4.90999985    2.48000002
   17.73333359  133.52799988    4.90999985    2.50000000
   17.73750114  124.80899811    4.90999985    2.57999992
   17.74083328  132.01400757    4.90999985    2.61999989
   17.74388885  140.70899963    4.90999985    2.42000008
   17.76194382  122.89700317    4.90999985    2.59999990
   17.76361084  134.46499634    4.90999985    2.53999996
   17.76694489  160.44400024    4.90999985    2.50000000
   17.77027702  238.03399658    4.90999985    2.23000002
   17.77638817  238.03399658    4.90999985    1.64999998
   17.78055573  185.92700195    4.90999985    2.13000011
   17.78388786  292.91198730    4.90999985    1.91999996
   17.78694344   -1.00000000   -1.00000000   -1.00000000
   17.79027748   -1.00000000    4.90999985    1.30999994
   17.79361153   -1.00000000    4.90999985    0.69000000
   17.79722214   -1.00000000    4.90999985    0.94000000
   17.80055428  148.36799622    4.90999985    1.50000000
   17.80360985  144.55700684    4.90999985    2.03999996
   17.80694389  149.24600220    4.90999985    2.40000010
   17.81027794  142.18800354    4.90999985    2.30999994
   17.81333351  211.17100525    4.90999985    2.34999990
   17.81944466  211.17100525    4.90999985    2.42000008
   17.82333374  140.15600586    4.90999985    2.30999994
   17.82666779  141.93600464    4.90999985    2.44000006
   17.82861137  124.29399872    4.90999985    2.46000004
   17.83027840  123.48600006    4.90999985    2.40000010
   17.83361244  131.52799988    4.90999985    2.59999990
   17.83666801  127.76699829    4.90999985    2.51999998
   17.84000015  175.41200256    4.90999985    2.40000010
   17.84333420  136.18200684    4.90999985    2.26999998
   17.84638977  191.48199463    4.90999985    2.19000006
   17.84972191  346.66598511    4.90999985    1.86000001
   17.85305595  212.38800049    4.90999985    1.85000002
   17.85611153   -1.00000000    4.90999985    1.69000006
   17.86222267   -1.00000000    4.90999985    1.38000000
   17.86638832   -1.00000000    4.90999985    1.09000003
   17.86944389   -1.00000000    4.90999985    0.94000000
   17.87277794  250.08299255    4.90999985    1.05999994
   17.87611198  120.45800018    4.90999985    2.07999992
   17.87916756  220.81199646    4.90999985    1.86000001
   17.88249969  157.28500366    4.90999985    1.83000004
   17.88555527  146.63200378    4.90999985    2.21000004
   17.88888931  140.49699402    4.90999985    2.36999989
   17.89222145  161.75500488    4.90999985    2.50000000
   17.89527702  135.88699341    4.90999985    2.07999992
   17.89555550  132.21699524    4.90999985    2.46000004
   17.89888954  134.22399902    4.90999985    2.59999990
   17.90499878  134.22399902    3.99000001    2.59999990
   17.90916634  134.34199524    4.90999985    2.57999992
   17.91250038  152.32800293    4.90999985    2.25000000
   17.91555595  139.29600525    4.90999985    2.23000002
   17.91888809  128.77699280    4.90999985    2.57999992
   17.92194366  127.79199982    3.21000004    2.64000010
   17.92527771  133.67799377    3.39000010    2.64000010
   17.92860985  138.65100098    4.90999985    2.59999990
   17.92888832  142.58399963    4.90999985    2.59999990
   17.93222237  138.27400208    4.90999985    2.48000002
   17.93527603  132.70799255    4.90999985    2.48000002
   17.93861008  132.26400757    4.90999985    2.57999992
   17.94194412  120.69599915    4.73999977    2.57999992
   17.94777679  120.69599915    4.80999994    2.64000010
   17.95194435  128.67900085    4.90999985    2.51999998
   17.95527840  130.69500732    4.90999985    2.64000010
   17.95833397  126.98400116    3.64000010    2.67000008
   17.96166801  134.44500732    3.70000005    2.67000008
   17.96222305  131.64399719    4.67999983    2.67000008
   17.96527863  138.55999756    4.90999985    2.39000010
   17.96861076  174.80000305    4.90999985    2.36999989
   17.97194481  124.24299622    4.90999985    2.44000006
   17.97500038  128.97000122    3.70000005    2.66000009
   17.97833443  130.27799988    2.67000008    2.66000009
   17.98166656  123.80699921    2.11999989    2.66000009
   17.98472214  119.45099640    1.58000004    2.67000008
   17.99055672  119.45099640    1.33000004    2.66000009
   17.99472237  122.80500031    1.48000002    2.66000009
   17.99555588  128.71400452    1.60000002    2.66000009
   17.99861145  124.16100311    1.71000004    2.64000010
   18.00166702  127.80799866    1.51999998    2.67000008
   18.00499916  123.72799683    1.21000004    2.67000008
   18.00805473  130.06399536    1.21000004    2.67000008
   18.01138878  124.31199646    1.21000004    2.67000008
   18.01472282  127.45800018    1.28999996    2.67000008
   18.01777840  119.87799835    2.00000000    2.66000009
   18.02111053  122.97100067    2.44000006    2.66000009
   18.02444458  130.57699585    2.26999998    2.64000010
   18.02750015  123.48799896    4.90999985    2.64000010
   18.02888870  136.64199829    4.90999985    2.66000009
   18.03361130  136.64199829    4.90999985    2.46000004
   18.03777695  128.37100220    3.43000007    2.61999989
   18.04083252  125.27100372    3.76999998    2.59999990
   18.04416656  125.75499725    4.90999985    2.57999992
   18.04749870  126.44899750    4.90999985    2.59999990
   18.05055428  150.49699402    4.90999985    2.40000010
   18.05388832  191.17799377    4.90999985    2.21000004
   18.05694389  154.63000488    4.90999985    2.01999998
   18.06027794  206.61500549    4.90999985    2.15000010
   18.06222153   48.98979950    4.90999985    2.09999990
   18.06388855   -1.00000000    4.90999985    1.61000001
   18.06694603   -1.00000000    4.90999985    1.91999996
   18.07027817   -1.00000000    4.90999985    1.39999998
   18.08055687   -1.00000000    4.90999985    1.16999996
   18.08361244  100.36000061    4.90999985    1.14999998
   18.08694458  136.34399414    4.90999985    1.86000001
   18.09027863  143.24000549    4.90999985    2.44000006
   18.09333420  133.60699463    4.90999985    2.53999996
   18.09555626  124.94599915    4.90999985    2.55999994
   18.09722328  129.07800293    4.90999985    2.57999992
   18.10027885  135.91200256    4.90999985    2.51999998
   18.10361099  131.88800049    4.90999985    2.44000006
   18.10666656  125.86699677    4.90999985    2.40000010
   18.11000061  132.30099487    4.90999985    2.09999990
   18.11333466  124.69300079    4.90999985    2.64000010
   18.11916733  124.69300079    4.38999987    2.64000010
   18.12333298  128.96099854    4.90999985    2.48000002
   18.12666702  137.51300049    4.90999985    2.44000006
   18.12888908  119.13200378    4.90999985    2.15000010
   18.13027763  125.66600037    4.90999985    2.36999989
   18.13361168  123.25399780    4.90999985    2.66000009
   18.13666725  132.05999756    4.90999985    2.44000006
   18.13999939  141.70899963    4.90999985    2.40000010
   18.14305496  135.36799622    4.90999985    2.55999994
   18.14638901  210.89199829    4.90999985    2.26999998
   18.14972115  330.88699341    4.90999985    1.86000001
   18.15277672   -1.00000000    4.90999985    1.28999996
   18.15611076  202.76600647    4.90999985    1.51999998
   18.16194344  202.76600647    4.90999985    2.55999994
   18.16611099  121.42400360    4.23999977    2.61999989
   18.16944313  139.21899414    4.90999985    2.39000010
   18.17277718  139.34800720    4.90999985    2.32999992
   18.17583275  133.72399902    4.90999985    2.44000006
   18.17916679  132.74000549    4.90999985    2.55999994
   18.18249893  124.29399872    4.90999985    2.46000004
   18.18555450  131.33799744    4.90999985    2.53999996
   18.18888855   -1.00000000    4.90999985    2.25000000
   18.19194412  191.12800598    4.90999985    1.60000002
   18.19527626  129.95300293    4.90999985    2.39000010
   18.19722176  136.54499817    4.90999985    2.50000000
   18.19888878  128.88600159    4.90999985    2.46000004
   18.20499992  128.88600159    4.90999985    2.34999990
   18.20916748  119.95200348    4.90999985    2.64000010
   18.21222305  117.45700073    1.78999996    2.64000010
   18.21555710  133.20899963    4.88999987    2.61999989
   18.21861076  133.02200317    4.90999985    2.64000010
   18.22194481  130.02299500    4.90999985    2.15000010
   18.22527885  123.82700348    4.90999985    2.46000004
   18.22833443  122.64800262    4.90999985    2.50000000
   18.23055649  166.41900635    4.90999985    2.55999994
   18.23194504  137.54100037    4.90999985    2.05999994
   18.23527718  130.91400146    4.90999985    2.28999996
   18.23833275  134.93200684    4.90999985    2.55999994
   18.24166679  124.91100311    4.90999985    2.55999994
   18.24777794  124.91100311    4.90999985    2.64000010
   18.25194359  126.83399963    4.90999985    2.64000010
   18.25499916  142.96600342    4.90999985    2.44000006
   18.25833321  137.77099609    4.90999985    2.40000010
   18.26166725  165.71499634    4.90999985    2.07999992
   18.26388931  123.18199921    4.90999985    2.19000006
   18.26527786  133.13699341    4.90999985    1.96000004
   18.26833344   -1.00000000    4.90999985    1.19000006
   18.27166557   -1.00000000    4.90999985    0.92000002
   18.27499962   -1.00000000    4.90999985    0.88000000
   18.27805519   -1.00000000    4.90999985    1.28999996
   18.28138924  117.91699982    4.90999985    1.69000006
   18.28472137   -1.00000000    4.90999985    1.86000001
   18.29055595   -1.00000000    4.90999985    1.33000004
   18.29472160   96.27359772    4.90999985    1.55999994
   18.29722214  245.31599426    4.90999985    1.86000001
   18.29833221  170.20599365    4.90999985    2.01999998
   18.30166626  131.32200623    4.90999985    1.61000001
   18.30472183  129.26899719    4.90999985    2.64000010
   18.30805397   -1.00000000    4.90999985    2.40000010
   18.31138802   79.06179810    4.90999985    1.39999998
   18.31444359  159.26300049    4.90999985    1.50000000
   18.31777954   80.08020020    4.90999985    1.89999998
   18.32111168  135.17799377    4.90999985    1.63000000
   18.32416725  244.75199890    4.90999985    1.83000004
   18.32777786   -1.00000000    4.90999985    1.69000006
   18.33750153  107.21800232    4.90999985    1.50000000
   18.34083366  168.75999451    4.90999985    2.09999990
   18.34388924   -1.00000000    4.90999985    2.42000008
   18.34722328  134.87300110    4.90999985    1.66999996
   18.35055542  137.00199890    4.90999985    1.98000002
   18.35361099  138.50300598    4.90999985    2.34999990
   18.35694504  155.37199402    4.90999985    2.48000002
   18.36027908  134.29499817    4.90999985    1.91999996
   18.36333466  132.84199524    4.90999985    2.32999992
   18.36444473  139.26400757    4.90999985    2.55999994
   18.36694527  125.90399933    4.90999985    2.55999994
   18.37027740  136.31599426    4.90999985    2.51999998
   18.37638855  136.31599426    1.28999996    2.64000010
   18.38055611  123.00900269    2.28999996    2.66000009
   18.38361168  122.21800232    3.41000009    2.64000010
   18.38694382  153.06100464    4.90999985    2.21000004
   18.38999939  130.39100647    4.90999985    2.50000000
   18.39333344  124.40000153    4.90999985    2.64000010
   18.39666748  124.71600342    4.90999985    2.39000010
   18.39777756  147.75300598    4.90999985    2.55999994
   18.40027809  160.68099976    4.90999985    2.59999990
   18.40333366  132.07899475    4.90999985    2.32999992
   18.40666580  130.29100037    4.90999985    2.59999990
   18.40972137  123.08999634    4.90999985    2.61999989
   18.41305542  118.73999786    4.90999985    2.30999994
   18.41916656  118.73999786    4.90999985    2.13000011
   18.42333221  199.01300049    4.90999985    2.36999989
   18.42638779  134.77299500    4.90999985    2.09999990
   18.42972183  173.02799988    4.90999985    2.51999998
   18.43111038  145.97900391    4.90999985    2.21000004
   18.43333244  137.37399292    4.90999985    2.25000000
   18.43666649  151.44999695    4.90999985    2.55999994
   18.43972206  125.13899994    4.90999985    2.61999989
   18.44305420  136.53599548    4.78000021    2.64000010
   18.44638824  126.35900116    4.90999985    2.59999990
   18.44944382  129.91900635    4.90999985    2.51999998
   18.45277786  199.51400757    4.90999985    2.51999998
   18.45583344  127.13800049    4.90999985    2.46000004
   18.46194458  127.13800049    4.90999985    2.46000004
   18.46611214  153.78999329    4.90999985    2.48000002
   18.46944427  189.76800537    4.90999985    2.13000011
   18.47249985  270.61599731    4.90999985    1.64999998
   18.47583389  160.27499390    4.90999985    1.89999998
   18.47916794  183.41700745    4.90999985    2.07999992
   18.48222351  171.83799744    4.90999985    2.01999998
   18.48555565  274.03799438    4.90999985    1.96000004
   18.48861122  178.36000061    4.90999985    1.94000006
   18.49194527   -1.00000000    4.90999985    1.60000002
   18.49527740   -1.00000000    4.90999985    1.38000000
   18.49888992  115.35800171    4.90999985    1.44000006
   18.50472260  115.35800171    4.90999985    2.32999992
   18.50888824  143.09800720    4.90999985    2.25000000
   18.51222229  138.74200439    4.90999985    2.19000006
   18.51555634  141.66600037    4.90999985    2.21000004
   18.51861000  160.83700562    4.90999985    2.34999990
   18.52194405  141.04299927    4.90999985    2.11999989
   18.52499962  154.60699463    4.90999985    2.15000010
   18.52833366  138.97399902    4.90999985    2.36999989
   18.53111076  154.34300232    4.90999985    2.40000010
   18.53194427  183.49600220    4.90999985    2.40000010
   18.53527641  177.01699829    4.90999985    2.15000010
   18.53833199  151.01300049    4.90999985    2.25000000
   18.54166603  147.22200012    4.90999985    2.40000010
   18.54777718  147.22200012    4.90999985    1.38000000
   18.55194283  101.59400177    4.90999985    1.55999994
   18.55499840   -1.00000000    4.90999985    1.36000001
   18.55833244   -1.00000000    4.90999985    1.00000000
   18.56138802   -1.00000000    4.90999985    1.05999994
   18.56499863   -1.00000000    4.90999985    0.94000000
   18.56805611   -1.00000000    4.90999985    1.61000001
   18.57139015   97.26959991    4.90999985    1.30999994
   18.57472229  323.87100220    4.90999985    1.78999996
   18.57777786   -1.00000000    4.90999985    1.76999998
   18.58111191  326.64999390    4.90999985    1.03999996
   18.58444595  322.69100952    4.90999985    1.86000001
   18.59055710  322.69100952    4.90999985    2.17000008
   18.59472275  152.84800720    4.90999985    2.50000000
   18.59833336   -1.00000000    4.90999985    1.83000004
   18.60138893   -1.00000000    4.90999985    1.33000004
   18.60472298  110.73400116    4.90999985    1.51999998
   18.60805511   -1.00000000    4.90999985    1.89999998
   18.61111069   -1.00000000    4.90999985    1.21000004
   18.61444473   -1.00000000    4.90999985    1.03999996
   18.61777878   23.57019997    4.90999985    1.39999998
   18.62083435   -1.00000000    4.90999985    1.50000000
   18.62416649   -1.00000000    4.90999985    1.11000001
   18.62750053  137.10600281    4.90999985    1.33000004
   18.63333321  137.10600281    4.90999985    2.19000006
   18.63750076  153.13800049    4.90999985    2.40000010
   18.64083290  128.22500610    4.90999985    2.44000006
   18.64388847  137.15400696    4.90999985    2.48000002
   18.64722252  150.30099487    4.90999985    2.46000004
   18.65027809  135.55999756    4.90999985    2.23000002
   18.65361023  151.67199707    4.90999985    2.40000010
   18.65694427  161.57000732    4.90999985    2.39000010
   18.65999985  192.47099304    4.90999985    2.25000000
   18.66333389   -1.00000000    4.90999985    1.61000001
   18.66694450   -1.00000000    4.90999985    1.03999996
   18.67027664   -1.00000000    4.90999985    0.61000001
   18.68027687   -1.00000000    4.90999985    0.73000002
   18.68361092   -1.00000000    4.90999985    0.64999998
   18.68666649   -1.00000000    4.90999985    1.33000004
   18.68999863   -1.00000000    4.90999985    0.94000000
   18.69305420   -1.00000000    4.90999985    0.89999998
   18.69638824   -1.00000000    4.90999985    0.81999999
   18.70000076  217.17300415    4.90999985    1.16999996
   18.70333481  140.85600281    4.90999985    2.32999992
   18.70639038  132.54899597    4.90999985    2.61999989
   18.70972252  138.95599365    2.96000004    2.55999994
   18.71305656  133.54600525    4.90999985    2.59999990
   18.71916771  133.54600525    4.23999977    2.61999989
   18.72333336  124.36599731    4.32999992    2.64000010
   18.72638893  122.22699738    2.96000004    2.64000010
   18.72972298  129.37899780    1.85000002    2.64000010
   18.73139000  128.26699829    2.39000010    2.61999989
   18.73333359  131.16400146    3.01999998    2.59999990
   18.73666763  135.03399658    3.82999992    2.53999996
   18.73972321  131.64399719    3.07999992    2.51999998
   18.74305534  120.64099884    2.44000006    2.57999992
   18.74611092  123.62200165    3.28999996    2.55999994
   18.74944496  123.51999664    4.90999985    2.59999990
   18.75277710  168.89100647    4.90999985    2.59999990
   18.75583267  200.62300110    4.90999985    2.46000004
   18.76194382  200.62300110    4.90999985    1.98000002
   18.78027725  261.72198486    4.90999985    1.60000002
   18.78361130  297.53900146    4.90999985    2.05999994
   18.78666687  195.67799377    4.90999985    1.91999996
   18.78999901  135.78900146    4.90999985    2.05999994
   18.79333305  134.22099304    4.90999985    2.42000008
   18.79638863  133.19299316    4.90999985    2.53999996
   18.79972076  135.74400330    4.90999985    2.57999992
   18.80499840  135.74400330    4.90999985    2.09999990
   18.80916595  133.53399658    4.90999985    2.40000010
   18.81222153  134.22999573    4.90999985    2.51999998
   18.81333351  123.79299927    4.90999985    2.40000010
   18.81611061  124.07299805    4.90999985    2.55999994
   18.81916809  124.83599854    3.26999998    2.57999992
   18.82250023  131.04800415    3.73000002    2.57999992
   18.82555580  132.28399658    3.97000003    2.53999996
   18.82888985  128.35800171    4.19999981    2.51999998
   18.83222389  124.97499847    4.32999992    2.55999994
   18.83527756  121.59300232    4.90999985    2.51999998
   18.83861160  142.88299561    4.90999985    2.36999989
   18.84194565  122.15399933    4.90999985    2.36999989
   18.84777832  122.15399933    4.90999985    2.51999998
   18.85194397  143.41700745    4.90999985    2.32999992
   18.85527802  134.25700378    4.90999985    2.23000002
   18.85833359  146.99600220    4.90999985    2.26999998
   18.86166763  155.70300293    4.90999985    2.25000000
   18.86472321  247.54299927    4.90999985    2.17000008
   18.86805534  338.59698486    4.90999985    1.89999998
   18.87138939  104.46700287    4.90999985    1.80999994
   18.87444496   -1.00000000    4.90999985    1.44000006
   18.87777710   -1.00000000    4.90999985    1.33000004
   18.88111115   -1.00000000    4.90999985    1.03999996
   18.88444519   -1.00000000    4.90999985    1.09000003
   18.89472198   -1.00000000    4.90999985    0.92000002
   18.89805603   -1.00000000    4.90999985    0.83999997
   18.90111160   -1.00000000    4.90999985    0.81999999
   18.90444374   -1.00000000    4.90999985    1.09000003
   18.90749931   -1.00000000    4.90999985    1.03999996
   18.91083336   -1.00000000    4.90999985    0.81999999
   18.91444397   -1.00000000    4.90999985    0.63000000
   18.91777802   -1.00000000    4.90999985    0.69000000
   18.92111015   -1.00000000    4.90999985    0.47999999
   18.92416573   -1.00000000    4.90999985    0.44000000
   18.92749977   -1.00000000    4.90999985    0.40000001
   18.93750000   -1.00000000    4.90999985    0.58999997
   18.94083214   -1.00000000    4.90999985    0.38000000
   18.94388771   -1.00000000    4.90999985    0.40000001
   18.94749832   -1.00000000    4.90999985    0.58999997
   18.95083427   -1.00000000    4.90999985    0.79000002
   18.95416832   -1.00000000    4.90999985    0.36000001
   18.95722389   -1.00000000    4.90999985    0.47999999
   18.96083450   -1.00000000    4.90999985    0.38000000
   18.96416664   -1.00000000    4.90999985    0.70999998
   18.96722221   -1.00000000    4.90999985    0.75000000
   18.97055626   -1.00000000    4.90999985    0.81999999
   18.98027802   -1.00000000    4.90999985    0.88000000
   18.98361206   -1.00000000    4.90999985    0.92000002
   18.98694420   -1.00000000    4.90999985    0.55000001
   18.98999977   -1.00000000    4.90999985    0.64999998
   18.99333382   -1.00000000    4.90999985    0.75000000
   18.99666786   -1.00000000    4.90999985    0.81999999
   18.99972153   -1.00000000    4.90999985    0.98000002
   19.00305557   -1.00000000    4.90999985    0.89999998
   19.00611115   -1.00000000    4.90999985    0.81999999
   19.00944519   -1.00000000    4.90999985    0.40000001
   19.01277733   -1.00000000    4.90999985    0.44000000
   19.02333260   -1.00000000    4.90999985    0.89999998
   19.02638817   -1.00000000    4.90999985    0.79000002
   19.02972221   -1.00000000    4.90999985    0.73000002
   19.03305435   -1.00000000    4.90999985    0.47999999
   19.03610992   -1.00000000    4.90999985    0.56999999
   19.03944397   -1.00000000    4.90999985    0.44000000
   19.04249954   -1.00000000    4.90999985    0.36000001
   19.04583359   -1.00000000    4.90999985    0.31999999
   19.04916573   -1.00000000    4.90999985    0.36000001
   19.05249977   -1.00000000    4.90999985    0.47999999
   19.05583191   -1.00000000    4.90999985    0.56999999
   19.06611061   -1.00000000    4.90999985    0.40000001
   19.06944466   -1.00000000    4.90999985    0.44000000
   19.07250023   -1.00000000    4.90999985    0.51999998
   19.07583427   -1.00000000    4.90999985    0.46000001
   19.07888985   -1.00000000    4.90999985    0.36000001
   19.08250046   -1.00000000    4.90999985    0.51999998
   19.08583450   -1.00000000    4.90999985    0.38000000
   19.08916664   -1.00000000    4.90999985    0.50000000
   19.09222221   -1.00000000    4.90999985    0.51999998
   19.09555626   -1.00000000    4.90999985    0.67000002
   19.09889030   -1.00000000    4.90999985    0.80000001
   19.10499954   -1.00000000    4.90999985    1.11000001
   19.10888863   -1.00000000    4.90999985    1.26999998
   19.11222267   -1.00000000    4.90999985    1.36000001
   19.11555672   -1.00000000    4.90999985    1.34000003
   19.11888885   -1.00000000    4.90999985    1.21000004
   19.12222290   -1.00000000    4.90999985    1.14999998
   19.12527847   -1.00000000    4.90999985    1.28999996
   19.12861061   -1.00000000    4.90999985    1.41999996
   19.13194466  289.11300659    4.90999985    1.50000000
   19.13500023  267.55300903    4.90999985    1.86000001
   19.13833237  209.66600037    4.90999985    2.03999996
   19.14166641   -1.00000000    4.90999985    1.71000004
   19.15166664   -1.00000000    4.90999985    0.61000001
   19.15499878  260.53500366    4.90999985    0.79000002
   19.15833282  144.43899536    4.90999985    2.13000011
   19.16138840  152.67199707    4.90999985    2.46000004
   19.16472244   75.58470154    4.90999985    2.26999998
   19.16805458   -1.00000000    4.90999985    1.36000001
   19.17111015   -1.00000000    4.90999985    0.88000000
   19.17444420   -1.00000000    4.90999985    0.55000001
   19.17777634   -1.00000000    4.90999985    0.69000000
   19.18000031  192.58099365    4.90999985    1.23000002
   19.18138885  212.22000122    4.90999985    1.51999998
   19.18444443  259.00299072    4.90999985    1.94000006
   19.19472122   -1.00000000    4.90999985    0.64999998
   19.19777679   -1.00000000    4.90999985    0.79000002
   19.20111275   -1.00000000    4.90999985    1.23000002
   19.20444489  294.44000244    4.90999985    1.50000000
   19.20750046  304.27200317    4.90999985    1.98000002
   19.21083450  199.33799744    4.90999985    1.98000002
   19.21333504  187.11700439    4.90999985    1.98000002
   19.21444511  201.46400452    4.90999985    1.66999996
   19.21750069  156.12500000    4.90999985    2.17000008
   19.22083473  181.05599976    4.90999985    2.32999992
   19.22389030  162.33500671    4.90999985    2.07999992
   19.22722244  192.36399841    4.90999985    1.86000001
   19.23333359  192.36399841    4.90999985    2.28999996
   19.23750114  136.08099365    4.90999985    2.36999989
   19.24083328  140.40400696    4.90999985    2.50000000
   19.24388885  143.27099609    4.90999985    2.55999994
   19.24666786  136.33399963    4.90999985    2.09999990
   19.24777794  141.02900696    4.90999985    2.25000000
   19.25083351  138.46800232    4.90999985    2.44000006
   19.25416756  161.27099609    4.90999985    2.21000004
   19.25749969  144.34800720    4.90999985    2.26999998
   19.26055527  135.78700256    4.90999985    2.48000002
   19.26388931  133.82099915    4.90999985    2.48000002
   19.26694489  131.32899475    4.30999994    2.57999992
   19.27027702  138.72200012    4.90999985    2.55999994
   19.27638817  138.72200012    4.90999985    1.55999994
   19.28027725   -1.00000000    4.90999985    1.13000000
   19.28361130   -1.00000000    4.90999985    0.83999997
   19.28694344   -1.00000000    4.90999985    0.98000002
   19.28999901  286.42300415    4.90999985    1.25000000
   19.29333305  182.60899353    4.90999985    1.85000002
   19.29638863  331.10998535    4.90999985    2.11999989
   19.29972076   -1.00000000    4.90999985    1.55999994
   19.30305481   -1.00000000    4.90999985    1.55999994
   19.30611038   85.00509644    4.90999985    1.14999998
   19.30944443   -1.00000000    4.90999985    1.71000004
   19.31277657   -1.00000000    4.90999985    1.19000006
   19.32305717   -1.00000000    4.90999985    0.86000001
   19.32638931   -1.00000000    4.90999985    1.25000000
   19.32972336   -1.00000000    4.90999985    1.34000003
   19.33277893  108.28800201    4.90999985    1.39999998
   19.33611107  314.18899536    4.90999985    1.76999998
   19.33944511  188.15199280    4.90999985    1.86000001
   19.34277916  185.04400635    4.90999985    1.96000004
   19.34583473  269.50000000    4.90999985    2.01999998
   19.34666824  259.25601196    4.90999985    2.01999998
   19.34944534  298.57400513    4.90999985    1.86000001
   19.35250092  122.10299683    4.90999985    1.66999996
   19.35583305   -1.00000000    4.90999985    1.60000002
   19.36194420   -1.00000000    4.90999985    1.46000004
   19.36611176  300.96798706    4.90999985    1.75000000
   19.36916733  206.95700073    4.90999985    1.83000004
   19.37249947  194.87300110    4.90999985    1.96000004
   19.37583351  159.32000732    4.90999985    1.98000002
   19.37888908  141.89199829    4.90999985    2.25000000
   19.38000107  134.24400330    4.90999985    2.28999996
   19.38277817  128.13499451    4.90999985    2.28999996
   19.38583374  126.34700012    4.90999985    2.40000010
   19.38916588  136.27499390    4.90999985    2.23000002
   19.39249992  140.96800232    4.90999985    2.40000010
   19.39555550  136.17399597    4.90999985    2.48000002
   19.39888954  154.21099854    4.90999985    2.34999990
   19.40472221  154.21099854    4.90999985    2.28999996
   19.40888786  140.71099854    4.90999985    2.25000000
   19.41222191  146.47099304    4.90999985    2.25000000
   19.41333389  149.71400452    4.90999985    2.17000008
   19.41583252  137.82899475    4.90999985    2.19000006
   19.41916656  131.71099854    4.90999985    2.44000006
   19.42222214  124.08000183    4.90999985    2.44000006
   19.42555428  123.16699982    4.01999998    2.51999998
   19.42860985  124.13999939    3.05999994    2.50000000
   19.43194389  132.19799805    3.18000007    2.50000000
   19.43527603  122.09200287    3.48000002    2.51999998
   19.43833160  127.30000305    4.01999998    2.50000000
   19.44166565  124.13899994    4.80000019    2.44000006
   19.44749832  124.13899994    4.05999994    2.48000002
   19.45166779  124.20300293    3.34999990    2.48000002
   19.45499992  136.99600220    3.68000007    2.46000004
   19.45833397  132.99699402    3.97000003    2.48000002
   19.46138954  131.38900757    3.00000000    2.51999998
   19.46472359  127.33699799    2.50000000    2.51999998
   19.46777916  132.84700012    2.48000002    2.51999998
   19.47111130  129.88800049    2.69000006    2.50000000
   19.47444534  129.13800049    3.01999998    2.51999998
   19.47750092  127.36399841    3.14000010    2.50000000
   19.48000145  121.35199738    3.23000002    2.50000000
   19.48139000  131.05900574    3.30999994    2.48000002
   19.48444557  125.85099792    3.93000007    2.50000000
   19.49055672  125.85099792    4.90999985    2.46000004
   19.49472237  128.22900391    4.90999985    2.36999989
   19.49777794  135.65299988    4.90999985    2.36999989
   19.50111198  140.78399658    4.90999985    2.28999996
   19.50444412  161.77000427    4.90999985    2.32999992
   19.50749969  233.82400513    4.90999985    1.98000002
   19.51083374  157.56799316    4.90999985    1.85000002
   19.51444435   -1.00000000    4.90999985    1.34000003
   19.51749992  174.98800659    4.90999985    1.46000004
   19.52083397  149.29800415    4.90999985    2.09999990
   19.52388954  136.69099426    4.90999985    2.32999992
   19.52722168  145.84500122    4.90999985    2.30999994
   19.53333282  145.84500122    4.90999985    1.83000004
   19.53750038   -1.00000000    4.90999985    1.36000001
   19.54055595  235.11500549    4.90999985    1.51999998
   19.54388809  292.18600464    4.90999985    1.80999994
   19.54666710  173.17900085    4.90999985    1.86000001
   19.54749870  164.37899780    4.90999985    1.89999998
   19.55055428  158.89399719    4.90999985    2.17000008
   19.55388832  152.57299805    4.90999985    2.17000008
   19.55722237  146.42500305    4.90999985    2.11999989
   19.56027794  143.22399902    4.90999985    2.25000000
   19.56361008  137.86799622    4.90999985    2.26999998
   19.56666756  139.67399597    4.90999985    2.25000000
   19.57000160  152.50599670    4.90999985    2.28999996
   19.57611275  152.50599670    4.90999985    2.17000008
   19.58027840  141.67100525    4.90999985    1.96000004
   19.58361244  130.63200378    4.90999985    2.44000006
   19.58666801  133.07899475    4.90999985    2.40000010
   19.59000015  134.67599487    4.90999985    2.40000010
   19.59333420  133.73699951    4.90999985    2.32999992
   19.59638977  130.82600403    4.90999985    2.40000010
   19.59972191  138.55900574    4.90999985    2.32999992
   19.60277748  131.46800232    4.90999985    2.25000000
   19.60611153  140.15400696    4.90999985    2.30999994
   19.60944557  133.45899963    4.90999985    2.32999992
   19.61250114  129.23599243    4.90999985    2.34999990
   19.61333466  137.80499268    4.90999985    2.30999994
   19.61888885  137.80499268    4.90999985    2.32999992
   19.62305641  149.42300415    4.90999985    2.30999994
   19.62638855  195.73699951    4.90999985    2.17000008
   19.62972260  339.45199585    4.90999985    1.83000004
   19.63277817  283.80999756    4.90999985    1.75000000
   19.63611031  160.06799316    4.90999985    1.96000004
   19.63916588  135.73599243    4.90999985    2.11999989
   19.64249992  132.03300476    4.90999985    2.36999989
   19.64583397  127.88400269    4.90999985    2.42000008
   19.64666748  133.39100647    4.90999985    2.44000006
   19.64944458  122.71499634    4.76000023    2.46000004
   19.65250015  128.66700745    4.07999992    2.48000002
   19.65583229  127.98899841    3.34999990    2.50000000
   19.66194344  127.98899841    3.25000000    2.51999998
   19.66611099  124.84600067    3.78999996    2.48000002
   19.66944313  126.57599640    4.28999996    2.46000004
   19.67249870  127.97100067    4.90999985    2.46000004
   19.67583275  137.25000000    4.90999985    2.40000010
   19.67888832  147.14999390    4.90999985    2.30999994
   19.68000031  141.02400208    4.90999985    2.32999992
   19.68277740  134.95500183    4.90999985    2.36999989
   19.68610954  130.58500671    4.90999985    2.36999989
   19.68916512  124.40599823    4.90999985    2.32999992
   19.69249916  137.77299500    4.90999985    2.40000010
   19.69555473  135.74299622    4.90999985    2.34999990
   19.69888878  133.54400635    4.90999985    2.32999992
   19.70472336  133.54400635    4.90999985    2.26999998
   19.70888901  141.57000732    4.90999985    2.36999989
   19.71194458  133.57699585    4.90999985    2.36999989
   19.71333504  139.88800049    4.90999985    2.34999990
   19.71555710  132.41700745    4.90999985    2.36999989
   19.71861076  135.72500610    4.90999985    2.39000010
   19.72194481  129.49299622    4.90999985    2.42000008
   19.72527885  133.02299500    3.75000000    2.51999998
   19.72833443  136.85699463    4.11999989    2.50000000
   19.73166656  140.98100281    4.90999985    2.39000010
   19.73500061  142.84199524    4.90999985    2.32999992
   19.73805618  143.75599670    4.90999985    2.40000010
   19.74138832  139.99000549    4.90999985    2.36999989
   19.74749947  139.99000549    4.90999985    2.13000011
   19.75166702  161.55999756    4.90999985    1.94000006
   19.75499916  148.22599792    4.90999985    2.13000011
   19.75805473  155.67900085    4.90999985    2.13000011
   19.76138878  255.82600403    4.90999985    2.07999992
   19.76472282   -1.00000000    4.90999985    1.78999996
   19.76777840  139.69500732    4.90999985    1.46000004
   19.77111053  183.52499390    4.90999985    1.88000000
   19.77416611  166.71800232    4.90999985    2.17000008
   19.77750015  238.02499390    4.90999985    2.01999998
   19.78000069  217.51499939    4.90999985    1.88000000
   19.80055428  217.51499939    4.90999985    1.83000004
   19.80472183  171.86399841    4.90999985    1.89999998
   19.80805397  155.44500732    4.90999985    2.17000008
   19.81138802  137.35699463    4.90999985    2.17000008
   19.81333351  138.02499390    4.90999985    2.34999990
   19.81499863  138.77400208    4.90999985    2.40000010
   19.81833458  132.72399902    4.90999985    2.39000010
   19.82139015  146.71699524    4.90999985    2.39000010
   19.82472229  175.36700439    4.90999985    2.19000006
   19.82777786  174.95799255    4.90999985    1.98000002
   19.83111191  141.11799622    4.90999985    2.15000010
   19.83444595  159.78799438    4.90999985    2.28999996
   19.83750153  144.39199829    4.90999985    2.21000004
   19.84333420  144.39199829    4.90999985    2.30999994
   19.84749985  138.68400574    4.90999985    2.32999992
   19.85083389  149.79299927    4.90999985    2.32999992
   19.85388947  141.61599731    4.90999985    2.30999994
   19.85722351  137.85499573    4.90999985    2.34999990
   19.86055565  131.70700073    4.90999985    2.40000010
   19.86361122  128.09300232    4.63999987    2.46000004
   19.86694527  123.90100098    3.93000007    2.44000006
   19.87027740  130.21899414    4.09999990    2.42000008
   19.87333298  138.58399963    4.76000023    2.46000004
   19.87666702  134.54600525    4.90999985    2.46000004
   19.87972260  142.47599792    4.90999985    2.48000002
   19.88027763  137.98399353    4.90999985    2.48000002
   19.88638878  137.98399353    4.90999985    2.50000000
   19.89027786  141.91799927    4.90999985    2.40000010
   19.89361191  146.12300110    4.90999985    2.42000008
   19.89694405  138.96600342    4.90999985    2.39000010
   19.89999962  150.18499756    4.90999985    2.44000006
   19.90333366  140.26300049    4.90999985    2.36999989
   19.90666580  149.12699890    4.90999985    2.44000006
   19.90972137  132.59199524    4.90999985    2.36999989
   19.91305542  138.31700134    4.90999985    2.50000000
   19.91361046  142.56599426    4.90999985    2.44000006
   19.91666603  137.55499268    4.90999985    2.40000010
   19.92000008  132.03300476    4.90999985    2.40000010
   19.92305565  139.55799866    4.90999985    2.28999996
   19.92916679  139.55799866    4.90999985    2.32999992
   19.93333244  135.35200500    4.90999985    2.32999992
   19.93638802  147.51600647    4.90999985    2.42000008
   19.93972206  132.12600708    4.90999985    2.40000010
   19.94305420  141.61900330    4.90999985    2.44000006
   19.94610977  139.23800659    4.90999985    2.39000010
   19.94694328  140.10099792    4.90999985    2.28999996
   19.94972038  141.78300476    4.90999985    2.44000006
   19.95305634  138.74600220    4.90999985    2.44000006
   19.95611191  139.48599243    4.90999985    2.44000006
   19.95944595  150.41799927    4.90999985    2.40000010
   19.96250153  136.92700195    4.90999985    2.26999998
   19.96583366  133.36599731    4.90999985    2.26999998
   19.97194481  133.36599731    4.90999985    2.44000006
   19.97611237  132.53900146    4.38999987    2.48000002
   19.97944450  135.60600281    4.46999979    2.48000002
   19.98027802  139.88699341    4.65999985    2.46000004
   19.98305511  132.04899597    4.86999989    2.46000004
   19.98638916  136.98500061    4.90999985    2.42000008
   19.98944473  153.83099365    4.90999985    2.46000004
   19.99277878  140.13000488    4.90999985    2.36999989
   19.99583435  134.02499390    4.90999985    2.39000010
   19.99916649  133.52699280    4.90999985    2.42000008
   20.00250053  155.44200134    4.90999985    2.36999989
   20.00555611  140.36599731    4.90999985    2.21000004
   20.00888824  137.65199280    4.90999985    2.32999992
   20.01472282  137.65199280    4.90999985    2.19000006
   20.01888847  140.57299805    4.90999985    2.32999992
   20.02222252  141.53799438    4.82999992    2.42000008
   20.02527809  138.83000183    3.51999998    2.44000006
   20.02861023  135.50100708    3.00000000    2.46000004
   20.03194427  140.06399536    2.67000008    2.44000006
   20.03499985  149.17599487    2.59999990    2.46000004
   20.03833199  140.09599304    2.46000004    2.46000004
   20.04166603  127.78500366    2.61999989    2.48000002
   20.04472160  135.29699707    3.09999990    2.44000006
   20.04694366  129.63499451    3.51999998    2.44000006
   20.04833221  143.34500122    3.76999998    2.44000006
   20.05166626  134.62800598    4.05999994    2.42000008
   20.05777740  134.62800598    4.90999985    2.48000002
   20.06166649  240.96400452    4.90999985    2.34999990
   20.06499863  106.92099762    4.90999985    2.30999994
   20.06833458   -1.00000000    4.90999985    2.44000006
   20.07139015   -1.00000000    4.90999985    2.36999989
   20.07472229   -1.00000000    4.90999985    2.21000004
   20.07805634   -1.00000000    4.90999985    2.23000002
   20.08166695   -1.00000000    4.90999985    2.26999998
   20.08472252   -1.00000000    4.90999985    2.30999994
   20.08805656   -1.00000000    4.90999985    2.39000010
   20.09138870   -1.00000000    4.90999985    2.34999990
   20.09444427   -1.00000000    4.90999985    2.11999989
   20.10472298   -1.00000000    4.90999985    2.30999994
   20.10777855   -1.00000000    4.90999985    2.32999992
   20.11111069   -1.00000000    4.90999985    2.28999996
   20.11472321   -1.00000000    4.90999985    2.36999989
   20.11777878   -1.00000000    4.90999985    2.36999989
   20.12111092   -1.00000000    4.90999985    2.19000006
   20.12444496   -1.00000000    4.90999985    2.28999996
   20.12750053   -1.00000000    4.90999985    2.50000000
   20.13083267   -1.00000000    4.90999985    2.42000008
   20.13416672   -1.00000000    4.90999985    2.28999996
   20.13722229   -1.00000000    4.90999985    2.28999996
   20.14749908   -1.00000000    4.90999985    2.15000010
   20.15055466   -1.00000000    4.90999985    2.25000000
   20.15388870   -1.00000000    4.90999985    2.36999989
   20.15722275   -1.00000000    4.90999985    2.40000010
   20.16027832   -1.00000000    4.90999985    2.40000010
   20.16361046   -1.00000000    4.90999985    2.40000010
   20.16694450   -1.00000000    4.90999985    2.32999992
   20.17000008   -1.00000000    4.90999985    2.40000010
   20.17333221   -1.00000000    4.90999985    2.21000004
   20.17638779   -1.00000000    4.90999985    2.39000010
   20.17972183   -1.00000000    4.90999985    2.25000000
   20.19027710   -1.00000000    4.90999985    2.28999996
   20.19361115   -1.00000000    4.90999985    2.28999996
   20.19666672   -1.00000000    4.90999985    2.32999992
   20.20000076   -1.00000000    4.90999985    2.30999994
   20.20333481   -1.00000000    4.90999985    2.25000000
   20.20639038   -1.00000000    4.90999985    2.15000010
   20.20972252   -1.00000000    4.90999985    2.25000000
   20.21277809   -1.00000000    4.90999985    2.26999998
   20.21638870   -1.00000000    4.90999985    2.25000000
   20.21944427   -1.00000000    4.90999985    2.19000006
   20.22277832   -1.00000000    4.90999985    2.19000006
   20.23305511   -1.00000000    4.90999985    2.34999990
   20.23638916   -1.00000000    4.90999985    2.26999998
   20.23972321   -1.00000000    4.90999985    2.34999990
   20.24277878   -1.00000000    4.90999985    2.40000010
   20.24611092   -1.00000000    4.90999985    2.36999989
   20.24972153   -1.00000000    4.90999985    2.40000010
   20.25305557   -1.00000000    4.90999985    2.30999994
   20.25611115   -1.00000000    4.90999985    2.28999996
   20.25944519   -1.00000000    4.90999985    2.30999994
   20.26250076   -1.00000000    4.90999985    2.39000010
   20.26583290   -1.00000000    4.90999985    2.40000010
   20.27611160   -1.00000000    4.90999985    2.32999992
   20.27916718   -1.00000000    4.90999985    2.25000000
   20.28277779   -1.00000000    4.90999985    2.40000010
   20.28610992   -1.00000000    4.90999985    2.42000008
   20.28916550   -1.00000000    4.90999985    2.39000010
   20.29249954   -1.00000000    4.90999985    2.34999990
   20.29555511   -1.00000000    4.90999985    2.32999992
   20.29888916   -1.00000000    4.90999985    2.34999990
   20.30222130   -1.00000000    4.90999985    2.34999990
   20.30527687   -1.00000000    4.36999989    2.42000008
   20.30861092   -1.00000000    3.34999990    2.42000008
   20.31888962   -1.00000000    1.86000001    2.44000006
   20.32194519   -1.00000000    1.88000000    2.42000008
   20.32527924   -1.00000000    1.94000006    2.40000010
   20.32861137   -1.00000000    2.00000000    2.40000010
   20.33166695   -1.00000000    2.34999990    2.42000008
   20.33500099   -1.00000000    2.50000000    2.42000008
   20.33833313   -1.00000000    2.57999992    2.42000008
   20.34138870   -1.00000000    3.00000000    2.44000006
   20.34472275   -1.00000000    4.80000019    2.42000008
   20.34833336   -1.00000000    4.90999985    2.39000010
   20.35166740   -1.00000000    4.90999985    2.17000008
   20.36166763   -1.00000000    4.90999985    2.42000008
   20.36499977   -1.00000000    4.90999985    2.44000006
   20.36805534   -1.00000000    4.90999985    1.78999996
   20.37138939   -1.00000000    4.90999985    2.17000008
   20.37472153   -1.00000000    4.90999985    2.32999992
   20.37777710   -1.00000000    4.90999985    2.28999996
   20.38138962   -1.00000000    4.90999985    2.42000008
   20.38472176   -1.00000000    3.32999992    2.42000008
   20.38777733   -1.00000000    1.89999998    2.44000006
   20.39111137   -1.00000000    1.91999996    2.40000010
   20.39416695   -1.00000000    1.98000002    2.40000010
   20.40444374   -1.00000000    1.76999998    2.40000010
   20.40777779   -1.00000000    1.73000002    2.40000010
   20.41083336   -1.00000000    1.69000006    2.40000010
   20.41444397   -1.00000000    1.69000006    2.40000010
   20.41777802   -1.00000000    1.69000006    2.40000010
   20.42083359   -1.00000000    1.66999996    2.40000010
   20.42416573   -1.00000000    1.66999996    2.40000010
   20.42722130   -1.00000000    1.75000000    2.40000010
   20.43111038   -1.00000000    1.83000004    2.40000010
   20.43444443   -1.00000000    1.88000000    2.40000010
   20.43777657   -1.00000000    1.85000002    2.40000010
   20.44722176   -1.00000000    2.19000006    2.40000010
   20.45055580   -1.00000000    2.15000010    2.39000010
   20.45388985   -1.00000000    2.07999992    2.40000010
   20.45694542   -1.00000000    1.98000002    2.40000010
   20.46027946   -1.00000000    1.91999996    2.39000010
   20.46361160   -1.00000000    1.91999996    2.39000010
   20.46666718   -1.00000000    1.89999998    2.40000010
   20.47000122   -1.00000000    1.89999998    2.40000010
   20.47305679   -1.00000000    1.86000001    2.40000010
   20.47638893   -1.00000000    2.00000000    2.39000010
   20.47972298   -1.00000000    2.00000000    2.40000010
   20.49027824   -1.00000000    1.98000002    2.39000010
   20.49333382   -1.00000000    1.94000006    2.39000010
   20.49666786   -1.00000000    1.94000006    2.39000010
   20.50000000   -1.00000000    1.94000006    2.39000010
   20.50305557   -1.00000000    1.91999996    2.39000010
   20.50638962   -1.00000000    1.94000006    2.39000010
   20.50972176   -1.00000000    1.89999998    2.39000010
   20.51277733   -1.00000000    1.86000001    2.39000010
   20.51638794   -1.00000000    1.85000002    2.39000010
   20.51972198   -1.00000000    1.78999996    2.39000010
   20.52277756   -1.00000000    1.78999996    2.39000010
   20.53305435   -1.00000000    1.78999996    2.39000010
   20.53638840   -1.00000000    1.78999996    2.39000010
   20.53944397   -1.00000000    1.78999996    2.36999989
   20.54277802   -1.00000000    1.78999996    2.39000010
   20.54611015   -1.00000000    1.78999996    2.36999989
   20.54944420   -1.00000000    1.80999994    2.36999989
   20.55277634   -1.00000000    1.80999994    2.36999989
   20.55583191   -1.00000000    1.80999994    2.36999989
   20.55916595   -1.00000000    1.78999996    2.36999989
   20.56250000   -1.00000000    1.76999998    2.36999989
   20.56555557   -1.00000000    1.76999998    2.36999989
   20.57583427   -1.00000000    1.69000006    2.36999989
   20.57916832   -1.00000000    1.66999996    2.36999989
   20.58277893   -1.00000000    1.66999996    2.36999989
   20.58611107   -1.00000000    1.66999996    2.36999989
   20.58916664   -1.00000000    1.66999996    2.36999989
   20.59250069   -1.00000000    1.66999996    2.36999989
   20.59583473   -1.00000000    1.66999996    2.36999989
   20.59889030   -1.00000000    1.66999996    2.36999989
   20.60222244   -1.00000000    1.66999996    2.36999989
   20.60555649   -1.00000000    1.66999996    2.36999989
   20.60861206   -1.00000000    1.69000006    2.36999989
   20.61888885   -1.00000000    1.71000004    2.36999989
   20.62194443   -1.00000000    1.75000000    2.34999990
   20.62527847   -1.00000000    1.76999998    2.34999990
   20.62833405   -1.00000000    1.76999998    2.34999990
   20.63166618   -1.00000000    1.76999998    2.34999990
   20.63500023   -1.00000000    1.78999996    2.34999990
   20.63805580   -1.00000000    1.83000004    2.34999990
   20.64138794   -1.00000000    1.85000002    2.34999990
   20.64472198   -1.00000000    1.85000002    2.34999990
   20.64805603   -1.00000000    1.85000002    2.34999990
   20.65138817   -1.00000000    1.85000002    2.34999990
   20.66166687   -1.00000000    1.86000001    2.34999990
   20.66472244   -1.00000000    1.88000000    2.34999990
   20.66805458   -1.00000000    1.88000000    2.32999992
   20.67138863   -1.00000000    1.88000000    2.32999992
   20.67472076   -1.00000000    1.88000000    2.32999992
   20.67777634   -1.00000000    1.88000000    2.32999992
   20.68138885   -1.00000000    1.88000000    2.32999992
   20.68472099   -1.00000000    1.88000000    2.32999992
   20.68777657   -1.00000000    1.89999998    2.32999992
   20.69111061   -1.00000000    2.07999992    2.32999992
   20.69444275   -1.00000000    2.15000010    2.32999992
   20.70444489   -1.00000000    2.09999990    2.32999992
   20.70777893   -1.00000000    2.05999994    2.32999992
   20.71083450   -1.00000000    2.01999998    2.32999992
   20.71444511   -1.00000000    2.01999998    2.32999992
   20.71777916   -1.00000000    2.01999998    2.32999992
   20.72083473   -1.00000000    2.01999998    2.32999992
   20.72416687   -1.00000000    2.00000000    2.30999994
   20.72750092   -1.00000000    1.98000002    2.30999994
   20.73055649   -1.00000000    1.98000002    2.30999994
   20.73388863   -1.00000000    1.98000002    2.30999994
   20.73694420   -1.00000000    1.96000004    2.30999994
   20.74722290   -1.00000000    1.96000004    2.30999994
   20.75055504   -1.00000000    1.96000004    2.32999992
   20.75388908   -1.00000000    1.89999998    2.32999992
   20.75694466   -1.00000000    1.86000001    2.30999994
   20.76027870   -1.00000000    1.85000002    2.30999994
   20.76333427   -1.00000000    1.85000002    2.30999994
   20.76666641   -1.00000000    1.83000004    2.30999994
   20.77000046   -1.00000000    1.80999994    2.30999994
   20.77305603   -1.00000000    1.78999996    2.30999994
   20.77638817   -1.00000000    1.78999996    2.30999994
   20.77972221   -1.00000000    1.78999996    2.30999994
   20.79027748   -1.00000000    1.83000004    2.28999996
   20.79333305   -1.00000000    1.85000002    2.28999996
   20.79666710   -1.00000000    1.85000002    2.28999996
   20.81638718   -1.00000000    2.15000010    2.28999996
   20.81972313   -1.00000000    2.13000011    2.28999996
   20.82305717   -1.00000000    2.13000011    2.28999996
   20.83305550   -1.00000000    2.15000010    2.26999998
   20.83638954   -1.00000000    2.09999990    2.26999998
   20.83944511   -1.00000000    2.05999994    2.26999998
   20.84277916   -1.00000000    2.05999994    2.26999998
   20.84611130   -1.00000000    2.01999998    2.26999998
   20.84944534   -1.00000000    2.00000000    2.26999998
   20.85277748   -1.00000000    1.98000002    2.26999998
   20.85583305   -1.00000000    1.96000004    2.26999998
   20.85916710   -1.00000000    1.96000004    2.28999996
   20.86222267   -1.00000000    1.98000002    2.26999998
   20.86555672   -1.00000000    2.00000000    2.26999998
   20.87583351   -1.00000000    2.00000000    2.25000000
   20.87916756   -1.00000000    2.00000000    2.26999998
   20.88277817   -1.00000000    2.03999996    2.25000000
   20.88611031   -1.00000000    2.05999994    2.25000000
   20.88916588   -1.00000000    2.07999992    2.25000000
   20.89249992   -1.00000000    2.05999994    2.25000000
   20.89555550   -1.00000000    2.01999998    2.25000000
   20.89888954   -1.00000000    2.00000000    2.25000000
   20.90222168   -1.00000000    1.98000002    2.25000000
   20.90527725   -1.00000000    1.98000002    2.25000000
   20.90861130   -1.00000000    1.98000002    2.25000000
   20.91888809   -1.00000000    2.00000000    2.25000000
   20.92194366   -1.00000000    2.00000000    2.23000002
   20.92527771   -1.00000000    2.00000000    2.25000000
   20.92860985   -1.00000000    1.98000002    2.25000000
