    HOUR (UT)   FLARE FACTOR    SKY TESTER    SUN TESTER
   11.60138893   -1.00000000   -1.00000000   -1.00000000
   11.62083340  399.79501343    2.44000006    1.53999996
   11.62638855  385.19500732    2.48000002    1.55999994
   11.62972260  519.25201416    2.51999998    1.55999994
   11.63166714  498.29098511    2.53999996    1.55999994
   11.63305569  415.55200195    2.53999996    1.55999994
   11.63444424  370.75399780    2.53999996    1.55999994
   11.63583279  385.17001343    2.55999994    1.55999994
   11.63722229  404.31600952    2.57999992    1.55999994
   11.63861084  337.97399902    2.57999992    1.55999994
   11.63861084  385.19500732    2.48000002    1.55999994
   11.63861084  519.25201416    2.51999998    1.55999994
   11.63944435  311.63699341    2.57999992    1.55999994
   11.64249992  356.34698486    2.59999990    1.58000004
   11.64583302  321.48800659    2.64000010    1.58000004
   11.64888859  289.68301392    2.66000009    1.58000004
   11.65222168  278.98599243    2.67000008    1.60000002
   11.65555477  316.47000122    2.69000006    1.60000002
   11.65972137  316.47000122    2.71000004    1.60000002
   11.66361046  319.61199951    2.75000000    1.61000001
   11.66694450  304.98800659    2.76999998    1.61000001
   11.67027855  301.38699341    2.76999998    1.61000001
   11.67250061  307.10400391    2.78999996    1.61000001
   11.67361164  292.07199097    2.78999996    1.61000001
   11.67694473  359.14898682    2.78999996    1.61000001
   11.68027782  290.46398926    2.80999994    1.63000000
   11.68333340  267.42898560    2.80999994    1.63000000
   11.68666649  274.04199219    2.82999992    1.63000000
   11.69000053  279.16101074    2.84999990    1.63000000
   11.69305515  293.28500366    2.84999990    1.64999998
   11.69638920  297.56900024    2.84999990    1.64999998
   11.70249939  297.56900024    2.86999989    1.64999998
   11.70666695  275.76800537    2.86999989    1.66999996
   11.70972157  269.89700317    2.89000010    1.66999996
   11.71305561  260.92599487    2.89000010    1.66999996
   11.71638870  274.95300293    2.91000009    1.69000006
   11.71944427  268.87799072    2.91000009    1.69000006
   11.72277737  293.52999878    2.91000009    1.69000006
   11.72583294  278.08599854    2.91000009    1.69000006
   11.72916603  298.15798950    2.93000007    1.71000004
   11.73249912  260.13900757    2.93000007    1.71000004
   11.73555565  252.78500366    2.93000007    1.71000004
   11.73888874  259.71600342    2.93000007    1.71000004
   11.73944473  250.51400757    2.93000007    1.71000004
   11.74527836  250.51400757    2.94000006    1.73000002
   11.74944496  260.12500000    2.94000006    1.73000002
   11.75277805  297.73999023    2.94000006    1.73000002
   11.75583363  323.95401001    2.94000006    1.75000000
   11.75916672  310.94699097    2.94000006    1.75000000
   11.76222229  272.41699219    2.94000006    1.75000000
   11.76555538  256.37200928    2.94000006    1.75000000
   11.76888847  267.05398560    2.94000006    1.75000000
   11.77194405  320.15798950    2.94000006    1.75000000
   11.77277756  287.51901245    2.94000006    1.75000000
   11.77583313  244.03999329    2.96000004    1.75000000
   11.77888870  241.22399902    2.96000004    1.76999998
   11.78222179  241.85899353    2.96000004    1.76999998
   11.78805637  241.85899353    2.96000004    1.76999998
   11.79222298  240.71699524    2.96000004    1.78999996
   11.79555607  251.24600220    2.96000004    1.78999996
   11.79861164  255.73500061    2.94000006    1.78999996
   11.80194473  254.01300049    2.94000006    1.78999996
   11.80527782  256.37899780    2.94000006    1.80999994
   11.80611134  229.48399353    2.94000006    1.78999996
   11.80888939  237.17399597    2.94000006    1.78999996
   11.81194496  240.59800720    2.93000007    1.80999994
   11.81527805  234.03300476    2.93000007    1.80999994
   11.81833363  250.00399780    2.93000007    1.80999994
   11.82166672  226.22500610    2.93000007    1.83000004
   11.82499981  227.94299316    2.93000007    1.80999994
   11.83111095  227.94299316    2.93000007    1.83000004
   11.83500004  230.95300293    2.93000007    1.83000004
   11.83833313  227.32899475    2.91000009    1.83000004
   11.83944416  223.65199280    2.91000009    1.83000004
   11.84222221  225.03799438    2.91000009    1.83000004
   11.84527779  245.46400452    2.91000009    1.83000004
   11.84861088  214.94999695    2.89000010    1.85000002
   11.85166740  228.81500244    2.89000010    1.85000002
   11.85500050  218.27000427    2.89000010    1.85000002
   11.85833359  227.63699341    2.89000010    1.85000002
   11.86138916  214.71899414    2.86999989    1.85000002
   11.86472225  213.68899536    2.86999989    1.86000001
   11.86805534  221.81399536    2.86999989    1.86000001
   11.87388897  221.81399536    2.86999989    1.88000000
   11.87805557  207.72500610    2.84999990    1.88000000
   11.88111115  215.97500610    2.84999990    1.86000001
   11.88444424  215.41299438    2.84999990    1.88000000
   11.88777733  223.58799744    2.84999990    1.88000000
   11.89083290  213.72200012    2.84999990    1.88000000
   11.89416695  224.00700378    2.82999992    1.89999998
   11.89722252  217.11500549    2.82999992    1.89999998
   11.90055561  223.96400452    2.82999992    1.89999998
   11.90388870  207.41499329    2.80999994    1.89999998
   11.90611076  207.81700134    2.80999994    1.89999998
   11.90749931  210.63200378    2.80999994    1.89999998
   11.91055489  223.36500549    2.78999996    1.89999998
   11.91666698  223.36500549    2.76999998    1.89999998
   11.92083359  219.43200684    2.76999998    1.91999996
   11.92416668  209.51600647    2.75000000    1.91999996
   11.92722225  210.79899597    2.75000000    1.91999996
   11.93055630  206.02000427    2.75000000    1.94000006
   11.93361092  209.16999817    2.73000002    1.94000006
   11.93694496  206.46400452    2.73000002    1.94000006
   11.93944454  205.68400574    2.71000004    1.94000006
   11.94083309  207.61999512    2.71000004    1.94000006
   11.94388866  234.38800049    2.71000004    1.94000006
   11.94722271  211.24600220    2.69000006    1.94000006
   11.95055580  210.45700073    2.69000006    1.94000006
   11.95361137  203.01800537    2.67000008    1.96000004
   11.95944405  203.01800537    2.66000009    1.96000004
   11.96361065  213.03500366    2.64000010    1.96000004
   11.96694374  216.67500305    2.64000010    1.98000002
   11.96999931  197.79499817    2.61999989    1.96000004
   11.97305489  209.46200562    2.59999990    1.98000002
   11.97416592  198.80200195    2.59999990    1.98000002
   11.97722149  210.08700562    2.59999990    1.96000004
   11.98055553  211.58799744    2.57999992    1.98000002
   11.98388958  200.56300354    2.55999994    1.98000002
   11.98694515  204.27099609    2.53999996    1.98000002
   11.99027824  205.46400452    2.53999996    1.98000002
   11.99361134  206.93800354    2.53999996    1.98000002
   11.99666691  194.11700439    2.51999998    2.00000000
   12.00222206  194.11700439    2.50000000    2.00000000
   12.00638866  215.54899597    2.48000002    2.00000000
   12.00972176  192.13400269    2.48000002    2.00000000
   12.01305580  192.20500183    2.46000004    2.00000000
   12.01611137  196.93099976    2.46000004    2.00000000
   12.01944447  210.66900635    2.46000004    2.01999998
   12.02277756  203.32600403    2.44000006    2.01999998
   12.02583313  197.16200256    2.44000006    2.01999998
   12.02916622  207.33200073    2.44000006    2.01999998
   12.03222179  196.45100403    2.42000008    2.01999998
   12.03555584  208.18699646    2.42000008    2.01999998
   12.03888893  201.97500610    2.40000010    2.01999998
   12.03944492  192.08500671    2.40000010    2.03999996
   12.04527855  192.08500671    2.39000010    2.03999996
   12.04944515  203.32099915    2.39000010    2.03999996
   12.05249977  202.74000549    2.36999989    2.03999996
   12.05583382  200.74600220    2.36999989    2.03999996
   12.05916691  193.61199951    2.36999989    2.03999996
   12.06222248  190.82400513    2.34999990    2.03999996
   12.06555557  177.90199280    2.34999990    2.05999994
   12.06861115  186.56599426    2.32999992    2.05999994
   12.07194424  193.48699951    2.32999992    2.05999994
   12.07277775  193.06799316    2.32999992    2.05999994
   12.07555580  182.29400635    2.30999994    2.05999994
   12.07861137  202.90800476    2.28999996    2.05999994
   12.08194447  197.83799744    2.28999996    2.07999992
   12.08805561  197.83799744    2.28999996    2.05999994
   12.09222221  188.72599792    2.26999998    2.05999994
   12.09555531  195.90100098    2.26999998    2.07999992
   12.09861088  192.18800354    2.25000000    2.07999992
   12.10194492  205.02999878    2.25000000    2.07999992
   12.10500050  189.36000061    2.25000000    2.07999992
   12.10611153  194.07200623    2.25000000    2.07999992
   12.10888958  185.08399963    2.23000002    2.09999990
   12.11194515  187.16999817    2.23000002    2.09999990
   12.11527824  192.31900024    2.23000002    2.09999990
   12.11861134  182.77400208    2.23000002    2.09999990
   12.12166691  184.04699707    2.21000004    2.09999990
   12.12500000  198.73699951    2.19000006    2.09999990
   12.13083363  198.73699951    2.19000006    2.09999990
   12.13500023  178.91400146    2.17000008    2.09999990
   12.13833332  178.23699951    2.17000008    2.09999990
   12.13944435  189.14399719    2.17000008    2.09999990
   12.14194393  188.83299255    2.17000008    2.09999990
   12.14499950  181.11900330    2.17000008    2.11999989
   12.14833355  182.94700623    2.17000008    2.11999989
   12.15166664  183.52099609    2.15000010    2.11999989
   12.15472221  178.71099854    2.15000010    2.09999990
   12.15805531  197.67300415    2.15000010    2.11999989
   12.16111088  187.90400696    2.15000010    2.11999989
   12.16444397  174.76400757    2.15000010    2.11999989
   12.16777802  182.92900085    2.13000011    2.11999989
   12.17388916  182.92900085    2.13000011    2.11999989
   12.17777824  184.03900146    2.13000011    2.11999989
   12.18111134  181.11500549    2.13000011    2.13000011
   12.18444443  182.59500122    2.13000011    2.13000011
   12.18750000  186.84300232    2.13000011    2.13000011
   12.19083309  182.53599548    2.13000011    2.13000011
   12.19416714  223.29200745    2.13000011    2.13000011
   12.19722271  279.59698486    2.11999989    2.13000011
   12.20055580  273.25100708    2.11999989    2.13000011
   12.20361137  329.48199463    2.11999989    2.13000011
   12.20611095  316.30398560    2.11999989    2.13000011
   12.20749950  367.58898926    2.09999990    2.13000011
   12.21055508  330.92599487    2.09999990    2.13000011
   12.21666622  330.92599487    2.09999990    2.13000011
   12.22083282  335.00399780    2.09999990    2.15000010
   12.22388840  372.60800171    2.09999990    2.13000011
   12.22722149  355.20199585    2.09999990    2.15000010
   12.23055553  364.47698975    2.09999990    2.15000010
   12.23361111  358.66799927    2.07999992    2.15000010
   12.23694515  305.26699829    2.07999992    2.15000010
   12.23944473  295.49200439    2.07999992    2.15000010
   12.24055576  304.13699341    2.07999992    2.17000008
   12.24361134  302.48901367    2.07999992    2.15000010
   12.24694443  268.97500610    2.07999992    2.15000010
   12.25027752  253.94000244    2.07999992    2.17000008
   12.25333309  237.30700684    2.07999992    2.17000008
   12.25944424  237.30700684    2.05999994    2.17000008
   12.26361084  202.36700439    2.05999994    2.17000008
   12.26694393  216.00399780    2.05999994    2.17000008
   12.26999950  209.27600098    2.05999994    2.17000008
   12.27277756  213.61900330    2.03999996    2.17000008
   12.27388859  211.96800232    2.03999996    2.17000008
   12.27694416  199.88600159    2.03999996    2.17000008
   12.28027725  191.44500732    2.03999996    2.17000008
   12.28361130  185.92599487    2.03999996    2.17000008
   12.28666687  175.00700378    2.03999996    2.17000008
   12.29000092  193.18299866    2.01999998    2.19000006
   12.29305553  184.36700439    2.01999998    2.19000006
   12.29638958  210.85000610    2.01999998    2.19000006
   12.30222225  210.85000610    2.01999998    2.19000006
   12.30638885  180.37899780    2.01999998    2.19000006
   12.30972195  185.68499756    2.00000000    2.19000006
   12.31277752  181.05499268    2.00000000    2.19000006
   12.31611156  188.85400391    2.00000000    2.19000006
   12.31944466  184.39900208    2.00000000    2.21000004
   12.32250023  197.11700439    2.00000000    2.19000006
   12.32583332  174.83399963    1.98000002    2.21000004
   12.32916641  175.49699402    1.98000002    2.21000004
   12.33222198  170.82499695    1.98000002    2.21000004
   12.33555508  172.99800110    1.96000004    2.21000004
   12.33861065  167.93200684    1.96000004    2.21000004
   12.33944416  177.14399719    1.96000004    2.21000004
   12.34527779  177.14399719    1.96000004    2.21000004
   12.34916592  171.33900452    1.94000006    2.21000004
   12.35249996  169.18699646    1.94000006    2.21000004
   12.35583401  172.03999329    1.94000006    2.21000004
   12.35888958  170.80400085    1.94000006    2.21000004
   12.36222267  170.89700317    1.94000006    2.21000004
   12.36555576  172.12899780    1.91999996    2.21000004
   12.36861134  173.61700439    1.91999996    2.21000004
   12.37194443  166.00100708    1.91999996    2.21000004
   12.37277794  174.81300354    1.91999996    2.21000004
   12.37555599  175.95100403    1.91999996    2.21000004
   12.37861156  173.49899292    1.91999996    2.23000002
   12.38194466  168.86300659    1.89999998    2.23000002
   12.38805580  168.86300659    1.89999998    2.23000002
   12.39222240  163.12100220    1.89999998    2.25000000
   12.39527798  168.62199402    1.88000000    2.23000002
   12.39861107  177.89799500    1.88000000    2.23000002
   12.40194416  174.93899536    1.88000000    2.25000000
   12.40499973  169.83000183    1.88000000    2.23000002
   12.40611076  170.91600037    1.88000000    2.23000002
   12.40861034  172.10800171    1.88000000    2.23000002
   12.41166592  165.60499573    1.88000000    2.23000002
   12.41499996  173.94200134    1.88000000    2.23000002
   12.41833401  169.23699951    1.88000000    2.25000000
   12.42138958  165.30499268    1.86000001    2.25000000
   12.42472267  169.93299866    1.86000001    2.25000000
   12.43083382  169.93299866    1.86000001    2.25000000
   12.43500042  168.55299377    1.86000001    2.25000000
   12.43833351  168.78700256    1.86000001    2.25000000
   12.43944454  171.75799561    1.86000001    2.25000000
   12.44194412  171.74400330    1.86000001    2.25000000
   12.44499969  160.38000488    1.86000001    2.25000000
   12.44833374  168.56300354    1.86000001    2.25000000
   12.45194435  166.82299805    1.86000001    2.25000000
   12.45499992  177.84599304    1.86000001    2.25000000
   12.45833302  170.53300476    1.86000001    2.25000000
   12.46166611  168.58500671    1.85000002    2.25000000
   12.46472168  169.64500427    1.85000002    2.26999998
   12.46805477  166.16200256    1.85000002    2.26999998
   12.47361088  166.16200256    3.26999998    2.21000004
   12.47777748  169.44900513    3.26999998    2.23000002
   12.48111057  165.31100464    3.28999996    2.21000004
   12.48416710  171.49499512    3.28999996    2.21000004
   12.48750019  170.70399475    3.28999996    2.23000002
   12.49083328  172.60499573    3.30999994    2.23000002
   12.49388885  167.58799744    3.30999994    2.23000002
   12.49722290  162.47399902    3.30999994    2.23000002
   12.50055599  169.30200195    3.28999996    2.23000002
   12.50361156  167.31399536    3.25000000    2.23000002
   12.50611115  175.85200500    3.25000000    2.23000002
   12.50722218  178.43099976    3.23000002    2.23000002
   12.51027775  163.64500427    3.23000002    2.23000002
   12.51666641  163.64500427    3.23000002    2.23000002
   12.52083302  161.24600220    3.21000004    2.23000002
   12.52388859  168.86099243    3.21000004    2.23000002
   12.52722168  161.23399353    3.20000005    2.25000000
   12.53027725  168.80000305    3.18000007    2.25000000
   12.53361130  163.72500610    3.18000007    2.25000000
   12.53694534  162.33399963    3.18000007    2.23000002
   12.53944492  173.98699951    3.18000007    2.25000000
   12.54055595  162.01699829    3.18000007    2.25000000
   12.54361153  166.85099792    3.18000007    2.25000000
   12.54694462  166.55000305    3.18000007    2.25000000
   12.55027771  169.24600220    3.18000007    2.25000000
   12.55333328  166.59899902    3.16000009    2.25000000
   12.55944443  166.59899902    3.14000010    2.26999998
   12.56361103  173.14300537    3.11999989    2.25000000
   12.56666660  164.86500549    3.11999989    2.25000000
   12.56999969  179.19299316    3.11999989    2.26999998
   12.57277775  163.83799744    3.09999990    2.25000000
   12.57361126  163.07499695    3.09999990    2.25000000
   12.57694435  160.86399841    3.09999990    2.25000000
   12.57999992  162.80799866    3.09999990    2.26999998
   12.58333302  187.04200745    3.09999990    2.25000000
   12.58638859  167.26800537    3.07999992    2.25000000
   12.58972168  176.31199646    3.07999992    2.25000000
   12.59305477  176.54499817    3.05999994    2.26999998
   12.59611034  185.43499756    3.03999996    2.26999998
   12.60222244  185.43499756    3.03999996    2.26999998
   12.60638905  180.02699280    3.03999996    2.28999996
   12.60972214  175.26499939    3.03999996    2.26999998
   12.61277771  174.52200317    3.03999996    2.26999998
   12.61611176  176.71800232    3.03999996    2.26999998
   12.61916637  173.91600037    3.03999996    2.26999998
   12.63888836  179.82899475    3.00000000    2.28999996
   12.63944435  174.34800720    3.00000000    2.28999996
   12.64527798  174.34800720    3.00000000    2.28999996
   12.64944458  182.84500122    3.00000000    2.28999996
   12.65249920  170.56700134    3.00000000    2.28999996
   12.65583324  157.77799988    3.00000000    2.28999996
   12.65916634  168.04600525    3.00000000    2.28999996
   12.66222191  170.26899719    3.00000000    2.28999996
   12.66555500  162.36700439    3.01999998    2.28999996
   12.66888905  175.81799316    3.01999998    2.28999996
   12.67194462  174.25900269    3.03999996    2.28999996
   12.67277813  166.34199524    3.03999996    2.28999996
   12.67555618  177.10899353    3.03999996    2.28999996
   12.67888927  176.93800354    3.03999996    2.28999996
   12.68194485  189.66099548    3.01999998    2.28999996
   12.68805599  189.66099548    3.01999998    2.28999996
   12.69222260  170.34300232    3.01999998    2.28999996
   12.69555569  187.37199402    3.01999998    2.28999996
   12.69861126  165.24699402    3.00000000    2.30999994
   12.70194435  171.25199890    3.00000000    2.28999996
   12.70527744  175.68099976    2.98000002    2.30999994
   12.70611095  166.64799500    2.98000002    2.30999994
   12.70861053  171.79800415    2.98000002    2.30999994
   12.71194458  154.84599304    2.96000004    2.32999992
   12.71500015  179.50900269    2.96000004    2.30999994
   12.71833324  163.25500488    2.96000004    2.28999996
   12.72166634  171.68499756    2.96000004    2.30999994
   12.72472191  160.25900269    2.94000006    2.30999994
   12.73083305  160.25900269    2.93000007    2.32999992
   12.73555565  170.23399353    2.91000009    2.30999994
   12.73861122  166.70199585    2.91000009    2.30999994
   12.73944473  166.43899536    2.91000009    2.30999994
   12.74222279  159.07800293    2.91000009    2.30999994
   12.74555588  167.02200317    2.91000009    2.30999994
   12.74861145  158.03700256    2.91000009    2.30999994
   12.75194454  160.68699646    2.91000009    2.32999992
   12.75527763  158.42300415    2.91000009    2.32999992
   12.75833321  160.25999451    2.89000010    2.32999992
   12.76166630  157.95300293    2.89000010    2.32999992
   12.76500034  160.78100586    2.86999989    2.32999992
   12.76805496  167.17300415    2.86999989    2.32999992
   12.77388859  167.17300415    2.86999989    2.32999992
   12.77805519  158.69299316    2.86999989    2.32999992
   12.78111076  159.06799316    2.84999990    2.32999992
   12.78444481  156.32600403    2.86999989    2.32999992
   12.78750038  156.23100281    2.84999990    2.32999992
   12.79083347  152.49000549    2.84999990    2.32999992
   12.79416752  159.54800415    2.84999990    2.32999992
   12.79722309  160.00599670    2.84999990    2.30999994
   12.80055618  159.59599304    2.84999990    2.32999992
   12.80388927  155.28599548    2.84999990    2.32999992
   12.80638885  151.76100159    2.84999990    2.32999992
   12.80722237  159.09100342    2.84999990    2.32999992
   12.81055546  158.00500488    2.84999990    2.32999992
   12.81666660  158.00500488    2.84999990    2.34999990
   12.82083321  147.29299927    2.82999992    2.34999990
   12.82388878  155.97900391    2.82999992    2.32999992
   12.82722187  157.32099915    2.82999992    2.32999992
   12.83055592  155.74899292    2.80999994    2.34999990
   12.83361053  157.02799988    2.80999994    2.34999990
   12.83694458  152.28199768    2.78999996    2.32999992
   12.83972168  155.21099854    2.80999994    2.34999990
   12.84055519  148.83900452    2.78999996    2.34999990
   12.84388828  157.80799866    2.80999994    2.34999990
   12.84694386  160.62300110    2.80999994    2.34999990
   12.85027790  150.66999817    2.80999994    2.34999990
   12.85361195  150.75599670    2.78999996    2.34999990
   12.85944462  150.75599670    2.78999996    2.34999990
   12.86361122  153.33700562    2.78999996    2.34999990
   12.86694431  151.68899536    2.76999998    2.34999990
   12.86999989  158.59700012    2.76999998    2.34999990
   12.87305546  158.89199829    2.75000000    2.34999990
   12.87361145  155.41200256    2.75000000    2.34999990
   12.87694454  150.76600647    2.75000000    2.36999989
   12.88000011  146.80900574    2.73000002    2.36999989
   12.88333321  145.71200562    2.75000000    2.36999989
   12.88666630  141.88900757    2.75000000    2.36999989
   12.88972187  145.56599426    2.73000002    2.36999989
   12.89333344  164.32400513    2.73000002    2.36999989
   12.89666653  173.86799622    2.71000004    2.36999989
   12.90249920  173.86799622    2.71000004    2.36999989
   12.90638828  204.84800720    2.71000004    2.34999990
   12.90972137  214.26800537    2.71000004    2.36999989
   12.91305542  205.34500122    2.71000004    2.36999989
   12.91611099  196.68600464    2.71000004    2.36999989
   12.91944504  189.64199829    2.71000004    2.36999989
   12.92277813  180.09800720    2.69000006    2.36999989
   12.92583370  182.01100159    2.71000004    2.36999989
   12.92916679  175.89999390    2.69000006    2.36999989
   12.93222237  191.97200012    2.69000006    2.36999989
   12.93555546  169.20599365    2.69000006    2.36999989
   12.93888855  169.81399536    2.69000006    2.36999989
   12.93972206  182.42300415    2.69000006    2.36999989
   12.94527817  182.42300415    2.69000006    2.36999989
   12.94944477  201.36500549    2.69000006    2.36999989
   12.95249939  190.53999329    2.69000006    2.36999989
   12.95583344  199.37899780    2.69000006    2.36999989
   12.95916653  169.27900696    2.69000006    2.39000010
   12.96222210  172.50300598    2.69000006    2.36999989
   12.96555519  163.81300354    2.69000006    2.36999989
   12.96861076  187.71299744    2.69000006    2.39000010
   12.97194386  175.83399963    2.67000008    2.36999989
   12.97305489  172.99800110    2.67000008    2.39000010
   12.97555542  172.44900513    2.67000008    2.39000010
   12.97888851  181.05599976    2.67000008    2.39000010
   12.98194408  166.64700317    2.67000008    2.36999989
   12.98805618  166.64700317    2.66000009    2.39000010
   12.99222279  166.96200562    2.66000009    2.39000010
   12.99527836  165.64300537    2.66000009    2.39000010
   12.99861145  166.76300049    2.66000009    2.39000010
   13.00194454  178.76199341    2.66000009    2.39000010
   13.00500011  168.92199707    2.64000010    2.39000010
   13.00638866  146.01400757    2.66000009    2.39000010
   13.00861073  152.90800476    2.66000009    2.39000010
   13.01194477  152.66400146    2.66000009    2.39000010
   13.01527786  152.04299927    2.66000009    2.39000010
   13.01833344  147.68499756    2.66000009    2.39000010
   13.02166653  148.42799377    2.64000010    2.40000010
   13.02499962  156.55700684    2.64000010    2.39000010
   13.03083324  156.55700684    2.64000010    2.39000010
   13.03500080  162.51100159    2.64000010    2.40000010
   13.03833389  162.74200439    2.64000010    2.39000010
   13.03972244  160.09700012    2.64000010    2.39000010
   13.04194450  160.64100647    2.64000010    2.39000010
   13.04527855  149.72999573    2.64000010    2.39000010
   13.04833412  155.11300659    2.64000010    2.40000010
   13.05166721  170.83599854    2.64000010    2.40000010
   13.05500031  162.12600708    2.61999989    2.39000010
   13.05805588  170.70799255    2.61999989    2.40000010
   13.06138897  176.82099915    2.61999989    2.40000010
   13.06472206  188.01199341    2.59999990    2.40000010
   13.06777763  171.09300232    2.59999990    2.42000008
   13.07388878  171.09300232    2.59999990    2.40000010
   13.07777786  180.52000427    2.59999990    2.40000010
   13.08111095  164.83700562    2.59999990    2.40000010
   13.08444405  180.13499451    2.59999990    2.40000010
   13.08749962  185.80999756    2.57999992    2.40000010
   13.09083271  172.44000244    2.55999994    2.40000010
   13.09416676  164.24699402    2.55999994    2.40000010
   13.09722233  165.89700317    2.55999994    2.40000010
   13.10055637  172.46800232    2.55999994    2.40000010
   13.10361195  152.44000244    2.55999994    2.40000010
   13.10638905  165.65199280    2.55999994    2.40000010
   13.10722256  155.86900330    2.55999994    2.42000008
   13.11055565  173.37399292    2.53999996    2.40000010
   13.11666679  173.37399292    2.51999998    2.40000010
   13.12083340  169.24499512    2.51999998    2.40000010
   13.12388897  168.00500488    2.50000000    2.42000008
   13.12722206  163.45500183    2.50000000    2.42000008
   13.13055611  163.56799316    2.50000000    2.40000010
   13.13388920  160.35899353    2.48000002    2.42000008
   13.13722229  161.02200317    2.48000002    2.42000008
   13.13972187  156.78300476    2.48000002    2.40000010
   13.14083290  168.19500732    2.48000002    2.40000010
   13.14416695  165.71699524    2.50000000    2.42000008
   13.14750004  167.61099243    2.50000000    2.42000008
   13.15055561  164.17500305    2.50000000    2.40000010
   13.15388870  166.07800293    2.50000000    2.42000008
   13.15944386  166.07800293    2.50000000    2.40000010
   13.16361046  165.52099609    2.50000000    2.42000008
   13.16694450  176.26199341    2.48000002    2.40000010
   13.17000008  166.17399597    2.48000002    2.42000008
   13.17305565  171.04400635    2.48000002    2.42000008
   13.17361164  172.31399536    2.48000002    2.42000008
   13.17694473  178.76899719    2.46000004    2.42000008
   13.18027782  175.90100098    2.46000004    2.42000008
   13.18333340  179.91400146    2.46000004    2.42000008
   13.18666649  161.24800110    2.46000004    2.42000008
   13.18972206  162.39399719    2.46000004    2.42000008
   13.19305515  171.57099915    2.46000004    2.42000008
   13.19638920  163.54400635    2.46000004    2.42000008
   13.20222187  163.54400635    2.46000004    2.42000008
   13.20638847  154.22700500    2.44000006    2.42000008
   13.20972157  169.14999390    2.44000006    2.44000006
   13.21277714  141.71600342    2.44000006    2.44000006
   13.21611118  156.64300537    2.46000004    2.44000006
   13.21944427  158.52000427    2.46000004    2.40000010
   13.22249985  154.88499451    2.44000006    2.42000008
   13.22583294  172.11300659    2.44000006    2.42000008
   13.22916603  157.26899719    2.44000006    2.42000008
   13.23222160  163.82899475    2.44000006    2.42000008
   13.23555565  154.48699951    2.42000008    2.44000006
   13.23861122  154.62199402    2.42000008    2.44000006
   13.23972225  161.78100586    2.40000010    2.44000006
   13.24499989  161.78100586    2.40000010    2.42000008
   13.24916649  148.83099365    2.40000010    2.42000008
   13.25249958  149.46600342    2.40000010    2.44000006
   13.25583363  150.52499390    2.39000010    2.44000006
   13.25888920  147.42199707    2.39000010    2.44000006
   13.26222229  147.52999878    2.39000010    2.44000006
   13.26555538  156.35400391    2.39000010    2.44000006
   13.26861095  142.29899597    2.39000010    2.44000006
   13.27194405  153.06399536    2.39000010    2.44000006
   13.27305508  150.24800110    2.39000010    2.44000006
   13.27555561  161.81100464    2.36999989    2.44000006
   13.27888870  154.34500122    2.36999989    2.44000006
   13.28222179  159.66700745    2.39000010    2.44000006
   13.28805637  159.66700745    2.39000010    2.44000006
   13.29222298  150.36999512    2.39000010    2.44000006
   13.29527855  154.65800476    2.39000010    2.44000006
   13.29861164  153.30700684    2.40000010    2.44000006
   13.30166721  162.65699768    2.40000010    2.44000006
   13.30500031  165.46000671    2.44000006    2.44000006
   13.30638885  152.41000366    2.44000006    2.46000004
   13.30861092  173.21800232    2.42000008    2.44000006
   13.31194496  163.17300415    2.44000006    2.44000006
   13.31527805  166.06599426    2.44000006    2.44000006
   13.31833363  156.15800476    2.42000008    2.44000006
   13.32166672  164.04800415    2.40000010    2.44000006
   13.32499981  168.39199829    2.44000006    2.44000006
   13.33083344  168.39199829    2.39000010    2.46000004
   13.33500004  164.15600586    2.36999989    2.46000004
   13.33805561  157.62699890    2.39000010    2.44000006
   13.33972168  147.09899902    2.39000010    2.46000004
   13.34166622  160.44400024    2.34999990    2.46000004
   13.34499931  154.30900574    2.32999992    2.44000006
   13.34833336  154.64399719    2.32999992    2.44000006
   13.35138893  154.88200378    2.34999990    2.46000004
   13.35472298  143.48599243    2.34999990    2.46000004
   13.35805607  162.37300110    2.32999992    2.46000004
   13.36111164  159.59500122    2.32999992    2.44000006
   13.36444473  143.71600342    2.30999994    2.46000004
   13.36750031  156.96099854    2.30999994    2.46000004
   13.37361145  156.96099854    2.30999994    2.46000004
   13.37777805  161.41999817    2.32999992    2.46000004
   13.38111115  143.08700562    2.32999992    2.46000004
   13.38416672  151.06500244    2.30999994    2.46000004
   13.38749981  153.01699829    2.30999994    2.46000004
   13.39055538  147.02200317    2.30999994    2.46000004
   13.39388847  151.11199951    2.28999996    2.46000004
   13.39722252  159.43899536    2.28999996    2.46000004
   13.40027714  148.47300720    2.28999996    2.46000004
   13.40361118  145.52799988    2.28999996    2.46000004
   13.40638828  153.93800354    2.28999996    2.48000002
   13.40722179  144.51499939    2.26999998    2.44000006
   13.41055489  153.78999329    2.28999996    2.46000004
   13.41638851  153.78999329    2.26999998    2.46000004
   13.42055607  150.42500305    2.26999998    2.48000002
   13.42388916  146.45300293    2.25000000    2.46000004
   13.42694473  149.02799988    2.25000000    2.46000004
   13.43027782  146.17900085    2.23000002    2.46000004
   13.43361092  153.33099365    2.23000002    2.46000004
   13.43666649  160.23300171    2.23000002    2.44000006
   13.43972206  148.38200378    2.23000002    2.46000004
   13.44027805  157.10499573    2.23000002    2.46000004
   13.44361115  158.71200562    2.23000002    2.48000002
   13.44694424  151.38900757    2.23000002    2.48000002
   13.44999981  161.70300293    2.23000002    2.48000002
   13.45333290  156.43299866    2.23000002    2.48000002
   13.45944405  156.43299866    2.23000002    2.48000002
   13.46333313  172.10000610    2.23000002    2.48000002
   13.46666622  186.71800232    2.23000002    2.48000002
   13.46999931  192.58099365    2.23000002    2.48000002
   13.47305489  183.46200562    2.23000002    2.48000002
   13.47333336  155.81300354    2.23000002    2.48000002
   13.58361053   -1.00000000   -1.00000000   -1.00000000
   13.68361092   -1.00000000   -1.00000000   -1.00000000
   13.78583336   -1.00000000   -1.00000000   -1.00000000
   13.81666660  123.22699738    2.01999998    2.51999998
   13.81999969  208.92700195    2.00000000    2.51999998
   13.82333374  205.51300049    2.01999998    2.51999998
   13.82638836  196.69200134    2.01999998    2.51999998
   13.82972240  196.39300537    2.03999996    2.51999998
   13.83305550  204.24800110    2.01999998    2.51999998
   13.83722210  204.24800110    2.01999998    2.51999998
   13.84111118  194.48199463    2.03999996    2.51999998
   13.84444427  200.24499512    2.03999996    2.53999996
   13.84777737  223.70899963    2.03999996    2.51999998
   13.85000038  246.07099915    2.03999996    2.51999998
   13.85138893  214.92999268    2.03999996    2.51999998
   13.85444450  192.35699463    2.03999996    2.51999998
   13.85777855  194.30799866    2.03999996    2.51999998
   13.86111164  190.34300232    2.01999998    2.51999998
   13.86416721  212.24099731    2.01999998    2.53999996
   13.86750031  198.32600403    2.01999998    2.51999998
   13.87055588  196.83999634    2.01999998    2.51999998
   13.87388897  202.72999573    2.01999998    2.53999996
   13.88000011  202.72999573    2.01999998    2.51999998
   13.88416672  204.59700012    2.03999996    2.51999998
   13.88722229  193.94400024    2.03999996    2.53999996
   13.89055538  197.17599487    2.03999996    2.53999996
   13.89361095  194.91999817    2.03999996    2.51999998
   13.89694405  214.73899841    2.01999998    2.51999998
   13.90027714  197.50599670    2.03999996    2.53999996
   13.90333271  213.87699890    2.03999996    2.53999996
   13.90666676  210.25999451    2.01999998    2.53999996
   13.90999985  192.89100647    2.01999998    2.53999996
   13.91305542  222.65499878    2.01999998    2.51999998
   13.91638851  203.53799438    2.01999998    2.51999998
   13.91694450  203.96800232    2.01999998    2.53999996
   13.92277813  203.96800232    2.00000000    2.53999996
   13.92694473  202.07800293    2.00000000    2.53999996
   13.93000031  210.44599915    2.00000000    2.53999996
   13.93333340  208.97799683    2.00000000    2.53999996
   13.93666649  194.25599670    2.01999998    2.53999996
   13.93972206  199.49699402    2.01999998    2.53999996
   13.94305515  219.72099304    2.01999998    2.53999996
   13.94638920  205.99899292    2.01999998    2.53999996
   13.94944477  204.70300293    2.00000000    2.53999996
   13.95027733  201.16600037    2.00000000    2.53999996
   13.95305538  213.80900574    1.98000002    2.53999996
   13.95638847  192.83700562    2.01999998    2.53999996
   13.95972157  201.40899658    2.03999996    2.51999998
   13.96555519  201.40899658    2.07999992    2.53999996
   13.96972179  196.72599792    2.07999992    2.53999996
   13.97305489  209.27699280    2.07999992    2.53999996
   13.97611046  193.22099304    2.09999990    2.53999996
   13.97944355  208.19000244    2.11999989    2.53999996
   13.98277760  210.52999878    2.13000011    2.53999996
   13.98361111  202.58500671    2.13000011    2.53999996
   13.98611164  213.19599915    2.13000011    2.53999996
   13.98944473  209.65100098    2.09999990    2.51999998
   13.99277782  211.42999268    2.07999992    2.53999996
   13.99583340  210.58099365    2.07999992    2.53999996
   13.99916649  210.93499756    2.05999994    2.53999996
   14.00249958  217.57299805    2.07999992    2.53999996
   14.00833321  217.57299805    2.07999992    2.53999996
   14.01249981  207.05499268    2.07999992    2.53999996
   14.01583290  199.20300293    2.05999994    2.53999996
   14.01694393  221.86199951    2.05999994    2.53999996
   14.01944447  203.10499573    2.05999994    2.53999996
   14.02277756  208.77600098    2.05999994    2.53999996
   14.02611065  216.85800171    2.03999996    2.53999996
   14.02916622  210.77799988    2.03999996    2.53999996
   14.03249931  215.27299500    2.03999996    2.53999996
   14.03583336  202.33099365    2.03999996    2.53999996
   14.03888893  197.64300537    2.03999996    2.53999996
   14.04222298  190.33399963    2.03999996    2.53999996
   14.04527855  204.02499390    2.03999996    2.55999994
   14.05138874  204.02499390    2.05999994    2.55999994
   14.05555534  202.16900635    2.07999992    2.53999996
   14.05861092  207.38299561    2.07999992    2.53999996
   14.06194496  222.43899536    2.07999992    2.55999994
   14.06500053  205.50300598    2.07999992    2.53999996
   14.06833363  212.44299316    2.05999994    2.53999996
   14.07166672  212.93499756    2.05999994    2.53999996
   14.07472229  210.06700134    2.03999996    2.55999994
   14.07805538  202.07600403    2.03999996    2.55999994
   14.08138847  212.97099304    2.03999996    2.55999994
   14.08361053  187.87199402    2.01999998    2.55999994
   14.08472157  209.32800293    2.01999998    2.53999996
   14.08805561  198.61199951    2.03999996    2.55999994
   14.09416676  198.61199951    2.01999998    2.53999996
   14.09833336  205.67999268    2.01999998    2.55999994
   14.10138893  202.20300293    2.03999996    2.55999994
   14.10472298  213.78799438    2.03999996    2.55999994
   14.10805607  213.41999817    2.03999996    2.53999996
   14.11111164  170.94700623    2.03999996    2.55999994
   14.11444473  193.60499573    2.01999998    2.55999994
   14.11694431  198.15100098    2.03999996    2.55999994
   14.11805534  198.11000061    2.03999996    2.55999994
   14.12138939  205.27999878    2.03999996    2.53999996
   14.12472248  195.50300598    2.05999994    2.55999994
   14.12777805  196.59199524    2.05999994    2.53999996
   14.13111115  206.02999878    2.05999994    2.55999994
   14.13694477  206.02999878    2.03999996    2.55999994
   14.14111137  188.43899536    2.03999996    2.55999994
   14.14444447  202.55400085    2.01999998    2.55999994
   14.14750004  176.58500671    1.98000002    2.55999994
   14.15027714  187.75199890    1.98000002    2.55999994
   14.15111065  205.15299988    1.98000002    2.55999994
   14.15444374  197.43099976    1.98000002    2.55999994
   14.15777779  193.81900024    1.98000002    2.53999996
   14.16083336  205.74499512    2.00000000    2.55999994
   14.16416645  175.62899780    2.00000000    2.55999994
   14.16750050  188.85800171    2.00000000    2.55999994
   14.17055607  198.60200500    2.01999998    2.55999994
   14.17388916  201.89199829    2.01999998    2.55999994
   14.17972279  201.89199829    2.00000000    2.55999994
   14.18388939  170.68400574    1.98000002    2.55999994
   14.18722248  174.33399963    1.98000002    2.55999994
   14.19055557  179.60299683    1.96000004    2.55999994
   14.19361115  166.23199463    1.98000002    2.55999994
   14.19694424  172.10600281    2.00000000    2.55999994
   14.19999981  175.54299927    2.00000000    2.55999994
   14.20333290  175.82000732    1.98000002    2.55999994
   14.20666695  183.33900452    2.00000000    2.55999994
   14.20972157  173.58999634    2.00000000    2.55999994
   14.21305561  167.98699951    2.00000000    2.55999994
   14.21638870  167.67999268    1.98000002    2.55999994
   14.21694374  170.74499512    1.98000002    2.55999994
   14.22277737  170.74499512    1.98000002    2.57999992
   14.22694397  157.73800659    1.94000006    2.57999992
   14.22999954  171.22399902    1.94000006    2.57999992
   14.23333359  160.75700378    1.94000006    2.57999992
   14.23666668  169.50000000    1.94000006    2.55999994
   14.23972225  171.13499451    1.91999996    2.57999992
   14.24305534  175.59899902    1.91999996    2.55999994
   14.24611092  165.26100159    1.91999996    2.55999994
   14.24944496  157.30799866    1.91999996    2.55999994
   14.25027752  177.21400452    1.91999996    2.55999994
   14.25305557  161.26800537    1.91999996    2.55999994
   14.25611115  165.00100708    1.91999996    2.55999994
   14.25944424  157.50300598    1.88000000    2.57999992
   14.26555538  157.50300598    1.91999996    2.55999994
   14.26972198  171.86099243    1.94000006    2.55999994
   14.27277756  157.00399780    1.94000006    2.55999994
   14.27611065  162.66400146    1.94000006    2.57999992
   14.27944374  153.96000671    1.94000006    2.55999994
   14.28249931  156.90299988    1.89999998    2.55999994
   14.28361130  158.12800598    1.89999998    2.55999994
   14.28638935  173.16200256    1.89999998    2.55999994
   14.28944492  159.49099731    1.89999998    2.55999994
   14.29277802  161.25799561    1.89999998    2.57999992
   14.29583359  170.98800659    1.91999996    2.57999992
   14.29916668  160.66400146    1.91999996    2.57999992
   14.30249977  164.40499878    1.94000006    2.57999992
   14.30833340  164.40499878    1.94000006    2.57999992
   14.31250000  150.89999390    1.94000006    2.55999994
   14.31583309  158.90600586    1.94000006    2.55999994
   14.31694412  155.57000732    1.91999996    2.55999994
   14.31944466  147.83299255    1.91999996    2.55999994
   14.32250023  152.83999634    1.91999996    2.57999992
   14.32583332  147.71299744    1.91999996    2.57999992
   14.32916641  153.83500671    1.91999996    2.57999992
   14.33222198  148.31700134    1.89999998    2.55999994
   14.33555508  152.85699463    1.94000006    2.57999992
   14.33861065  147.85000610    1.91999996    2.57999992
   14.34194374  155.26100159    1.91999996    2.57999992
   14.34527779  152.82899475    2.01999998    2.55999994
   14.35111141  152.82899475    2.00000000    2.55999994
   14.35527802  140.86300659    1.98000002    2.57999992
   14.35861111  156.27000427    1.96000004    2.57999992
   14.36194515  159.55499268    1.96000004    2.55999994
   14.36500072  157.34399414    1.96000004    2.55999994
   14.36833382  152.79899597    1.98000002    2.57999992
   14.37138939  153.37600708    1.98000002    2.55999994
   14.37472248  151.84800720    1.98000002    2.55999994
   14.37805557  150.83000183    1.91999996    2.57999992
   14.38111115  154.92100525    1.89999998    2.57999992
   14.38361073  147.58200073    1.86000001    2.57999992
   14.38500023  147.98699951    1.86000001    2.57999992
   14.38805580  149.61099243    1.85000002    2.57999992
   14.39416695  149.61099243    1.85000002    2.57999992
   14.39833355  149.01699829    1.85000002    2.57999992
   14.40138817  161.04699707    1.83000004    2.57999992
   14.40472221  146.89199829    1.83000004    2.59999990
   14.40805531  152.78799438    1.83000004    2.59999990
   14.41111088  146.17300415    1.85000002    2.55999994
   14.41444397  151.14700317    1.86000001    2.57999992
   14.41694450  153.34800720    1.86000001    2.57999992
   14.41805553  154.02499390    1.86000001    2.57999992
   14.42111111  161.22300720    1.86000001    2.57999992
   14.42444515  150.37399292    1.86000001    2.57999992
   14.42750072  160.22599792    1.85000002    2.57999992
   14.43083382  143.78599548    1.85000002    2.57999992
   14.43694496  143.78599548    1.85000002    2.59999990
   14.44111156  154.59399414    1.85000002    2.59999990
   14.44416714  159.51600647    1.85000002    2.59999990
   14.44750023  145.05400085    1.86000001    2.57999992
   14.45027733  155.40600586    1.85000002    2.57999992
   14.45138836  161.97900391    1.85000002    2.57999992
   14.45444393  148.74699402    1.85000002    2.59999990
   14.45777798  153.27200317    1.85000002    2.57999992
   14.46111107  147.11599731    1.83000004    2.57999992
   14.46416664  154.86399841    1.83000004    2.57999992
   14.46749973  150.15499878    1.85000002    2.59999990
   14.47055531  142.46899414    1.85000002    2.59999990
   14.47388840  156.49400330    1.83000004    2.59999990
   14.47972202  156.49400330    1.83000004    2.57999992
   14.48388958  153.63900757    1.83000004    2.59999990
   14.48722267  151.76600647    1.83000004    2.59999990
   14.49027824  146.58099365    1.83000004    2.59999990
   14.49361134  150.60899353    1.83000004    2.57999992
   14.49694443  155.08500671    1.80999994    2.59999990
   14.50000000  159.34100342    1.83000004    2.59999990
   14.50333309  150.09399414    1.85000002    2.59999990
   14.50666714  150.16200256    1.85000002    2.59999990
   14.50972176  146.00700378    1.85000002    2.59999990
   14.51305580  158.94500732    1.85000002    2.59999990
   14.51611137  146.86799622    1.83000004    2.59999990
   14.51694393  143.68099976    1.83000004    2.59999990
   14.52250004  143.68099976    1.80999994    2.59999990
   14.52666664  145.97200012    1.80999994    2.57999992
   14.52999973  156.39100647    1.80999994    2.59999990
   14.53333378  154.81100464    1.83000004    2.59999990
   14.53638935  151.13999939    1.83000004    2.59999990
   14.53972244  151.53300476    1.83000004    2.59999990
   14.54277802  138.07699585    1.83000004    2.59999990
   14.54611111  147.50599670    1.83000004    2.59999990
   14.54944515  147.26899719    1.80999994    2.59999990
   14.55027771  150.70399475    1.80999994    2.59999990
   14.55305576  142.76100159    1.83000004    2.59999990
   14.55611134  147.29600525    1.85000002    2.59999990
   14.55944443  153.38900757    1.86000001    2.59999990
   14.56555557  153.38900757    1.86000001    2.59999990
   14.56972218  149.41999817    1.86000001    2.59999990
   14.57277775  149.45100403    1.85000002    2.59999990
   14.57611084  143.82200623    1.83000004    2.59999990
   14.57916641  160.90800476    1.83000004    2.59999990
   14.58249950  150.97599792    1.83000004    2.59999990
   14.58361053  149.57499695    1.83000004    2.59999990
   14.58638859  159.07899475    1.83000004    2.59999990
   14.58944416  148.80099487    1.83000004    2.59999990
   14.59277725  145.10099792    1.83000004    2.59999990
   14.59611034  148.72700500    1.85000002    2.59999990
   14.59916592  145.52999878    1.86000001    2.59999990
   14.60249996  147.13099670    1.86000001    2.57999992
   14.60833359  147.13099670    1.86000001    2.59999990
   14.61250019  149.93800354    1.86000001    2.59999990
   14.61555576  141.92700195    1.86000001    2.57999992
   14.61694431  148.41200256    1.86000001    2.59999990
   14.61944485  148.14799500    1.86000001    2.59999990
   14.62250042  147.87699890    1.88000000    2.59999990
   14.62583351  150.20300293    1.91999996    2.59999990
   14.62916660  135.40800476    1.89999998    2.59999990
   14.63222218  153.89300537    1.89999998    2.59999990
   14.63555527  149.13800049    1.91999996    2.57999992
   14.63861084  144.80200195    1.91999996    2.57999992
   14.64194393  151.10899353    1.96000004    2.59999990
   14.64527798  148.05000305    1.94000006    2.59999990
   14.65111065  148.05000305    1.94000006    2.59999990
   14.65527725  148.79499817    1.91999996    2.59999990
   14.65861034  151.55499268    1.91999996    2.59999990
   14.66166592  150.27099609    1.91999996    2.59999990
   14.66499996  153.08399963    1.91999996    2.59999990
   14.66833401  141.49000549    1.91999996    2.57999992
   14.67138958  143.79100037    1.88000000    2.57999992
   14.67472267  146.44700623    1.86000001    2.57999992
   14.67805576  151.24800110    1.86000001    2.59999990
   14.68111134  144.93600464    1.85000002    2.59999990
   14.68361092  153.90800476    1.85000002    2.59999990
   14.68472195  154.78500366    1.83000004    2.59999990
   14.68777752  164.04899597    1.83000004    2.59999990
   14.69416714  164.04899597    1.83000004    2.59999990
   14.69805527  148.52400208    1.83000004    2.59999990
   14.70138836  148.62500000    1.83000004    2.59999990
   14.70472240  138.80900574    1.83000004    2.59999990
   14.70777798  145.69799805    1.85000002    2.59999990
   14.71111107  152.06100464    1.86000001    2.59999990
   14.71444416  149.64199829    1.88000000    2.59999990
   14.71694374  154.36900330    1.88000000    2.59999990
   14.71805477  140.72000122    1.88000000    2.59999990
   14.72111034  152.17300415    1.86000001    2.59999990
   14.72444439  152.91299438    1.86000001    2.59999990
   14.72777748  148.31700134    1.86000001    2.59999990
   14.73083305  140.93800354    1.85000002    2.59999990
   14.73694515  140.93800354    1.80999994    2.59999990
   14.74111176  143.81199646    1.80999994    2.59999990
   14.74416733  141.97300720    1.80999994    2.59999990
   14.74750042  148.49000549    1.78999996    2.59999990
   14.75027752  151.30799866    1.78999996    2.59999990
   14.75111103  154.97900391    1.78999996    2.59999990
   14.75416660  137.67999268    1.80999994    2.59999990
   14.75749969  144.61399841    1.80999994    2.59999990
   14.76083374  150.42199707    1.83000004    2.59999990
   14.76388931  150.51400757    1.85000002    2.59999990
   14.76722240  142.77699280    1.85000002    2.59999990
   14.77027798  146.44599915    1.85000002    2.59999990
   14.77361107  151.48699951    1.85000002    2.59999990
   14.77972221  151.48699951    1.86000001    2.59999990
   14.78388977  141.74600220    1.86000001    2.59999990
   14.78694534  152.48800659    1.88000000    2.59999990
   14.79027843  138.47599792    1.88000000    2.59999990
   14.79361153  156.73800659    1.88000000    2.59999990
   14.79666710  144.09700012    1.88000000    2.59999990
   14.80000019  153.95300293    1.88000000    2.59999990
   14.80333328  152.98199463    1.88000000    2.59999990
   14.80638885  143.56100464    1.88000000    2.59999990
   14.80972195  158.14999390    1.88000000    2.59999990
   14.81277752  145.17199707    1.86000001    2.59999990
   14.81611156  156.60499573    1.86000001    2.61999989
   14.81694412  149.78700256    1.86000001    2.61999989
   14.83777714  149.78700256    1.80999994    2.59999990
   14.84194374  152.12699890    1.80999994    2.61999989
   14.84499931  150.56199646    1.80999994    2.61999989
   14.84833336  143.70599365    1.80999994    2.59999990
   14.85027790  150.13299561    1.85000002    2.59999990
   14.85194492  151.05000305    1.85000002    2.59999990
   14.85500050  154.74400330    1.86000001    2.59999990
   14.85833359  147.93899536    1.86000001    2.59999990
   14.86166668  152.61700439    1.86000001    2.59999990
   14.86472225  140.18800354    1.88000000    2.61999989
   14.86805534  149.42399597    1.91999996    2.59999990
   14.87138939  148.92300415    1.91999996    2.59999990
   14.87444496  137.97300720    1.94000006    2.59999990
   14.88055611  137.97300720    1.94000006    2.59999990
   14.88444424  150.45300293    1.89999998    2.59999990
   14.88777733  147.13000488    1.86000001    2.59999990
   14.89111137  148.54600525    1.85000002    2.61999989
   14.89416695  158.82400513    1.83000004    2.59999990
   14.89750004  154.29400635    1.80999994    2.59999990
   14.90083313  156.15199280    1.83000004    2.59999990
   14.90388870  147.57099915    1.83000004    2.59999990
   14.90722179  151.38699341    1.83000004    2.61999989
   14.91027737  147.64999390    1.83000004    2.61999989
   14.91361046  162.71099854    1.83000004    2.61999989
   14.91694450  145.73899841    1.83000004    2.61999989
   14.91750050  135.84399414    1.83000004    2.61999989
   14.92333412  135.84399414    1.80999994    2.61999989
   14.92750072  156.37899780    1.85000002    2.61999989
   14.93083382  153.25799561    1.88000000    2.59999990
   14.93388939  148.86199951    1.91999996    2.59999990
   14.93722248  148.32200623    1.91999996    2.59999990
   14.94027805  154.98599243    1.91999996    2.61999989
   14.94361115  153.26100159    1.91999996    2.61999989
   14.94694424  156.82200623    1.89999998    2.59999990
   14.94999981  155.29100037    1.88000000    2.59999990
   14.95083332  154.88299561    1.88000000    2.59999990
   14.95361137  155.51800537    1.88000000    2.59999990
   14.95694447  157.05099487    1.86000001    2.59999990
   14.96027756  149.57299805    1.85000002    2.61999989
   14.96611118  149.57299805    1.86000001    2.59999990
   14.97027779  156.89500427    1.85000002    2.61999989
   14.97361088  146.00599670    1.85000002    2.61999989
   14.97666645  152.90199280    1.86000001    2.59999990
   14.97999954  151.27000427    1.89999998    2.61999989
   14.98305511  157.32699585    1.94000006    2.61999989
   14.98416710  160.45300293    1.94000006    2.61999989
   14.98666668  163.04800415    1.96000004    2.59999990
   14.99000072  149.35600281    1.96000004    2.61999989
   14.99333382  158.88000488    1.96000004    2.61999989
   14.99638939  157.87699890    1.96000004    2.59999990
   14.99972248  156.62899780    1.96000004    2.59999990
   15.00277805  145.57400513    1.96000004    2.59999990
   15.00888920  145.57400513    1.89999998    2.61999989
   15.01305580  142.73500061    1.89999998    2.61999989
   15.01638889  145.09300232    1.89999998    2.61999989
   15.01749992  145.35299683    1.89999998    2.61999989
   15.01999950  150.38099670    1.91999996    2.59999990
   15.02333355  152.22300720    1.89999998    2.61999989
   15.02666664  157.01400757    1.89999998    2.61999989
   15.02972221  149.46800232    1.89999998    2.61999989
   15.03305531  148.28300476    1.91999996    2.61999989
   15.03611183  146.65400696    1.88000000    2.59999990
   15.03944492  148.79200745    1.88000000    2.61999989
   15.04277802  154.32099915    1.88000000    2.61999989
   15.04583359  158.80999756    1.88000000    2.61999989
   15.05194473  158.80999756    1.85000002    2.61999989
   15.05583382  148.05599976    1.85000002    2.61999989
   15.05916691  156.63699341    1.86000001    2.61999989
   15.06250000  147.08900452    1.86000001    2.61999989
   15.06555557  151.08599854    1.86000001    2.61999989
   15.06916618  164.31300354    1.86000001    2.59999990
   15.07250023  155.47300720    1.86000001    2.59999990
   15.07555580  150.83799744    1.86000001    2.61999989
   15.07888889  150.38400269    1.86000001    2.61999989
   15.08222198  157.07600403    1.83000004    2.61999989
   15.08416653  157.30400085    1.80999994    2.61999989
   15.08555508  153.92900085    1.80999994    2.61999989
   15.08888817  163.53100586    1.80999994    2.61999989
   15.09472179  163.53100586    1.76999998    2.61999989
   15.09888840  150.69299316    1.73000002    2.64000010
   15.10194492  141.50500488    1.71000004    2.61999989
   15.10527802  143.78399658    1.71000004    2.64000010
   15.10861111  153.17500305    1.69000006    2.64000010
   15.11166668  149.19999695    1.71000004    2.64000010
   15.11500072  160.16900635    1.71000004    2.64000010
   15.11750031  145.67199707    1.71000004    2.61999989
   15.11861134  158.50700378    1.71000004    2.61999989
   15.12194443  150.18099976    1.69000006    2.64000010
   15.12527752  145.49800110    1.66999996    2.61999989
   15.12833309  160.63999939    1.69000006    2.64000010
   15.13166714  163.19599915    1.69000006    2.64000010
   15.13749981  163.19599915    1.71000004    2.64000010
   15.14166641  141.78999329    1.73000002    2.64000010
   15.14499950  154.47500610    1.71000004    2.64000010
   15.14805508  159.88099670    1.71000004    2.64000010
   15.15083313  162.80000305    1.73000002    2.64000010
   15.15166664  151.34199524    1.73000002    2.64000010
   15.15499973  156.27099609    1.71000004    2.61999989
   15.15833282  146.79899597    1.69000006    2.64000010
   15.16138840  150.19099426    1.69000006    2.64000010
   15.16472149  145.60699463    1.71000004    2.64000010
   15.16805553  144.21400452    1.73000002    2.64000010
   15.17111111  152.83700562    1.73000002    2.64000010
   15.17444515  153.61500549    1.73000002    2.64000010
   15.18027782  153.61500549    1.80999994    2.64000010
   15.18444443  160.63000488    1.78999996    2.61999989
   15.18777752  155.16200256    1.76999998    2.61999989
   15.19083309  148.88800049    1.76999998    2.61999989
   15.19416714  153.91299438    1.78999996    2.61999989
   15.19750023  157.11799622    1.78999996    2.61999989
   15.20055580  143.75700378    1.78999996    2.64000010
   15.20388889  154.14599609    1.80999994    2.61999989
   15.20722198  151.52099609    1.80999994    2.64000010
   15.21027756  154.65800476    1.78999996    2.64000010
   15.21361065  155.97399902    1.76999998    2.64000010
   15.21666622  147.92599487    1.73000002    2.64000010
   15.21749973  146.98800659    1.73000002    2.64000010
   15.22333336  146.98800659    1.71000004    2.64000010
   15.22722149  144.27799988    1.66999996    2.64000010
   15.23055553  139.86300659    1.66999996    2.64000010
   15.23388958  158.13400269    1.64999998    2.64000010
   15.23694515  138.51800537    1.64999998    2.64000010
   15.24027824  143.81900024    1.64999998    2.64000010
   15.24361134  147.11300659    1.66999996    2.64000010
   15.24694443  151.70199585    1.71000004    2.64000010
   15.25027752  150.62300110    1.71000004    2.64000010
   15.25083351  151.30700684    1.71000004    2.64000010
   15.25388908  137.72300720    1.71000004    2.64000010
   15.25694466  143.72999573    1.75000000    2.61999989
   15.26027775  143.74899292    1.73000002    2.64000010
   15.26611137  143.74899292    1.69000006    2.64000010
   15.27027798  143.55200195    1.66999996    2.64000010
   15.27333355  145.99899292    1.66999996    2.64000010
   15.27666664  143.25399780    1.64999998    2.64000010
   15.27999973  136.38900757    1.61000001    2.64000010
   15.28305531  155.49400330    1.61000001    2.64000010
   15.28416729  148.80000305    1.63000000    2.64000010
   15.28694534  148.65699768    1.63000000    2.64000010
   15.29000092  142.96600342    1.63000000    2.64000010
   15.29333401  151.98599243    1.61000001    2.64000010
   15.29666710  148.43800354    1.60000002    2.64000010
   15.29972267  147.94299316    1.60000002    2.64000010
   15.30305576  150.50999451    1.58000004    2.64000010
   15.30888939  150.50999451    1.61000001    2.64000010
   15.31305599  139.05900574    1.63000000    2.64000010
   15.31638908  147.80700684    1.63000000    2.64000010
   15.31750011  145.14700317    1.63000000    2.64000010
   15.31999969  143.40499878    1.61000001    2.66000009
   15.32305527  136.00199890    1.58000004    2.64000010
   15.32638836  149.06500244    1.58000004    2.64000010
   15.32972240  142.04699707    1.58000004    2.64000010
   15.33277798  146.13699341    1.58000004    2.64000010
   15.33611107  137.90299988    1.58000004    2.64000010
   15.33944416  145.14399719    1.61000001    2.64000010
   15.34249973  143.73699951    1.60000002    2.64000010
   15.34583282  147.40199280    1.61000001    2.66000009
   15.35166740  147.40199280    1.63000000    2.64000010
   15.35583401  139.17500305    1.61000001    2.64000010
   15.35916710  135.87500000    1.61000001    2.64000010
   15.36222267  131.65699768    1.61000001    2.64000010
   15.36555576  140.68600464    1.60000002    2.64000010
   15.36888885  138.15899658    1.58000004    2.64000010
   15.37194443  150.72000122    1.60000002    2.64000010
   15.37527752  147.14599609    1.61000001    2.64000010
   15.37833309  141.63999939    1.61000001    2.64000010
   15.38166714  133.17199707    1.61000001    2.64000010
   15.38416672  142.52099609    1.61000001    2.64000010
   15.38527775  142.48100281    1.61000001    2.64000010
   15.38833332  150.96200562    1.61000001    2.64000010
   15.39444447  150.96200562    1.60000002    2.64000010
   15.39861107  148.74299622    1.60000002    2.66000009
   15.40194416  146.97999573    1.55999994    2.66000009
   15.40527725  138.63900757    1.58000004    2.64000010
   15.40833282  147.61700439    1.58000004    2.64000010
   15.41166592  146.23399353    1.58000004    2.66000009
   15.41472149  138.16999817    1.58000004    2.64000010
   15.41750050  148.80400085    1.58000004    2.64000010
   15.41861153  141.66200256    1.58000004    2.66000009
   15.42166710  140.86900330    1.58000004    2.66000009
   15.42500019  149.76499939    1.58000004    2.66000009
   15.42833328  145.95599365    1.55999994    2.66000009
   15.43138885  145.25500488    1.58000004    2.66000009
   15.43750000  145.25500488    1.60000002    2.64000010
   15.44166660  148.22999573    1.61000001    2.64000010
   15.44472218  143.66799927    1.58000004    2.64000010
   15.44805527  140.18400574    1.58000004    2.64000010
   15.45083332  152.41099548    1.58000004    2.66000009
   15.45166683  147.39900208    1.58000004    2.66000009
   15.45472240  147.43499756    1.58000004    2.64000010
   15.45805550  146.91299438    1.58000004    2.64000010
   15.46138859  143.83599854    1.53999996    2.64000010
   15.46444416  136.28399658    1.55999994    2.64000010
   15.46777725  144.72099304    1.55999994    2.64000010
   15.47083282  151.02999878    1.50000000    2.66000009
   15.47416592  152.75900269    1.51999998    2.66000009
   15.48027706  152.75900269    1.51999998    2.66000009
   15.48444462  143.03599548    1.51999998    2.66000009
   15.48750019  153.38999939    1.53999996    2.66000009
   15.49083328  146.49699402    1.55999994    2.66000009
   15.49416733  149.02200317    1.55999994    2.66000009
   15.49722290  148.55900574    1.60000002    2.64000010
   15.50055599  139.14100647    1.61000001    2.64000010
   15.50388908  144.53399658    1.83000004    2.64000010
   15.50694466  144.02099609    1.94000006    2.64000010
   15.51027775  144.10600281    1.91999996    2.64000010
   15.51333332  141.03100586    1.89999998    2.64000010
   15.51666641  151.70399475    1.89999998    2.64000010
   15.51749992  148.09199524    1.89999998    2.64000010
   15.52305508  148.09199524    1.94000006    2.64000010
   15.52722168  146.36399841    1.86000001    2.64000010
   15.53055573  153.33399963    1.85000002    2.64000010
   15.53361130  141.55299377    1.85000002    2.64000010
   15.53694534  138.08200073    1.89999998    2.64000010
   15.54027843  144.61999512    1.91999996    2.64000010
   15.54333401  145.46200562    1.88000000    2.64000010
   15.54666710  139.90199280    1.78999996    2.64000010
   15.54972267  148.89700317    1.78999996    2.64000010
   15.55083370  145.84599304    1.78999996    2.64000010
   15.55361176  153.68499756    1.78999996    2.64000010
   15.55694485  141.07200623    1.71000004    2.64000010
   15.56000042  145.55099487    1.61000001    2.66000009
   15.56611156  145.55099487    1.55999994    2.64000010
   15.56999969  142.31799316    1.55999994    2.64000010
   15.57333374  146.33200073    1.55999994    2.64000010
   15.57666683  149.67399597    1.55999994    2.66000009
   15.57972240  148.54499817    1.55999994    2.64000010
   15.58305550  147.13299561    1.55999994    2.66000009
   15.58416653  150.04100037    1.55999994    2.66000009
   15.58666611  158.47300720    1.58000004    2.64000010
   15.58972168  150.02699280    1.63000000    2.66000009
   15.59305477  144.81799316    1.63000000    2.66000009
   15.59638882  152.42100525    1.71000004    2.64000010
   15.59944439  144.90100098    1.78999996    2.64000010
   15.60277843  143.32600403    1.83000004    2.64000010
   15.60888958  143.32600403    2.07999992    2.64000010
   15.61305618  143.33700562    2.21000004    2.64000010
   15.61611176  145.72300720    2.30999994    2.64000010
   15.61750031  143.00599670    2.34999990    2.64000010
   15.61972237  135.82499695    2.34999990    2.64000010
   15.62277794  147.33599854    2.42000008    2.64000010
   15.62611103  148.19099426    2.53999996    2.64000010
   15.62944412  146.70500183    2.67000008    2.61999989
   15.63249969  148.49099731    2.73000002    2.64000010
   15.63583279  146.52600098    2.76999998    2.64000010
   15.63916683  151.01300049    2.75000000    2.64000010
   15.64222240  161.81199646    2.84999990    2.64000010
   15.64555550  178.69799805    2.86999989    2.61999989
   15.65166664  178.69799805    2.93000007    2.61999989
   15.65583324  270.92999268    2.94000006    2.61999989
   15.65888882  240.47599792    2.94000006    2.61999989
   15.66222191  241.06100464    2.86999989    2.61999989
   15.66555500  234.94799805    2.76999998    2.61999989
   15.66861153  214.33500671    2.69000006    2.61999989
   15.67194462  212.75999451    2.66000009    2.61999989
   15.67555618  211.29899597    2.64000010    2.61999989
   15.67861176  221.27699280    2.55999994    2.64000010
   15.68194485  214.99099731    2.50000000    2.61999989
   15.68416691  213.79899597    2.51999998    2.61999989
   15.68555546  207.89300537    2.51999998    2.61999989
   15.68861103  205.85400391    2.53999996    2.64000010
   15.69444466  205.85400391    2.48000002    2.64000010
   15.69861126  205.29499817    2.32999992    2.64000010
   15.70194435  197.71899414    2.34999990    2.64000010
   15.70499992  204.12199402    2.34999990    2.64000010
   15.70833302  218.18699646    2.39000010    2.64000010
   15.71166611  209.44099426    2.42000008    2.64000010
   15.71472168  213.18099976    2.46000004    2.64000010
   15.71749973  211.59700012    2.46000004    2.64000010
   15.71833324  203.56399536    2.44000006    2.64000010
   15.72138882  210.69900513    2.44000006    2.64000010
   15.72472191  189.14100647    2.46000004    2.64000010
   15.72805500  198.83299255    2.44000006    2.64000010
   15.73111057  214.45599365    2.40000010    2.66000009
   15.73750019  214.45599365    2.40000010    2.66000009
   15.74138927  180.31199646    2.46000004    2.64000010
   15.74472237  169.14100647    2.59999990    2.64000010
   15.74805546  171.96200562    2.69000006    2.64000010
   15.75083351  178.11099243    2.66000009    2.64000010
   15.75166702  189.06399536    2.67000008    2.61999989
   15.75472260  186.52400208    2.61999989    2.64000010
   15.75805569  202.30400085    2.61999989    2.64000010
   15.76138878  194.38900757    2.71000004    2.66000009
   15.76444435  202.20899963    2.67000008    2.66000009
   15.76777744  169.98800659    2.51999998    2.64000010
   15.77111053  180.32600403    2.34999990    2.64000010
   15.77416611  162.61099243    2.32999992    2.64000010
   15.78027725  162.61099243    2.19000006    2.64000010
   15.78444481  172.29499817    2.03999996    2.66000009
   15.78750038  174.96499634    1.89999998    2.66000009
   15.79083347  177.81500244    1.80999994    2.64000010
   15.79388905  176.79499817    1.71000004    2.66000009
   15.79722309  170.20700073    1.69000006    2.66000009
   15.80055618  176.00199890    1.64999998    2.64000010
   15.80361176  169.81799316    1.63000000    2.64000010
   15.80694485  182.37100220    1.61000001    2.64000010
   15.81027794  162.46200562    1.61000001    2.64000010
   15.81333351  175.16099548    1.61000001    2.66000009
   15.81666660  181.20199585    1.60000002    2.66000009
   15.81750011  162.73599243    1.60000002    2.66000009
   15.82305527  162.73599243    1.55999994    2.66000009
   15.82722187  168.80999756    1.58000004    2.66000009
   15.83055592  175.69099426    1.61000001    2.64000010
   15.83361053  165.67199707    1.63000000    2.66000009
   15.85111141  160.49600220    1.76999998    2.64000010
   15.85361195  157.79299927    1.83000004    2.66000009
   15.85694504  149.08799744    1.88000000    2.66000009
   15.86000061  160.25999451    2.19000006    2.64000010
   15.86611176  160.25999451    2.36999989    2.64000010
   15.87027836  156.40400696    2.48000002    2.66000009
   15.87333393  164.76199341    2.53999996    2.64000010
   15.87666702  148.90600586    2.48000002    2.64000010
   15.88000011  161.89700317    2.42000008    2.64000010
   15.88305569  155.35299683    2.44000006    2.64000010
   15.88444424  152.27499390    2.44000006    2.64000010
   15.88666630  148.78700256    2.48000002    2.64000010
   15.88972187  157.66799927    2.46000004    2.64000010
   15.89305496  151.86700439    2.53999996    2.66000009
   15.89638901  155.83099365    2.75000000    2.66000009
   15.89944458  142.49200439    3.23000002    2.64000010
   15.90277767  157.47799683    4.07999992    2.59999990
   15.90888882  157.47799683    4.82999992    2.57999992
   15.91305542  151.32499695    4.90999985    2.53999996
   15.91638851  154.34300232    4.90999985    2.57999992
   15.91777802  164.95899963    4.90999985    2.57999992
   15.92000008  178.27900696    4.90999985    2.51999998
   15.92305565  158.90299988    4.90999985    2.51999998
   15.92638874  157.58500671    4.90999985    2.59999990
   15.92972279  146.03799438    4.90999985    2.59999990
   15.93277836  159.08500671    4.90999985    2.57999992
   15.93611145  159.52900696    4.63999987    2.61999989
   15.93944454  163.48899841    4.40999985    2.59999990
   15.94250011  159.44799805    4.36999989    2.61999989
   15.94583321  164.13299561    4.21999979    2.61999989
   15.95166683  164.13299561    4.01999998    2.64000010
   15.95583344  154.07600403    4.05999994    2.64000010
   15.95916653  156.27499390    4.28999996    2.61999989
   15.96222210  151.63600159    4.30999994    2.61999989
   15.96555519  153.12600708    4.48999977    2.59999990
   15.96888828  148.22900391    4.38999987    2.59999990
   15.97194386  150.97200012    4.32999992    2.61999989
   15.97527695  159.62199402    4.40999985    2.61999989
   15.97861099  156.44099426    4.63999987    2.59999990
   15.98166656  154.97799683    4.84999990    2.61999989
   15.98444462  152.47799683    4.90999985    2.61999989
   15.98527813  151.51199341    4.90999985    2.61999989
   15.98833370  156.30400085    4.90999985    2.59999990
   15.99472237  156.30400085    4.90999985    2.55999994
   15.99861145  133.46400452    4.90999985    2.59999990
   16.00194359  141.98699951    4.71999979    2.59999990
   16.00527763  150.88699341    4.34999990    2.61999989
   16.00833321  148.50999451    4.28999996    2.59999990
   16.01166725  146.58500671    4.40999985    2.59999990
   16.01499939  153.61900330    4.44999981    2.57999992
   16.01777840  154.63999939    4.55999994    2.55999994
   16.01861000  151.29100037    4.55999994    2.59999990
   16.02194405  147.80099487    4.42999983    2.59999990
   16.02499962  151.96000671    4.44999981    2.59999990
   16.02833366  156.00300598    4.55999994    2.59999990
   16.03166580  155.58599854    4.59999990    2.61999989
   16.03750038  155.58599854    4.42999983    2.61999989
   16.04166603  156.29800415    4.40999985    2.61999989
   16.04472160  156.58399963    4.46999979    2.61999989
   16.04805565  153.13200378    4.44999981    2.61999989
   16.05111122  155.64300537    4.53000021    2.61999989
   16.05166626  155.03300476    4.53000021    2.61999989
   16.05472183  150.07899475    4.53999996    2.59999990
   16.05805397  148.18499756    4.40999985    2.61999989
   16.06138802  156.34899902    4.65999985    2.59999990
   16.06444359  154.68600464    4.90999985    2.59999990
   16.06777954  151.71200562    4.90999985    2.57999992
   16.07111168  154.69299316    4.90999985    2.57999992
   16.07416725  150.92799377    4.90999985    2.55999994
   16.08027840  150.92799377    4.73999977    2.59999990
   16.08444595  151.81100464    4.36999989    2.59999990
   16.08500099  146.18200684    4.36999989    2.59999990
   16.08805656  146.85099792    4.23999977    2.59999990
   16.09138870  149.01300049    4.26999998    2.61999989
   16.09472275  156.97099304    4.03999996    2.59999990
   16.09777832  136.17300415    3.64000010    2.61999989
   16.10111237  144.19000244    3.55999994    2.61999989
   16.10444450  139.08700562    3.26999998    2.64000010
   16.10750008  142.52999878    2.91000009    2.64000010
   16.11083412  146.18699646    2.59999990    2.66000009
   16.11416626  149.48300171    2.46000004    2.66000009
   16.11722183  147.62800598    2.39000010    2.64000010
   16.11777878  149.42199707    2.34999990    2.66000009
   16.12305641  149.42199707    2.05999994    2.66000009
   16.12722206  153.26699829    1.91999996    2.66000009
   16.13055611  143.37899780    1.86000001    2.64000010
   16.13361168  144.12800598    1.88000000    2.66000009
   16.13694382  143.19599915    1.86000001    2.66000009
   16.14027786  146.33500671    1.88000000    2.66000009
   16.14333344  154.22200012    1.88000000    2.64000010
   16.14666748  151.55400085    1.86000001    2.66000009
   16.14999962  136.50999451    1.86000001    2.66000009
   16.15111160  142.59500122    1.86000001    2.66000009
   16.15361023  142.93699646    1.83000004    2.66000009
   16.15694427  148.81900024    1.86000001    2.66000009
   16.15999985  134.17399597    1.91999996    2.66000009
   16.16611099  134.17399597    2.01999998    2.66000009
   16.17000008  145.14799500    2.05999994    2.64000010
   16.17333221  146.29499817    2.00000000    2.64000010
   16.17666626  137.97500610    1.98000002    2.66000009
   16.17972183  150.86399841    1.94000006    2.66000009
   16.18305397  143.12699890    1.91999996    2.66000009
   16.18444443  141.35200500    1.91999996    2.66000009
   16.18666649  139.93299866    1.85000002    2.66000009
   16.18999863  147.39599609    1.80999994    2.66000009
   16.19305420  141.31399536    1.80999994    2.66000009
   16.19638824  139.48399353    1.80999994    2.66000009
   16.19944382  150.23599243    1.86000001    2.64000010
   16.20277786  129.11799622    1.91999996    2.64000010
   16.20888901  129.11799622    1.91999996    2.66000009
   16.21305656  145.05000305    1.88000000    2.66000009
   16.21611214  142.22000122    1.85000002    2.67000008
   16.21777916  145.22799683    1.85000002    2.67000008
   16.21972275  148.66400146    1.86000001    2.66000009
   16.22305679  134.08299255    1.85000002    2.66000009
   16.22611237  142.52900696    1.88000000    2.66000009
   16.22944450  146.49899292    2.07999992    2.66000009
   16.23250008  147.88699341    2.09999990    2.66000009
   16.23583412  144.01899719    2.07999992    2.66000009
   16.23916626  145.56799316    2.07999992    2.66000009
   16.24222183  147.34199524    2.01999998    2.64000010
   16.24555588  145.59100342    1.98000002    2.66000009
   16.25166702  145.59100342    2.00000000    2.66000009
   16.25583267  146.24200439    2.01999998    2.66000009
   16.25916672  138.15199280    1.88000000    2.66000009
   16.26222229  154.11700439    1.83000004    2.66000009
   16.26555634  143.54899597    1.83000004    2.66000009
   16.26888847  143.00199890    1.85000002    2.66000009
   16.27194405  148.40699768    1.85000002    2.66000009
   16.27527809  146.11399841    1.98000002    2.64000010
   16.27861023  146.56500244    2.48000002    2.66000009
   16.28166580  150.17500305    2.64000010    2.66000009
   16.28444481  145.13699341    2.78999996    2.66000009
   16.28527641  146.95599365    2.78999996    2.66000009
   16.28861046  139.41099548    2.69000006    2.66000009
   16.29444313  139.41099548    2.53999996    2.64000010
   16.29861069  140.71800232    2.23000002    2.66000009
   16.30194283  148.14900208    2.01999998    2.64000010
   16.30499840  153.10000610    1.80999994    2.64000010
   16.30833244  140.52000427    1.75000000    2.66000009
   16.31166649  145.91900635    1.64999998    2.66000009
   16.31472206  143.95100403    1.64999998    2.66000009
   16.31777954  145.22500610    1.64999998    2.67000008
   16.31833458  143.54100037    1.64999998    2.67000008
   16.32166672  145.44700623    1.64999998    2.66000009
   16.32472229  149.83000183    1.64999998    2.66000009
   16.32805634  147.71899414    1.66999996    2.66000009
   16.33111191  142.11799622    1.66999996    2.66000009
   16.33750153  142.11799622    1.66999996    2.66000009
   16.34138870  148.16600037    1.69000006    2.66000009
   16.34472275  143.33099365    1.71000004    2.66000009
   16.34805679  147.22300720    1.76999998    2.67000008
   16.35111237  161.04800415    1.73000002    2.66000009
   16.35166740  145.43200684    1.73000002    2.66000009
   16.35499954  152.83399963    1.66999996    2.67000008
   16.35805511  149.59899902    1.63000000    2.67000008
   16.36138916  148.17700195    1.61000001    2.67000008
   16.36472321  142.09100342    1.61000001    2.67000008
   16.36777878  143.22200012    1.61000001    2.67000008
   16.37111092  140.69599915    1.60000002    2.67000008
   16.37416649  154.27799988    1.60000002    2.67000008
   16.38027763  154.27799988    1.60000002    2.66000009
   16.38444519  152.28399658    1.60000002    2.66000009
   16.38500023  143.78799438    1.60000002    2.66000009
   16.38805580  148.34599304    1.60000002    2.66000009
   16.39138794  149.50399780    1.60000002    2.66000009
   16.39472198  142.47500610    1.60000002    2.66000009
   16.39777756  141.56399536    1.61000001    2.67000008
   16.40111160  153.99200439    1.64999998    2.66000009
   16.40416718  144.82899475    1.66999996    2.66000009
   16.40749931  146.65299988    1.64999998    2.67000008
   16.41083336  144.38699341    1.63000000    2.66000009
   16.41388893  151.71899414    1.64999998    2.66000009
   16.41722107  157.87600708    1.64999998    2.66000009
   16.41833305  152.90100098    1.63000000    2.67000008
   16.42305565  152.90100098    1.63000000    2.66000009
   16.42722130  148.14399719    1.63000000    2.66000009
   16.43055534  149.21200562    1.63000000    2.67000008
   16.43361092  148.81500244    1.63000000    2.67000008
   16.43694305  145.31700134    1.66999996    2.67000008
   16.44027710  143.29100037    1.66999996    2.67000008
   16.44333267  141.37100220    1.66999996    2.67000008
   16.44666672  143.09100342    1.66999996    2.67000008
   16.45000076  145.35099792    1.66999996    2.66000009
   16.45166779  150.96000671    1.66999996    2.67000008
   16.45333481  143.29800415    1.66999996    2.67000008
   16.45666695  152.92500305    1.71000004    2.67000008
   16.46000099  135.79499817    1.75000000    2.66000009
   16.46583366  135.79499817    1.83000004    2.66000009
   16.47000122  154.77400208    1.83000004    2.66000009
   16.47333336  143.03999329    1.83000004    2.67000008
   16.47638893  141.69700623    1.83000004    2.67000008
   16.47972298  151.74800110    1.76999998    2.67000008
   16.48305511  153.76600647    1.78999996    2.67000008
   16.48500061  141.05000305    1.78999996    2.67000008
   16.48666763  144.46899414    1.78999996    2.67000008
   16.48999977  150.90100098    1.78999996    2.67000008
   16.49333382  155.04200745    1.76999998    2.66000009
   16.49638939  155.06700134    1.73000002    2.67000008
   16.49972153  144.84700012    1.69000006    2.66000009
   16.50277710  145.48899841    1.69000006    2.66000009
   16.50888824  145.48899841    1.69000006    2.67000008
   16.51277733  151.05400085    1.64999998    2.67000008
   16.51611137  135.77200317    1.63000000    2.67000008
   16.51833344  151.95899963    1.63000000    2.66000009
   16.51972198  147.52400208    1.63000000    2.66000009
   16.52305603  141.35200500    1.63000000    2.66000009
   16.52638817  142.32800293    1.64999998    2.67000008
   16.52944374  154.99200439    1.64999998    2.67000008
   16.53277779  153.55900574    1.64999998    2.66000009
   16.53583336  156.25999451    1.64999998    2.67000008
   16.53916550  150.82099915    1.69000006    2.66000009
   16.54249954  145.42500305    1.73000002    2.66000009
   16.54555511  156.78100586    1.76999998    2.67000008
   16.55166626  156.78100586    1.89999998    2.66000009
   16.55583191  151.34500122    2.09999990    2.66000009
   16.55888748  150.16400146    2.17000008    2.66000009
   16.56222153  150.96000671    2.23000002    2.66000009
   16.56555557  148.78900146    2.26999998    2.64000010
   16.56861115  158.73399353    2.15000010    2.66000009
   16.57194519  156.92399597    2.05999994    2.66000009
   16.57500076  150.55499268    2.05999994    2.64000010
   16.57833481  152.25700378    2.11999989    2.64000010
   16.58166695  143.69999695    2.09999990    2.66000009
   16.58472252  142.66200256    2.09999990    2.64000010
   16.58527756  152.86999512    2.09999990    2.66000009
   16.58861160  147.27799988    2.07999992    2.64000010
   16.59444427  147.27799988    2.32999992    2.64000010
   16.59861183  152.69500732    2.42000008    2.66000009
   16.60194397  151.97799683    2.55999994    2.64000010
   16.60499954  145.97000122    2.50000000    2.66000009
   16.60833359  145.71099854    2.51999998    2.66000009
   16.61138916  148.19500732    2.46000004    2.66000009
   16.61472321  153.14900208    2.46000004    2.66000009
   16.61805534  150.72900391    2.44000006    2.67000008
   16.61861038  155.98500061    2.36999989    2.66000009
   16.62166595  152.22200012    2.07999992    2.66000009
   16.62500000  155.40899658    2.00000000    2.66000009
   16.62805557  156.76199341    2.07999992    2.67000008
   16.63138962  142.16600037    2.13000011    2.66000009
   16.63722229  142.16600037    1.96000004    2.66000009
   16.64138794  140.48300171    1.76999998    2.67000008
   16.64472198  148.65800476    1.69000006    2.66000009
   16.64777756  146.13200378    1.66999996    2.67000008
   16.65111160  149.30400085    1.64999998    2.67000008
   16.65194321  150.76699829    1.63000000    2.67000008
   16.65472221  146.92500305    1.60000002    2.66000009
   16.65805435  157.49400330    1.60000002    2.67000008
   16.66110992  145.73100281    1.60000002    2.67000008
   16.66444397  146.73800659    1.58000004    2.67000008
   16.66749954  156.36300659    1.55999994    2.67000008
   16.67083359  143.44299316    1.55999994    2.66000009
   16.67416573  141.60899353    1.53999996    2.66000009
   16.68027687  141.60899353    1.53999996    2.67000008
   16.68416595  145.72599792    1.55999994    2.67000008
   16.68527603  146.86999512    1.55999994    2.67000008
   16.68805504  147.56399536    1.51999998    2.67000008
   16.69138718  154.25999451    1.51999998    2.67000008
   16.69444275  146.78300476    1.51999998    2.67000008
   16.69777679  142.78599548    1.51999998    2.66000009
   16.70083427  147.64900208    1.51999998    2.67000008
   16.70416832  135.44799805    1.51999998    2.67000008
   16.70750046  156.06599426    1.51999998    2.67000008
   16.71055603  141.22599792    1.51999998    2.66000009
   16.71389008  152.47500610    1.51999998    2.67000008
   16.71722221  155.37300110    1.51999998    2.67000008
   16.71861076  149.16000366    1.51999998    2.67000008
   16.72305679  149.16000366    1.53999996    2.66000009
   16.72722244  148.53999329    1.53999996    2.64000010
   16.73027802  148.71400452    1.53999996    2.64000010
   16.73361206  149.44999695    1.55999994    2.67000008
   16.73694420  142.39100647    1.55999994    2.67000008
   16.73999977  141.66999817    1.55999994    2.66000009
   16.74361229  152.84300232    1.53999996    2.67000008
   16.74694443  143.66099548    1.53999996    2.66000009
   16.75027847  147.53500366    1.53999996    2.67000008
   16.75194359  145.12300110    1.53999996    2.67000008
   16.75388908  145.88000488    1.51999998    2.67000008
   16.75722313  139.79400635    1.51999998    2.67000008
   16.76027870  141.24099731    1.51999998    2.66000009
   16.76583290  141.24099731    1.51999998    2.66000009
   16.77000046  146.93099976    1.51999998    2.67000008
   16.77333260  144.81500244    1.51999998    2.67000008
   16.77638817  144.52299500    1.51999998    2.67000008
   16.77972221  147.08700562    1.51999998    2.67000008
   16.78305435  144.52900696    1.51999998    2.67000008
   16.78527641  151.38299561    1.51999998    2.66000009
   16.78666687  150.31100464    1.51999998    2.66000009
   16.78999901  147.65400696    1.51999998    2.66000009
   16.79305458  151.37300110    1.50000000    2.67000008
   16.79638863  153.62699890    1.50000000    2.67000008
   16.79972076  148.33799744    1.50000000    2.67000008
   16.80277634  139.96600342    1.50000000    2.67000008
   16.80861092  139.96600342    1.48000002    2.67000008
   16.81277657  148.02400208    1.48000002    2.67000008
   16.81611061  146.85699463    1.48000002    2.67000008
   16.81861115  139.82099915    1.48000002    2.67000008
   16.81972313  148.39799500    1.48000002    2.67000008
   16.82305717  154.63000488    1.48000002    2.67000008
   16.82611275  139.88099670    1.46000004    2.67000008
   16.82944489  149.89100647    1.46000004    2.67000008
   16.83250046  148.37800598    1.46000004    2.67000008
   16.83583450  155.30999756    1.46000004    2.67000008
   16.83916664  147.07499695    1.46000004    2.67000008
   16.84222221  158.10200500    1.46000004    2.66000009
   16.84555626  151.81399536    1.46000004    2.67000008
   16.85166740  151.81399536    1.46000004    2.66000009
   16.87000084  149.05700684    1.46000004    2.66000009
   16.87305641  147.11000061    1.46000004    2.66000009
   16.87638855  139.73500061    1.46000004    2.67000008
   16.87972260  157.47399902    1.46000004    2.67000008
   16.88277817  153.18899536    1.46000004    2.67000008
   16.88611031  133.92500305    1.46000004    2.67000008
   16.88944435  136.69900513    1.46000004    2.67000008
   16.89472198  136.69900513    1.50000000    2.67000008
   16.89888954  146.30200195    1.50000000    2.66000009
   16.90194321  146.90299988    1.50000000    2.67000008
   16.90305519  142.03500366    1.50000000    2.67000008
   16.90555573  152.08700562    1.48000002    2.67000008
   16.90888786  148.42900085    1.48000002    2.67000008
   16.91222191  146.21800232    1.48000002    2.67000008
   16.91527748  144.97700500    1.48000002    2.67000008
   16.91860962  147.84599304    1.48000002    2.67000008
   16.92194366  150.71000671    1.48000002    2.67000008
   16.92499924  146.25700378    1.50000000    2.67000008
   16.92833328  152.01300049    1.51999998    2.67000008
   16.93138885  153.57499695    1.51999998    2.66000009
   16.93750000  153.57499695    1.50000000    2.66000009
   16.94166565  159.77000427    1.50000000    2.67000008
   16.94499969  155.47799683    1.53999996    2.67000008
   16.94805527  150.14300537    1.55999994    2.66000009
   16.95138931  158.21800232    1.55999994    2.66000009
   16.95472336  146.66799927    1.55999994    2.67000008
   16.95777893  159.99400330    1.55999994    2.67000008
   16.96111107  161.54200745    1.55999994    2.67000008
   16.96416664  151.64500427    1.55999994    2.66000009
   16.96750069  157.62500000    1.55999994    2.67000008
   16.96972275  151.88600159    1.55999994    2.66000009
   16.97111130  147.10699463    1.55999994    2.66000009
   16.97444534  155.99499512    1.55999994    2.67000008
   16.98027802  155.99499512    1.55999994    2.67000008
   16.98444557  168.71200562    1.55999994    2.66000009
   16.98777771  158.05200195    1.55999994    2.66000009
   16.99083328  157.01600647    1.55999994    2.66000009
   16.99416733  158.27900696    1.58000004    2.67000008
   16.99749947  148.18099976    1.55999994    2.67000008
   17.00055504  161.11700439    1.55999994    2.66000009
   17.00305557  157.93699646    1.55999994    2.66000009
   17.00416756  158.13600159    1.55999994    2.66000009
   17.00749969  155.50900269    1.53999996    2.66000009
   17.01083374  154.92500305    1.53999996    2.66000009
   17.01388931  150.59899902    1.53999996    2.67000008
   17.01722145  161.28300476    1.53999996    2.67000008
   17.02305603  161.28300476    1.46000004    2.67000008
   17.02722168  155.87699890    1.44000006    2.67000008
   17.03055573  156.45199585    1.44000006    2.67000008
   17.03388786  150.24400330    1.44000006    2.67000008
   17.03638840  149.29200745    1.44000006    2.67000008
   17.03722191  142.64199829    1.44000006    2.67000008
   17.04055595  137.62100220    1.44000006    2.67000008
   17.04388809  150.90499878    1.46000004    2.67000008
   17.04694366  145.13699341    1.46000004    2.67000008
   17.05027771  148.28500366    1.46000004    2.67000008
   17.05360985  144.35899353    1.46000004    2.67000008
   17.05666542  149.14599609    1.46000004    2.67000008
   17.05999947  155.67199707    1.46000004    2.67000008
   17.06611061  155.67199707    1.46000004    2.67000008
   17.07000160  141.31799316    1.46000004    2.67000008
   17.07333374  143.75500488    1.46000004    2.66000009
   17.07666779  148.47900391    1.44000006    2.67000008
   17.07972336  148.19500732    1.44000006    2.67000008
   17.08305550  143.46699524    1.41999996    2.67000008
   17.08638954  152.15600586    1.41999996    2.67000008
   17.08944511  160.61599731    1.39999998    2.67000008
   17.09277916  138.79200745    1.39999998    2.67000008
   17.09611130  144.82899475    1.39999998    2.67000008
   17.09916687  156.66099548    1.44000006    2.67000008
   17.10250092  158.82800293    1.44000006    2.67000008
   17.10305595  145.64700317    1.44000006    2.67000008
   17.10888863  145.64700317    1.41999996    2.67000008
   17.11305618  150.26899719    1.44000006    2.67000008
   17.11611176  150.83700562    1.46000004    2.67000008
   17.11944389  138.45300293    1.48000002    2.67000008
   17.12277794  157.14999390    1.46000004    2.67000008
   17.12583351  145.68299866    1.48000002    2.67000008
   17.12916756  152.12899780    1.48000002    2.67000008
   17.13249969  144.95500183    1.50000000    2.67000008
   17.13555527  154.58200073    1.51999998    2.67000008
   17.13638878  142.96800232    1.51999998    2.67000008
   17.13944435  147.66999817    1.51999998    2.67000008
   17.14249992  149.33900452    1.51999998    2.67000008
   17.14583397  156.51499939    1.51999998    2.67000008
   17.15166664  156.51499939    1.51999998    2.67000008
   17.15583229  150.09500122    1.51999998    2.67000008
   17.15916634  149.29100037    1.51999998    2.66000009
   17.16222191  145.01199341    1.51999998    2.66000009
   17.16555595  148.05499268    1.50000000    2.67000008
   17.16860962  150.43800354    1.50000000    2.67000008
   17.17000008  153.61599731    1.51999998    2.67000008
   17.17277718  146.31300354    1.51999998    2.67000008
   17.17583275  131.25000000    1.53999996    2.67000008
   17.17916679  155.72000122    1.53999996    2.66000009
   17.18249893  159.21200562    1.53999996    2.66000009
   17.18555450  153.69700623    1.55999994    2.67000008
   17.18888855  159.24499512    1.58000004    2.67000008
   17.19444275  159.24499512    1.58000004    2.67000008
   17.19861031  156.72900391    1.58000004    2.66000009
   17.20194435  148.77699280    1.58000004    2.66000009
   17.20305634  156.54299927    1.58000004    2.66000009
   17.20555687  154.50100708    1.58000004    2.66000009
   17.20861244  151.97900391    1.58000004    2.66000009
   17.21194458  157.20399475    1.55999994    2.67000008
   17.21500015  147.06100464    1.53999996    2.66000009
   17.21833420  144.88299561    1.55999994    2.66000009
   17.22166634  156.28399658    1.55999994    2.67000008
   17.22472191  139.78900146    1.53999996    2.67000008
   17.22805595  151.27900696    4.90999985    2.80999994
   17.23111153  152.23500061    0.15000001    0.31999999
   17.23750114  152.23500061    0.07000000    0.01000000
   17.24138832  146.27299500    0.07000000    0.01000000
   17.24472237  145.20500183    0.07000000    0.01000000
   17.24805641  145.97200012    0.07000000    0.01000000
   17.25111198  141.22200012    0.07000000    0.01000000
   17.25444412  146.41700745    0.07000000    0.01000000
   17.25777817  149.19700623    0.07000000    0.01000000
   17.26083374  154.47300720    0.07000000    0.01000000
   17.26416588  138.41600037    0.07000000    0.01000000
   17.26722145  156.13000488    0.07000000    0.01000000
   17.26972198  154.65899658    0.07000000    0.01000000
   17.27083397  153.29699707    0.07000000    0.01000000
   17.27416611  141.52200317    0.07000000    0.01000000
   17.28027725  141.52200317    0.07000000    0.01000000
   17.28444481  137.92399597    0.07000000    0.01000000
   17.28750038  147.77200317    0.07000000    0.01000000
   17.29083252  148.24699402    0.07000000    0.01000000
   17.29416656  140.86300659    0.07000000    0.01000000
   17.29722214  151.65199280    0.07000000    0.01000000
   17.30055428  150.63299561    0.07000000    0.01000000
   17.30305481  154.38400269    0.07000000    0.01000000
   17.30416679  155.53999329    0.07000000    0.01000000
   17.30722237  144.57699585    0.07000000    0.01000000
   17.31055450  148.00500488    0.07000000    0.01000000
   17.31361008  151.19700623    0.07000000    0.01000000
   17.31694603  149.74800110    0.07000000    0.01000000
   17.32305717  149.74800110    0.07000000    0.01000000
   17.32722282  144.69099426    0.07000000    0.01000000
   17.33055687  152.52900696    0.07000000    0.01000000
   17.33361244  154.27799988    0.07000000    0.01000000
   17.33638954  155.18899536    0.07000000    0.01000000
   17.33750153  151.45599365    0.07000000    0.01000000
   17.34055710  147.47500610    0.07000000    0.01000000
   17.34388924  159.57499695    0.07000000    0.01000000
   17.34694481  147.57699585    0.07000000    0.01000000
   17.35027885  138.11300659    0.07000000    0.01000000
   17.35361099  147.06799316    0.07000000    0.01000000
   17.35666656  144.57000732    0.07000000    0.01000000
   17.36000061  145.84199524    0.07000000    0.01000000
   17.36583328  145.84199524    0.07000000    0.01000000
   17.37000084  147.63800049    0.07000000    0.01000000
   17.37333298  146.67700195    0.07000000    0.01000000
   17.37666702  139.83999634    0.07000000    0.01000000
   17.37972260  152.76699829    0.07000000    0.01000000
   17.38305473  154.56399536    0.07000000    0.01000000
   17.38611031  155.29899597    0.07000000    0.01000000
   17.38944435  152.62800598    0.07000000    0.01000000
   17.39277840  146.14199829    0.07000000    0.01000000
   17.39583397  151.29699707    0.07000000    0.01000000
   17.39916611  151.00300598    0.07000000    0.01000000
   17.40250015  158.96699524    0.07000000    0.01000000
   17.40305519  148.37199402    0.07000000    0.01000000
   17.40888786  148.37199402    0.07000000    0.01000000
   17.41277695  195.45700073    0.07000000    0.01000000
   17.41611099  187.44799805    0.07000000    0.01000000
   17.41944313  201.51300049    0.07000000    0.01000000
   17.42249870  191.92999268    0.07000000    0.01000000
   17.42583275  186.20599365    0.07000000    0.01000000
   17.42916679  181.13699341    0.07000000    0.01000000
   17.43222237  146.42799377    0.07000000    0.01000000
   17.43555450  164.16999817    0.07000000    0.01000000
   17.43638802  147.35600281    0.07000000    0.01000000
   17.43916512  158.82899475    0.07000000    0.01000000
   17.44222069  148.13699341    0.07000000    0.01000000
   17.44555473  155.74000549    0.07000000    0.01000000
   17.45166779  155.74000549    0.07000000    0.01000000
   17.45583344  142.22500610    0.07000000    0.01000000
   17.45888901  154.86999512    0.07000000    0.01000000
   17.46222305  153.99800110    0.07000000    0.01000000
   17.46555710  149.98899841    0.07000000    0.01000000
   17.46861076  155.97399902    0.07000000    0.01000000
   17.46972275  158.72999573    0.07000000    0.01000000
   17.47249985  162.86700439    0.07000000    0.01000000
   17.47555542  150.04400635    0.07000000    0.01000000
   17.47888947  156.52600098    0.07000000    0.01000000
   17.48194504  154.27799988    0.07000000    0.01000000
   17.48527718  150.30900574    0.07000000    0.01000000
   17.48861122  153.96800232    0.07000000    0.01000000
   17.49444389  153.96800232    0.07000000    0.01000000
   17.49861145  151.17900085    0.07000000    0.01000000
   17.50194359  157.35600281    0.07000000    0.01000000
   17.50305557  144.26899719    0.07000000    0.01000000
   17.50555611  152.69700623    0.07000000    0.01000000
   17.50861168  160.75399780    0.07000000    0.01000000
   17.51194382  155.89300537    0.07000000    0.01000000
   17.51499939  149.83399963    0.07000000    0.01000000
   17.51833344  163.22099304    0.07000000    0.01000000
   17.52166557  152.92199707    0.07000000    0.01000000
   17.52472115  147.72000122    0.07000000    0.01000000
   17.52805519  148.24499512    0.07000000    0.01000000
   17.53138924  147.28799438    0.07000000    0.01000000
   17.53722191  147.28799438    0.07000000    0.01000000
   17.54138756  156.27299500    0.07000000    0.01000000
   17.54472160  158.05999756    0.07000000    0.01000000
   17.54777718  156.15199280    0.07000000    0.01000000
   17.55111122  151.72799683    0.07000000    0.01000000
   17.55444336  152.60200500    0.07000000    0.01000000
   17.55749893  153.57099915    0.07000000    0.01000000
   17.56083298  156.84300232    0.07000000    0.01000000
   17.56416512  147.66200256    0.07000000    0.01000000
   17.56722260  154.31599426    0.07000000    0.01000000
   17.56972313  155.08399963    0.07000000    0.01000000
   17.57111168  155.38200378    0.07000000    0.01000000
   17.57416725  158.67999268    0.07000000    0.01000000
   17.58027840  158.67999268    0.07000000    0.01000000
   17.58416748  158.82499695    0.07000000    0.01000000
   17.58750153  171.67399597    0.07000000    0.01000000
   17.59083366  175.32000732    0.07000000    0.01000000
   17.59388924  156.21699524    0.07000000    0.01000000
   17.59722328  156.50999451    0.07000000    0.01000000
   17.60055542  166.68200684    0.07000000    0.01000000
   17.60305595  185.74600220    0.07000000    0.01000000
   17.60416794  180.01100159    0.07000000    0.01000000
   17.60722351  173.86900330    0.07000000    0.01000000
   17.61055565  166.75199890    0.07000000    0.01000000
   17.61388969  176.57800293    0.07000000    0.01000000
   17.61694527  160.64799500    0.07000000    0.01000000
   17.62305641  160.64799500    0.07000000    0.01000000
