    HOUR (UT)   FLARE FACTOR    SKY TESTER    SUN TESTER
   11.10777855   -1.00000000   -1.00000000   -1.00000000
   11.23611164  168.10400391    0.13000000    0.09000000
   11.23944473  162.64100647    0.15000001    0.09000000
   11.24277782  181.25399780    0.13000000    0.09000000
   11.24583340  176.74000549    0.13000000    0.09000000
   11.24916649  162.65499878    0.13000000    0.09000000
   11.25249958  170.63900757    0.13000000    0.09000000
   11.25638866  170.63900757    3.46000004    2.44000006
   11.26055527  158.83999634    1.86000001    2.44000006
   11.26388931  165.20300293    1.41999996    2.46000004
   11.26722240  159.66700745    1.30999994    2.44000006
   11.26944447  152.87899780    1.28999996    2.44000006
   11.27083302  157.22200012    1.26999998    2.44000006
   11.27416611  150.26199341    1.26999998    2.42000008
   11.27722168  163.19999695    1.26999998    2.42000008
   11.28055573  152.56100464    1.25000000    2.44000006
   11.28361130  162.84899902    1.25000000    2.44000006
   11.28694534  156.05999756    1.26999998    2.44000006
   11.29027843  149.79299927    1.26999998    2.46000004
   11.29333401  153.74800110    1.26999998    2.44000006
   11.29944515  153.74800110    1.26999998    2.46000004
   11.30361176  151.27900696    1.26999998    2.44000006
   11.30666733  150.95700073    1.26999998    2.44000006
   11.31000042  152.05000305    1.26999998    2.46000004
   11.31305599  157.32699585    1.26999998    2.44000006
   11.31638908  159.25100708    1.26999998    2.44000006
   11.31972218  164.08900452    1.28999996    2.44000006
   11.32277775  164.10099792    1.28999996    2.46000004
   11.32611084  151.13800049    1.28999996    2.46000004
   11.32944393  161.39700317    1.26999998    2.46000004
   11.33249950  153.97200012    1.26999998    2.46000004
   11.33583260  163.76300049    1.26999998    2.46000004
   11.33638859  157.34899902    1.26999998    2.46000004
   11.34222221  157.34899902    1.28999996    2.46000004
   11.34638882  163.30400085    1.30999994    2.46000004
   11.34944439  158.82600403    1.28999996    2.46000004
   11.35277843  150.93299866    1.30999994    2.46000004
   11.35611153  157.71099854    1.28999996    2.46000004
   11.35916710  156.28100586    1.28999996    2.46000004
   11.36250019  157.43400574    1.30999994    2.46000004
   11.36555576  157.32400513    1.28999996    2.46000004
   11.36888885  148.94500732    1.28999996    2.46000004
   11.36972237  149.40400696    1.28999996    2.46000004
   11.37250042  147.52099609    1.26999998    2.48000002
   11.37583351  148.58700562    1.28999996    2.48000002
   11.37916660  141.26199341    1.28999996    2.48000002
   11.38500023  141.26199341    1.26999998    2.48000002
   11.38916683  142.87899780    1.26999998    2.46000004
   11.39249992  143.02600098    1.26999998    2.46000004
   11.39555550  155.97999573    1.26999998    2.46000004
   11.39888859  153.08299255    1.26999998    2.46000004
   11.40222168  158.27499390    1.25000000    2.48000002
   11.40305519  157.22999573    1.25000000    2.48000002
   11.40583324  150.08500671    1.25000000    2.48000002
   11.40888882  154.68499756    1.25000000    2.48000002
   11.41222191  150.38499451    1.25000000    2.48000002
   11.41527748  154.46699524    1.25000000    2.48000002
   11.41861153  150.97999573    1.25000000    2.48000002
   11.42194462  149.53799438    1.25000000    2.48000002
   11.42777824  149.53799438    1.25000000    2.48000002
   11.43194485  149.36399841    1.25000000    2.48000002
   11.43527794  142.96699524    1.25000000    2.48000002
   11.43638897  150.42599487    1.25000000    2.48000002
   11.43861103  147.73899841    1.26999998    2.48000002
   11.44194412  157.19900513    1.25000000    2.48000002
   11.44527817  148.47200012    1.25000000    2.48000002
   11.44833374  142.75900269    1.25000000    2.48000002
   11.45166683  150.27400208    1.25000000    2.48000002
   11.45472240  142.13099670    1.25000000    2.48000002
   11.45805550  144.77200317    1.25000000    2.48000002
   11.46138859  152.95199585    1.25000000    2.50000000
   11.46444416  151.82600403    1.26999998    2.48000002
   11.47083282  151.82600403    1.26999998    2.50000000
   11.47499943  154.71000671    1.26999998    2.50000000
   11.47805500  149.61700439    1.26999998    2.50000000
   11.48138809  146.30299377    1.25000000    2.48000002
   11.48472214  143.50599670    1.25000000    2.50000000
   11.48777771  145.74600220    1.25000000    2.50000000
   11.49111176  151.78700256    1.25000000    2.50000000
   11.49416733  149.22300720    1.25000000    2.50000000
   11.49750042  143.14199829    1.25000000    2.50000000
   11.50083351  145.32800293    1.25000000    2.50000000
   11.50305557  143.59300232    1.25000000    2.50000000
   11.50416660  142.60499573    1.25000000    2.50000000
   11.50749969  144.53199768    1.25000000    2.50000000
   11.51361084  144.53199768    1.28999996    2.51999998
   11.51777744  148.96600342    1.28999996    2.50000000
   11.52083302  139.08900452    1.26999998    2.51999998
   11.52416611  147.19099426    1.26999998    2.51999998
   11.52722168  150.26600647    1.28999996    2.50000000
   11.53055573  142.77799988    1.28999996    2.50000000
   11.53388977  152.70100403    1.28999996    2.51999998
   11.53638935  147.16499329    1.28999996    2.51999998
   11.53722286  143.14900208    1.28999996    2.51999998
   11.54055595  141.83299255    1.26999998    2.50000000
   11.54388905  139.80400085    1.26999998    2.50000000
   11.54694462  141.28599548    1.26999998    2.50000000
   11.55027771  139.76800537    1.30999994    2.51999998
   11.55638885  139.76800537    1.28999996    2.51999998
   11.56055546  155.48599243    1.28999996    2.51999998
   11.56361103  147.55000305    1.26999998    2.50000000
   11.56694412  153.71600342    1.26999998    2.51999998
   11.56972218  150.80700684    1.26999998    2.51999998
   11.57083321  151.66299438    1.26999998    2.51999998
   11.57388878  146.38200378    1.25000000    2.51999998
   11.57722187  152.77400208    1.25000000    2.51999998
   11.58027744  144.41499329    1.25000000    2.51999998
   11.58361053  142.08799744    1.25000000    2.51999998
   11.58694458  138.77600098    1.25000000    2.51999998
   11.59000015  142.70100403    1.25000000    2.51999998
   11.59333324  147.75300598    1.25000000    2.51999998
   11.59916592  147.75300598    1.25000000    2.51999998
   11.60333347  141.08700562    1.23000002    2.51999998
   11.60666752  144.54699707    1.21000004    2.53999996
   11.60972214  142.32299805    1.21000004    2.51999998
   11.61305618  148.70100403    1.21000004    2.51999998
   11.61638927  144.06599426    1.19000006    2.53999996
   11.61944485  131.77299500    1.21000004    2.53999996
   11.62277794  148.30599976    1.21000004    2.53999996
   11.62611103  146.32099915    1.21000004    2.53999996
   11.62916660  145.36199951    1.21000004    2.53999996
   11.63249969  136.66499329    1.21000004    2.53999996
   11.63555527  146.28300476    1.21000004    2.53999996
   11.63638878  142.52699280    1.21000004    2.53999996
   11.64222240  142.52699280    1.19000006    2.53999996
   11.64611053  141.42900085    1.19000006    2.53999996
   11.64944458  143.75199890    1.19000006    2.53999996
   11.65277767  137.70300293    1.16999996    2.53999996
   11.65583324  135.98800659    1.16999996    2.55999994
   11.65916634  138.94700623    1.14999998    2.55999994
   11.66222191  134.49400330    1.14999998    2.55999994
   11.66555500  138.05900574    1.14999998    2.55999994
   11.66888905  138.71400452    1.14999998    2.53999996
   11.66972256  137.41700745    1.14999998    2.53999996
   11.67250061  137.78700256    1.13000000    2.53999996
   11.67555618  128.43800354    1.14999998    2.55999994
   11.67888927  136.47399902    1.14999998    2.53999996
   11.68500042  136.47399902    1.13000000    2.55999994
   11.68916702  133.22200012    1.13000000    2.53999996
   11.69222260  138.26800537    1.13000000    2.55999994
   11.69555569  141.07400513    1.13000000    2.55999994
   11.69861126  139.85400391    1.13000000    2.55999994
   11.70194435  145.47999573    1.11000001    2.55999994
   11.70305538  137.77400208    1.11000001    2.55999994
   11.70583344  141.04400635    1.11000001    2.55999994
   11.70888901  142.68400574    1.11000001    2.55999994
   11.71222210  145.28599548    1.09000003    2.55999994
   11.71527767  147.69900513    1.09000003    2.55999994
   11.71861076  139.72599792    1.09000003    2.55999994
   11.72194386  135.84800720    1.09000003    2.55999994
   11.72777748  135.84800720    1.07000005    2.55999994
   11.73194408  149.58700562    1.05999994    2.57999992
   11.73527813  141.74400330    1.05999994    2.55999994
   11.73638916  137.96600342    1.05999994    2.55999994
   11.73888874  133.46899414    1.05999994    2.55999994
   11.74194431  137.18600464    1.05999994    2.57999992
   11.74555588  135.56199646    1.05999994    2.57999992
   11.74888897  141.71299744    1.05999994    2.57999992
   11.75222206  136.08200073    1.05999994    2.57999992
   11.75527763  136.05599976    1.05999994    2.57999992
   11.75861073  137.84100342    1.05999994    2.57999992
   11.76166630  135.64799500    1.03999996    2.57999992
   11.76500034  130.48300171    1.03999996    2.57999992
   11.77055550  130.48300171    1.03999996    2.57999992
   11.77472210  139.31700134    1.03999996    2.57999992
   11.77805519  136.21099854    1.03999996    2.57999992
   11.78111076  144.06900024    1.03999996    2.57999992
   11.78444481  139.71699524    1.03999996    2.57999992
   11.78777790  155.52900696    1.03999996    2.57999992
   11.79083347  146.89599609    1.03999996    2.57999992
   11.79416752  143.06399536    1.03999996    2.57999992
   11.79750061  137.45300293    1.01999998    2.59999990
   11.80055618  146.49000549    1.01999998    2.59999990
   11.80305576  142.59199524    1.03999996    2.59999990
   11.80444431  144.20700073    1.03999996    2.59999990
   11.80749989  145.08099365    1.01999998    2.57999992
   11.81361103  145.08099365    1.01999998    2.59999990
   11.81777763  134.58500671    1.01999998    2.57999992
   11.82083321  137.34500122    1.03999996    2.59999990
   11.82416630  130.31799316    1.03999996    2.59999990
   11.82722187  136.02200317    1.01999998    2.59999990
   11.83055592  133.03999329    1.01999998    2.59999990
   11.83388901  131.28900146    1.03999996    2.59999990
   11.83638859  135.04299927    1.03999996    2.59999990
   11.83749962  134.28399658    1.03999996    2.59999990
   11.84055519  132.34500122    1.03999996    2.59999990
   11.84388828  146.48500061    1.03999996    2.57999992
   11.84694386  137.02299500    1.03999996    2.59999990
   11.85027790  134.38299561    1.03999996    2.59999990
   11.85638905  134.38299561    1.03999996    2.59999990
   11.86055565  134.86700439    1.03999996    2.59999990
   11.86361122  152.67799377    1.03999996    2.59999990
   11.86694431  145.59899902    1.03999996    2.59999990
   11.86972237  141.92799377    1.03999996    2.59999990
   11.87055588  152.40699768    1.03999996    2.59999990
   11.87361145  136.56399536    1.03999996    2.59999990
   11.87694454  138.14199829    1.03999996    2.59999990
   11.88000011  142.52499390    1.03999996    2.59999990
   11.88333321  144.89100647    1.03999996    2.59999990
   11.88666630  141.70100403    1.03999996    2.59999990
   11.88972187  135.58799744    1.01999998    2.59999990
   11.89305496  130.99699402    1.01999998    2.59999990
   11.89916611  130.99699402    1.01999998    2.61999989
   11.90333271  139.65600586    1.01999998    2.61999989
   11.90638828  133.82600403    1.01999998    2.61999989
   11.90972137  132.64700317    1.01999998    2.61999989
   11.91305542  142.08399963    1.01999998    2.59999990
   11.91611099  135.88099670    1.01999998    2.61999989
   11.91944504  136.20700073    1.01999998    2.61999989
   11.92277813  139.98599243    1.01999998    2.61999989
   11.92583370  141.94500732    1.01999998    2.61999989
   11.92916679  138.83799744    1.01999998    2.59999990
   11.93222237  151.03700256    1.01999998    2.59999990
   11.93555546  140.47599792    1.01999998    2.61999989
   11.93638897  149.67500305    1.01999998    2.61999989
   11.94194412  149.67500305    1.01999998    2.61999989
   11.94611073  140.30000305    1.01999998    2.61999989
   11.94944477  144.70500183    1.01999998    2.61999989
   11.95249939  141.29499817    1.01999998    2.61999989
   11.95583344  140.38999939    1.03999996    2.61999989
   11.95916653  136.41299438    1.03999996    2.61999989
   11.96222210  145.64199829    1.03999996    2.61999989
   11.96555519  136.11300659    1.01999998    2.61999989
   11.96861076  125.59300232    1.03999996    2.61999989
   11.96972179  137.27999878    1.03999996    2.61999989
   11.97249985  132.77099609    1.01999998    2.61999989
   11.97555542  134.85400391    1.01999998    2.61999989
   11.97888851  138.98800659    1.01999998    2.64000010
   11.98500061  138.98800659    1.01999998    2.61999989
   11.98888874  148.40199280    1.01999998    2.61999989
   11.99222279  138.54899597    1.01999998    2.61999989
   11.99555588  137.39599609    1.01999998    2.61999989
   11.99861145  146.24000549    1.00000000    2.59999990
   12.00194454  141.91099548    1.00000000    2.64000010
   12.00305557  136.88800049    1.00000000    2.64000010
   12.00555515  135.68800354    1.00000000    2.61999989
   12.00861073  129.73800659    1.00000000    2.61999989
   12.01194477  130.47000122    1.00000000    2.64000010
   12.01500034  135.34199524    0.98000002    2.61999989
   12.01833344  138.70399475    0.98000002    2.64000010
   12.02166653  145.08900452    0.98000002    2.64000010
   12.02777767  145.08900452    0.98000002    2.64000010
   12.03194427  143.69599915    0.95999998    2.64000010
   12.03500080  132.87899780    0.95999998    2.64000010
   12.03638935  130.25199890    0.95999998    2.64000010
   12.03888893  130.16999817    0.95999998    2.64000010
   12.04194450  129.11799622    0.95999998    2.64000010
   12.04527855  127.06099701    0.95999998    2.66000009
   12.04833412  125.97499847    0.94000000    2.64000010
   12.05166721  134.44999695    0.94000000    2.64000010
   12.05500031  134.66400146    0.94000000    2.64000010
   12.05805588  126.97799683    0.94000000    2.64000010
   12.06138897  137.10499573    0.94000000    2.64000010
   12.06472206  132.23300171    0.94000000    2.64000010
   12.07055569  132.23300171    0.94000000    2.66000009
   12.07472229  142.71699524    0.92000002    2.64000010
   12.07777786  143.44999695    0.92000002    2.64000010
   12.08111095  145.46099854    0.92000002    2.66000009
   12.08444405  133.11099243    0.89999998    2.66000009
   12.08749962  138.27400208    0.89999998    2.66000009
   12.09083271  139.39799500    0.89999998    2.66000009
   12.09416676  141.83399963    0.88000000    2.66000009
   12.09722233  135.36700439    0.86000001    2.66000009
   12.10055637  140.16900635    0.88000000    2.66000009
   12.10305595  145.56100464    0.86000001    2.66000009
   12.10416698  136.12800598    0.86000001    2.66000009
   12.10722256  132.38000488    0.86000001    2.66000009
   12.11333370  132.38000488    0.86000001    2.66000009
   12.11750031  132.31900024    0.86000001    2.66000009
   12.12083340  132.05599976    0.86000001    2.66000009
   12.12388897  138.20100403    0.86000001    2.66000009
   12.12722206  136.62300110    0.86000001    2.66000009
   12.13055611  138.80400085    0.86000001    2.66000009
   12.13361073  139.90699768    0.86000001    2.66000009
   12.13638878  143.40499878    0.86000001    2.66000009
   12.13749981  146.56700134    0.86000001    2.66000009
   12.14055538  150.15499878    0.88000000    2.66000009
   12.14388847  137.24600220    0.86000001    2.67000008
   12.14722252  145.79499817    0.86000001    2.66000009
   12.15027714  142.49600220    0.86000001    2.67000008
   12.15611076  142.49600220    0.88000000    2.66000009
   12.16027737  141.64100647    0.88000000    2.66000009
   12.16361046  135.63200378    0.88000000    2.67000008
   12.16694450  139.29699707    0.88000000    2.66000009
   12.16972256  141.55000305    0.88000000    2.66000009
   12.17055607  150.21499634    0.88000000    2.66000009
   12.17361164  136.50399780    0.88000000    2.67000008
   12.17694473  131.87100220    0.88000000    2.66000009
   12.18027782  137.19400024    0.88000000    2.67000008
   12.18333340  136.97599792    0.88000000    2.67000008
   12.18666649  132.24899292    0.86000001    2.67000008
   12.18972206  141.93200684    0.86000001    2.67000008
   12.19305515  143.59199524    0.86000001    2.67000008
   12.19916630  143.59199524    0.86000001    2.67000008
   12.20333290  144.14100647    0.86000001    2.66000009
   12.20638847  127.83300018    0.86000001    2.66000009
   12.20972157  133.28199768    0.86000001    2.67000008
   12.21277714  136.29499817    0.88000000    2.67000008
   12.21611118  136.12800598    0.88000000    2.67000008
   12.21944427  127.70899963    0.88000000    2.67000008
   12.22277737  150.95100403    0.88000000    2.67000008
   12.22583294  134.27099609    0.88000000    2.67000008
   12.22916603  130.08599854    0.86000001    2.66000009
   12.23222160  135.45300293    0.88000000    2.67000008
   12.23555565  134.07899475    0.88000000    2.67000008
   12.23638916  147.03700256    0.88000000    2.67000008
   12.25694466  147.03700256    0.86000001    2.69000006
   12.26111126  134.08599854    0.86000001    2.67000008
   12.26444435  146.53500366    0.86000001    2.67000008
   12.26749992  136.04899597    0.86000001    2.67000008
   12.26972198  135.93600464    0.86000001    2.67000008
   12.27138901  137.60400391    0.86000001    2.67000008
   12.27472210  134.87800598    0.86000001    2.67000008
   12.27777767  138.89300537    0.86000001    2.67000008
   12.28111076  145.22500610    0.86000001    2.69000006
   12.28416729  141.81300354    0.88000000    2.69000006
   12.28750038  140.77200317    0.88000000    2.67000008
   12.29083347  139.10499573    0.88000000    2.69000006
   12.29388905  130.34700012    0.88000000    2.67000008
   12.29972267  130.34700012    0.88000000    2.69000006
   12.30388927  136.21299744    0.89999998    2.69000006
   12.30722237  140.84599304    0.89999998    2.69000006
   12.31027794  141.14599609    0.89999998    2.69000006
   12.31361103  140.16999817    0.89999998    2.69000006
   12.31666660  130.73500061    0.88000000    2.67000008
   12.31999969  137.29600525    0.88000000    2.67000008
   12.32333374  141.39399719    0.88000000    2.67000008
   12.32638836  137.09100342    0.88000000    2.69000006
   12.32972240  141.06300354    0.88000000    2.69000006
   12.33305550  143.14999390    0.88000000    2.69000006
   12.33611107  140.98399353    0.86000001    2.69000006
   12.33666611  135.25199890    0.86000001    2.69000006
   12.34249973  135.25199890    0.86000001    2.67000008
   12.34666634  144.21299744    0.86000001    2.69000006
   12.35000038  121.54499817    0.83999997    2.69000006
   12.35305595  134.88200378    0.86000001    2.69000006
   12.35638905  126.77200317    0.86000001    2.69000006
   12.35972214  124.54900360    0.86000001    2.67000008
   12.36277771  137.94500732    0.86000001    2.67000008
   12.36611176  128.97200012    0.81999999    2.69000006
   12.36944485  127.47299957    0.80000001    2.69000006
   12.36999989  132.20500183    0.80000001    2.69000006
   12.37305546  129.87800598    0.80000001    2.69000006
   12.37611103  145.54800415    0.79000002    2.69000006
   12.37944412  130.97799683    0.79000002    2.69000006
   12.38555527  130.97799683    0.80000001    2.69000006
   12.38944435  130.05900574    0.79000002    2.71000004
   12.39277744  135.69799805    0.80000001    2.69000006
   12.39611053  132.94200134    0.80000001    2.71000004
   12.39916611  136.35200500    0.80000001    2.71000004
   12.40249920  139.72399902    0.80000001    2.71000004
   12.40333271  134.79699707    0.81999999    2.71000004
   12.40611076  138.95899963    0.81999999    2.71000004
   12.40916634  136.42199707    0.81999999    2.71000004
   12.41249943  136.97200012    0.80000001    2.69000006
   12.41583252  131.54800415    0.80000001    2.69000006
   12.41888905  129.96899414    0.79000002    2.71000004
   12.42222214  129.56700134    0.75000000    2.71000004
   12.42833328  129.56700134    0.75000000    2.71000004
   12.43249989  132.90400696    0.75000000    2.71000004
   12.43555546  126.30799866    0.75000000    2.71000004
   12.43666649  130.60200500    0.75000000    2.71000004
   12.43944454  130.78100586    0.75000000    2.71000004
   12.44250011  136.05200195    0.75000000    2.71000004
   12.44583321  132.80099487    0.75000000    2.71000004
   12.44916630  135.66000366    0.75000000    2.71000004
   12.45222187  140.21699524    0.75000000    2.71000004
   12.45555496  125.10500336    0.76999998    2.69000006
   12.45861053  134.59199524    0.76999998    2.69000006
   12.46194458  127.51000214    0.76999998    2.71000004
   12.46527767  130.99800110    0.76999998    2.71000004
   12.47111034  130.99800110    0.76999998    2.71000004
   12.47527695  136.71299744    0.75000000    2.71000004
   12.47833252  134.63800049    0.76999998    2.71000004
   12.48166656  133.95500183    0.76999998    2.71000004
   12.48500061  140.24099731    0.76999998    2.71000004
   12.48805618  128.01699829    0.76999998    2.71000004
   12.49138927  143.60099792    0.75000000    2.71000004
   12.49472237  141.82400513    0.75000000    2.71000004
   12.49777794  137.20599365    0.75000000    2.71000004
   12.50111103  134.82600403    0.75000000    2.71000004
   12.50333309  133.59300232    0.75000000    2.71000004
   12.50472260  138.14799500    0.75000000    2.71000004
   12.50777817  139.05799866    0.73000002    2.73000002
   12.51388931  139.05799866    0.70999998    2.71000004
   12.51805496  145.71800232    0.70999998    2.71000004
   12.52138901  131.46299744    0.70999998    2.71000004
   12.52444458  133.41299438    0.73000002    2.71000004
   12.52777767  129.21800232    0.75000000    2.71000004
   12.53111076  133.57600403    0.75000000    2.71000004
   12.53416729  127.90499878    0.75000000    2.71000004
   12.53666687  132.98500061    0.75000000    2.71000004
   12.53777790  131.32600403    0.75000000    2.71000004
   12.54083347  137.67399597    0.75000000    2.71000004
   12.54416752  136.50300598    0.73000002    2.71000004
   12.54750061  130.52900696    0.73000002    2.71000004
   12.55055618  139.72200012    0.75000000    2.73000002
   12.55694485  139.72200012    0.75000000    2.73000002
   12.56083393  136.81300354    0.75000000    2.73000002
   12.56416702  139.86399841    0.76999998    2.71000004
   12.56750011  132.21600342    0.76999998    2.73000002
   12.56999969  141.42199707    0.76999998    2.73000002
   12.57111073  139.96499634    0.76999998    2.73000002
   12.57416630  138.51600647    0.76999998    2.73000002
   12.57750034  137.67900085    0.76999998    2.73000002
   12.58083344  137.63999939    0.76999998    2.71000004
   12.58388901  131.11199951    0.76999998    2.71000004
   12.58722210  138.88000488    0.76999998    2.71000004
   12.59055519  142.24099731    0.76999998    2.73000002
   12.59361076  140.46499634    0.76999998    2.73000002
   12.59972191  140.46499634    0.76999998    2.73000002
   12.60388947  134.81399536    0.76999998    2.73000002
   12.60694504  144.27499390    0.75000000    2.75000000
   12.61027813  139.02200317    0.75000000    2.73000002
   12.61333370  135.39300537    0.75000000    2.75000000
   12.61666679  140.04100037    0.75000000    2.73000002
   12.61999989  146.08399963    0.73000002    2.73000002
   12.62305546  140.55000305    0.75000000    2.73000002
   12.62638855  139.11300659    0.75000000    2.73000002
   12.62972260  134.98399353    0.75000000    2.71000004
   12.63277817  139.97599792    0.75000000    2.71000004
   12.63611126  140.36399841    0.75000000    2.73000002
   12.63666630  140.77999878    0.75000000    2.73000002
   12.64249992  140.77999878    0.75000000    2.73000002
   12.64666653  141.22200012    0.75000000    2.73000002
   12.64972210  132.57600403    0.75000000    2.73000002
   12.65305519  136.89100647    0.75000000    2.73000002
   12.65638828  137.57800293    0.73000002    2.73000002
   12.65944386  132.73300171    0.73000002    2.73000002
   12.66277695  133.04899597    0.73000002    2.73000002
   12.66611099  139.22000122    0.73000002    2.73000002
   12.66916656  136.69999695    0.73000002    2.73000002
   12.67000008  138.86199951    0.73000002    2.73000002
   12.67277813  129.67999268    0.73000002    2.73000002
   12.67583370  131.25399780    0.73000002    2.73000002
   12.67916679  131.73699951    0.75000000    2.73000002
   12.68527794  131.73699951    0.73000002    2.73000002
   12.68944454  141.70700073    0.73000002    2.73000002
   12.69277763  147.98599243    0.70999998    2.73000002
   12.69583321  143.38000488    0.70999998    2.75000000
   12.69916630  133.90600586    0.70999998    2.75000000
   12.70249939  142.87800598    0.70999998    2.73000002
   12.70333290  139.13400269    0.70999998    2.75000000
   12.70611095  136.11799622    0.70999998    2.75000000
   12.70944405  135.32000732    0.70999998    2.73000002
   12.71249962  136.54299927    0.70999998    2.73000002
   12.71583271  139.21099854    0.70999998    2.73000002
   12.71888828  138.26499939    0.70999998    2.75000000
   12.72222137  140.03900146    0.70999998    2.75000000
   12.72805500  140.03900146    0.70999998    2.75000000
   12.73222160  126.56400299    0.70999998    2.75000000
   12.73555565  137.17999268    0.70999998    2.73000002
   12.73666668  127.56099701    0.70999998    2.73000002
   12.73916721  129.62300110    0.70999998    2.73000002
   12.74222279  128.06399536    0.70999998    2.75000000
   12.74555588  133.34800720    0.69000000    2.75000000
   12.74888897  127.16300201    0.70999998    2.75000000
   12.75194454  132.40400696    0.69000000    2.75000000
   12.75527763  144.31100464    0.69000000    2.75000000
   12.75861073  130.49299622    0.69000000    2.75000000
   12.76166630  143.60400391    0.69000000    2.75000000
   12.76500034  134.21800232    0.69000000    2.75000000
   12.77111053  134.21800232    0.69000000    2.75000000
   12.77527714  135.68800354    0.70999998    2.73000002
   12.77833271  132.69400024    0.69000000    2.75000000
   12.78166676  131.39100647    0.70999998    2.75000000
   12.78472233  135.65600586    0.70999998    2.75000000
   12.78805637  131.74400330    0.70999998    2.75000000
   12.79138947  131.64199829    0.70999998    2.75000000
   12.79444504  141.86500549    0.70999998    2.75000000
   12.79777813  135.79600525    0.69000000    2.75000000
   12.80111122  137.96699524    0.70999998    2.75000000
   12.80333328  135.04400635    0.70999998    2.75000000
   12.80472279  137.39500427    0.70999998    2.75000000
   12.80805588  134.68600464    0.70999998    2.75000000
   12.81388950  134.68600464    0.69000000    2.73000002
   12.81805515  140.95599365    0.70999998    2.75000000
   12.82111073  129.19900513    0.70999998    2.75000000
   12.82444477  130.92399597    0.69000000    2.75000000
   12.82777786  138.50100708    0.69000000    2.75000000
   12.83083344  140.63600159    0.67000002    2.75000000
   12.83416653  135.61000061    0.69000000    2.75000000
   12.83666611  139.91900635    0.67000002    2.75000000
   12.83777714  133.33099365    0.67000002    2.75000000
   12.84111118  141.44099426    0.67000002    2.75000000
   12.84416676  131.97599792    0.67000002    2.75000000
   12.84749985  120.43199921    0.67000002    2.76999998
   12.85055637  132.90899658    0.69000000    2.75000000
   12.85666752  132.90899658    0.67000002    2.75000000
   12.86083412  143.60200500    0.67000002    2.76999998
   12.86416721  133.61300659    0.67000002    2.76999998
   12.86722279  135.71200562    0.67000002    2.76999998
   12.86999989  144.35699463    0.67000002    2.76999998
   12.87083340  143.23300171    0.67000002    2.76999998
   12.87388897  129.28300476    0.67000002    2.76999998
   12.87722206  131.96099854    0.67000002    2.75000000
   12.88055611  134.96800232    0.67000002    2.76999998
   12.88361073  135.41499329    0.67000002    2.76999998
   12.88694477  129.04699707    0.67000002    2.76999998
   12.89027786  139.98500061    0.67000002    2.76999998
   12.89333344  133.20599365    0.64999998    2.76999998
   12.89944458  133.20599365    0.64999998    2.76999998
   12.90361118  136.95899963    0.64999998    2.75000000
   12.90694427  131.25900269    0.64999998    2.76999998
   12.91027737  137.37899780    0.64999998    2.76999998
   12.91333294  136.84899902    0.64999998    2.76999998
   12.91666698  139.99200439    0.64999998    2.76999998
   12.92000008  144.37600708    0.64999998    2.76999998
   12.92305565  137.85400391    0.64999998    2.76999998
   12.92638874  138.51600647    0.64999998    2.75000000
   12.92972279  131.80000305    0.64999998    2.76999998
   12.93277836  134.60699463    0.64999998    2.76999998
   12.93611145  132.05499268    0.64999998    2.76999998
   12.93666649  128.36799622    0.64999998    2.76999998
   12.94250011  128.36799622    0.67000002    2.76999998
   12.94666672  137.64399719    0.67000002    2.76999998
   12.94972229  143.35200500    0.67000002    2.76999998
   12.95305538  133.53100586    0.64999998    2.76999998
   12.95611095  141.47700500    0.67000002    2.76999998
   12.95944405  141.79100037    0.67000002    2.76999998
   12.96277714  133.72200012    0.67000002    2.76999998
   12.96583271  143.40100098    0.67000002    2.76999998
   12.96916580  140.43600464    0.67000002    2.76999998
   12.96999931  131.81100464    0.67000002    2.76999998
   12.97277737  139.46400452    0.64999998    2.76999998
   12.97611046  129.13600159    0.64999998    2.78999996
   12.97916603  134.03999329    0.64999998    2.78999996
   12.98527813  134.03999329    0.64999998    2.76999998
   12.98944473  135.76199341    0.64999998    2.76999998
   12.99250031  135.64300537    0.64999998    2.76999998
   12.99583340  139.23300171    0.64999998    2.76999998
   12.99916649  137.44500732    0.64999998    2.76999998
   13.00222206  131.66900635    0.63000000    2.76999998
   13.00361156  142.20599365    0.63000000    2.76999998
   13.00611115  137.12500000    0.63000000    2.76999998
   13.00944424  135.21600342    0.63000000    2.78999996
   13.01249981  142.90600586    0.64999998    2.78999996
   13.01583290  137.52499390    0.63000000    2.76999998
   13.01916599  136.33200073    0.63000000    2.78999996
   13.02222157  136.52999878    0.63000000    2.78999996
   13.02805519  136.52999878    0.63000000    2.78999996
   13.03222179  138.77499390    0.63000000    2.76999998
   13.03555584  132.08399963    0.63000000    2.76999998
   13.03666687  137.13400269    0.63000000    2.76999998
   13.03916740  133.39700317    0.63000000    2.76999998
   13.04250050  139.83000183    0.63000000    2.78999996
   13.04555607  132.60200500    0.63000000    2.78999996
   13.04888916  130.71200562    0.64999998    2.76999998
   13.05194473  146.95199585    0.64999998    2.78999996
   13.05527782  130.52000427    0.64999998    2.78999996
   13.05861092  138.44299316    0.64999998    2.78999996
   13.06166649  134.47799683    0.64999998    2.78999996
   13.06500053  135.63900757    0.64999998    2.76999998
   13.07083321  135.63900757    0.64999998    2.78999996
   13.07499981  127.56700134    0.63000000    2.76999998
   13.07833290  134.38200378    0.63000000    2.78999996
   13.08138847  139.84500122    0.63000000    2.78999996
   13.08472157  140.26800537    0.63000000    2.78999996
   13.08805561  145.55000305    0.63000000    2.78999996
   13.09111118  134.52200317    0.63000000    2.76999998
   13.09444427  135.90400696    0.63000000    2.78999996
   13.09777737  130.77099609    0.63000000    2.78999996
   13.10083389  136.73599243    0.63000000    2.78999996
   13.10333347  144.21600342    0.63000000    2.78999996
   13.10444450  140.72599792    0.63000000    2.78999996
   13.10777855  138.90800476    0.63000000    2.78999996
   13.11388969  138.90800476    0.61000001    2.76999998
   13.11777782  140.16799927    0.63000000    2.78999996
   13.12111092  140.39199829    0.61000001    2.78999996
   13.12444496  140.11900330    0.63000000    2.78999996
   13.12750053  145.23399353    0.61000001    2.78999996
   13.13083363  144.61599731    0.61000001    2.78999996
   13.13416672  151.63200378    0.61000001    2.78999996
   13.13666630  126.70300293    0.61000001    2.78999996
   13.13777733  142.82000732    0.61000001    2.78999996
   13.14111137  139.84899902    0.63000000    2.78999996
   13.14416695  152.13299561    0.63000000    2.78999996
   13.14750004  131.26199341    0.61000001    2.78999996
   13.15055561  143.86199951    0.61000001    2.78999996
   13.15666676  143.86199951    0.58999997    2.78999996
   13.16083336  139.22000122    0.61000001    2.78999996
   13.16388893  146.07200623    0.61000001    2.78999996
   13.16722298  143.18099976    0.58999997    2.78999996
   13.17000008  133.06399536    0.58999997    2.78999996
   13.17083359  142.57800293    0.61000001    2.78999996
   13.17416668  141.63099670    0.61000001    2.78999996
   13.17722225  148.86900330    0.61000001    2.78999996
   13.18055630  152.89900208    0.58999997    2.80999994
   13.18361092  136.91299438    0.61000001    2.78999996
   13.18694496  140.14900208    0.61000001    2.78999996
   13.19027805  138.72599792    0.58999997    2.78999996
   13.19333363  140.54299927    0.58999997    2.80999994
   13.19944477  140.54299927    0.58999997    2.78999996
   13.20361137  140.74499512    0.58999997    2.78999996
   13.20694447  151.35899353    0.58999997    2.78999996
   13.21000004  141.37600708    0.58999997    2.78999996
   13.21333313  138.92900085    0.58999997    2.78999996
   13.21694374  143.95199585    0.58999997    2.78999996
   13.21999931  158.90699768    0.58999997    2.78999996
   13.22333336  143.82299805    0.58999997    2.78999996
   13.22666645  153.32699585    0.58999997    2.78999996
   13.22972202  149.15299988    0.58999997    2.78999996
   13.23305511  150.79699707    0.58999997    2.78999996
   13.23611164  146.83599854    0.56999999    2.78999996
   13.23666668  147.61000061    0.56999999    2.78999996
   13.24222279  147.61000061    0.56999999    2.80999994
   13.24638939  143.50300598    0.58999997    2.78999996
   13.24972248  151.02400208    0.56999999    2.80999994
   13.25277805  158.24800110    0.56999999    2.78999996
   13.27055550  129.35099792    0.58999997    2.78999996
   13.27277756  146.71899414    0.56999999    2.78999996
   13.27611065  152.37100220    0.56999999    2.80999994
   13.27944374  145.12300110    0.56999999    2.80999994
   13.28527832  145.12300110    0.56999999    2.78999996
   13.28944492  139.69200134    0.55000001    2.78999996
   13.29277802  145.26300049    0.55000001    2.80999994
   13.29583359  134.55299377    0.55000001    2.80999994
   13.29916668  152.05299377    0.55000001    2.80999994
   13.30222225  146.80099487    0.55000001    2.80999994
   13.30361176  161.08799744    0.55000001    2.82999992
   13.30583382  151.75000000    0.55000001    2.82999992
   13.30916691  152.03399658    0.55000001    2.80999994
   13.31222248  138.43200684    0.55000001    2.80999994
   13.31555557  159.29100037    0.55000001    2.80999994
   13.31888866  153.12399292    0.52999997    2.80999994
   13.32194424  149.75900269    0.52999997    2.80999994
   13.32805538  149.75900269    0.52999997    2.80999994
   13.33222198  150.36300659    0.52999997    2.78999996
   13.33555508  145.24899292    0.52999997    2.80999994
   13.33694458  141.67100525    0.52999997    2.80999994
   13.33916664  140.08000183    0.52999997    2.80999994
   13.34249973  137.25500488    0.52999997    2.80999994
   13.34555531  146.33799744    0.55000001    2.80999994
   13.34888840  147.72799683    0.52999997    2.82999992
   13.35222244  143.32099915    0.52999997    2.82999992
   13.35555553  138.07699585    0.52999997    2.80999994
   13.35861111  147.09500122    0.52999997    2.80999994
   13.36194515  140.02499390    0.52999997    2.80999994
   13.36527824  145.67700195    0.52999997    2.80999994
   13.37111092  145.67700195    0.52999997    2.80999994
   13.37500000  139.58399963    0.52999997    2.80999994
   13.37833309  134.85699463    0.51999998    2.82999992
   13.38166714  137.02400208    0.51999998    2.82999992
   13.38472176  143.34199524    0.51999998    2.82999992
   13.38805580  148.67399597    0.51999998    2.80999994
   13.39111137  146.04800415    0.51999998    2.78999996
   13.39444447  147.50000000    0.52999997    2.80999994
   13.39777756  145.08799744    0.52999997    2.80999994
   13.40083313  143.75100708    0.52999997    2.82999992
   13.40361118  149.12600708    0.52999997    2.82999992
   13.40444374  143.91000366    0.51999998    2.82999992
   13.40777779  143.06500244    0.51999998    2.82999992
   13.41388893  143.06500244    0.51999998    2.82999992
   13.41805553  145.64399719    0.52999997    2.82999992
   13.42111111  138.98100281    0.51999998    2.80999994
   13.42444515  143.80599976    0.51999998    2.80999994
   13.42777824  144.69599915    0.51999998    2.80999994
   13.43083382  145.21899414    0.51999998    2.80999994
   13.43416691  138.10899353    0.51999998    2.80999994
   13.43722248  133.43699646    0.52999997    2.82999992
   13.43777752  143.68299866    0.52999997    2.82999992
   13.44138908  147.36999512    0.51999998    2.82999992
   13.44472218  144.16900635    0.51999998    2.82999992
   13.44777775  135.23399353    0.52999997    2.80999994
   13.45111084  145.32600403    0.52999997    2.82999992
   13.45666695  145.32600403    0.52999997    2.82999992
   13.46083355  151.67100525    0.52999997    2.82999992
   13.46416664  145.28300476    0.52999997    2.80999994
   13.46722221  153.01300049    0.55000001    2.84999990
   13.47055531  142.69700623    0.55000001    2.80999994
   13.47083282  135.62199402    0.55000001    2.80999994
   13.47416592  141.68499756    0.55000001    2.80999994
   13.47722149  139.85000610    0.55000001    2.82999992
   13.48055553  149.72999573    0.55000001    2.82999992
   13.48388958  142.02699280    0.55000001    2.80999994
   13.48694515  150.93899536    0.55000001    2.82999992
   13.49027824  144.79600525    0.52999997    2.82999992
   13.49361134  148.85899353    0.52999997    2.82999992
   13.49944496  148.85899353    0.52999997    2.80999994
   13.50361156  144.67799377    0.55000001    2.82999992
   13.50416660  143.61199951    0.55000001    2.82999992
   13.50749969  150.91900635    0.55000001    2.80999994
   13.51055527  145.15699768    0.55000001    2.80999994
   13.51388931  151.10400391    0.55000001    2.82999992
   13.51694393  160.76300049    0.55000001    2.80999994
   13.52027798  145.22799683    0.55000001    2.82999992
   13.52361107  157.74899292    0.55000001    2.82999992
   13.52666664  130.66999817    0.55000001    2.82999992
   13.52999973  144.28300476    0.55000001    2.80999994
   13.53333378  153.92199707    0.55000001    2.82999992
   13.53638935  145.28799438    0.55000001    2.82999992
   13.53750038  147.15699768    0.55000001    2.82999992
   13.54250050  147.15699768    0.52999997    2.80999994
   13.54638958  140.17399597    0.55000001    2.82999992
   13.54972267  139.59800720    0.55000001    2.80999994
   13.55305576  153.28999329    0.55000001    2.82999992
   13.55611134  139.49400330    0.56999999    2.82999992
   13.55944443  161.69200134    0.56999999    2.82999992
   13.56277752  155.11000061    0.55000001    2.82999992
   13.56583309  154.44400024    0.55000001    2.82999992
   13.56916618  136.05000305    0.55000001    2.82999992
   13.57083321  156.66000366    0.55000001    2.82999992
   13.57277775  154.80700684    0.55000001    2.80999994
   13.57583332  152.72200012    0.55000001    2.82999992
   13.57916641  146.19799805    0.55000001    2.80999994
   13.58527756  146.19799805    0.55000001    2.82999992
   13.58944416  153.34199524    0.51999998    2.82999992
   13.59249973  154.31300354    0.51999998    2.82999992
   13.59583282  153.40800476    0.51999998    2.82999992
   13.59888840  156.13600159    0.51999998    2.82999992
   13.60222244  150.21699524    0.51999998    2.82999992
   13.60416698  143.73199463    0.51999998    2.82999992
   13.60583401  152.82899475    0.51999998    2.82999992
   13.60888958  158.43800354    0.51999998    2.82999992
   13.61222267  153.64199829    0.52999997    2.82999992
   13.61555576  149.69999695    0.51999998    2.82999992
   13.61861134  144.94700623    0.52999997    2.82999992
   13.62194443  150.79100037    0.52999997    2.82999992
   13.62805557  150.79100037    0.51999998    2.82999992
   13.63222218  139.17700195    0.51999998    2.82999992
   13.63527775  141.90299988    0.52999997    2.82999992
   13.63749981  147.34100342    0.52999997    2.82999992
   13.63916683  142.12100220    0.52999997    2.82999992
   13.64222240  153.96899414    0.51999998    2.82999992
   13.64555550  152.08999634    0.52999997    2.82999992
   13.64888859  142.61199951    0.52999997    2.82999992
   13.65194416  146.82299805    0.52999997    2.82999992
   13.65527725  140.96299744    0.51999998    2.82999992
   13.65833282  135.28900146    0.50000000    2.82999992
   13.66166592  148.27799988    0.47999999    2.82999992
   13.66499996  146.30200195    0.47999999    2.82999992
   13.67083359  146.30200195    0.46000001    2.82999992
   13.67500019  146.15600586    0.46000001    2.84999990
   13.67833328  145.49499512    0.46000001    2.84999990
   13.68138885  134.42300415    0.47999999    2.82999992
   13.68472195  132.12199402    0.46000001    2.82999992
   13.68805599  144.75700378    0.47999999    2.82999992
   13.69111156  145.83399963    0.47999999    2.82999992
   13.69444466  138.43099976    0.50000000    2.82999992
   13.69777775  135.61000061    0.50000000    2.84999990
   13.70083332  132.58099365    0.50000000    2.84999990
   13.70416641  130.90299988    0.50000000    2.82999992
   13.70472240  140.11599731    0.50000000    2.82999992
   13.70777798  144.01199341    0.50000000    2.82999992
   13.71361065  144.01199341    0.50000000    2.82999992
   13.71777725  138.55400085    0.50000000    2.82999992
   13.72111034  146.89399719    0.50000000    2.84999990
   13.72444439  153.34599304    0.50000000    2.84999990
   13.72749996  150.45599365    0.47999999    2.84999990
   13.73083305  148.09399414    0.50000000    2.82999992
   13.73388958  145.17199707    0.46000001    2.84999990
   13.73722267  142.31100464    0.46000001    2.82999992
   13.73805618  144.79400635    0.46000001    2.82999992
   13.74111176  149.49400330    0.47999999    2.82999992
   13.74416733  143.60800171    0.47999999    2.82999992
   13.74750042  141.39599609    0.46000001    2.84999990
   13.75055599  135.89700317    0.46000001    2.84999990
   13.75666714  135.89700317    0.46000001    2.84999990
   13.76083374  141.08000183    0.46000001    2.84999990
   13.76388931  138.59500122    0.47999999    2.84999990
   13.76722240  138.50999451    0.47999999    2.84999990
   13.77027798  130.69000244    0.47999999    2.84999990
   13.77138901  132.00999451    0.47999999    2.84999990
   13.77388859  141.23699951    0.47999999    2.84999990
   13.77722168  136.70899963    0.47999999    2.82999992
   13.78027725  139.94599915    0.50000000    2.82999992
   13.78361130  119.19200134    0.50000000    2.82999992
   13.78694534  146.32400513    0.50000000    2.84999990
   13.79000092  143.34599304    0.50000000    2.82999992
   13.79333401  143.63499451    0.50000000    2.84999990
   13.79944515  143.63499451    0.50000000    2.84999990
   13.80361176  136.75799561    0.50000000    2.84999990
   13.80472279  145.27400208    0.50000000    2.84999990
   13.80694485  131.20399475    0.51999998    2.84999990
   13.81027794  128.67999268    0.51999998    2.82999992
   13.81361103  132.53599548    0.51999998    2.84999990
   13.81666660  134.91499329    0.51999998    2.84999990
   13.81999969  134.06799316    0.50000000    2.82999992
   13.82333374  132.60699463    0.50000000    2.82999992
   13.82638836  140.02400208    0.50000000    2.84999990
   13.82972240  125.20500183    0.50000000    2.84999990
   13.83277798  137.25100708    0.50000000    2.84999990
   13.83611107  141.34800720    0.50000000    2.82999992
   13.83805561  130.94799805    0.50000000    2.82999992
   13.84222221  130.94799805    0.50000000    2.84999990
   13.84638882  138.30599976    0.50000000    2.84999990
   13.84972191  143.57800293    0.50000000    2.84999990
   13.85277843  137.97099304    0.50000000    2.84999990
   13.85611153  141.02799988    0.50000000    2.84999990
   13.85944462  136.91999817    0.50000000    2.84999990
   13.86250019  127.95099640    0.50000000    2.84999990
   13.86583328  140.92999268    0.50000000    2.84999990
   13.86916637  123.73699951    0.50000000    2.84999990
   13.87138939  134.65600586    0.50000000    2.84999990
   13.87250042  133.98599243    0.50000000    2.84999990
   13.87583351  134.72900391    0.50000000    2.84999990
   13.87916660  132.81100464    0.50000000    2.84999990
   13.88500023  132.81100464    0.50000000    2.84999990
   13.88916683  135.13699341    0.50000000    2.84999990
   13.89249992  130.74000549    0.50000000    2.84999990
   13.89583302  140.04299927    0.50000000    2.84999990
   13.89916611  135.43600464    0.50000000    2.84999990
   13.90222168  134.87800598    0.50000000    2.84999990
   13.90472221  129.13800049    0.50000000    2.84999990
   13.90583324  140.39399719    0.47999999    2.84999990
   13.90916634  140.85200500    0.46000001    2.84999990
   13.91249943  136.56399536    0.46000001    2.86999989
   13.91555500  134.70100403    0.47999999    2.84999990
   13.91888905  136.15600586    0.46000001    2.84999990
   13.92194462  142.36300659    0.46000001    2.84999990
   13.92805576  142.36300659    0.46000001    2.84999990
   13.93222237  137.39999390    0.47999999    2.84999990
   13.93527794  139.60899353    0.47999999    2.84999990
   13.93805599  142.94599915    0.47999999    2.84999990
   13.93888855  136.54899597    0.47999999    2.84999990
   13.94222260  132.83599854    0.47999999    2.84999990
   13.94555569  134.93200684    0.47999999    2.84999990
   13.94861126  136.44099426    0.50000000    2.84999990
   13.95194435  130.70399475    0.51999998    2.84999990
   13.95527744  136.33399963    0.51999998    2.84999990
   13.95833302  129.22999573    0.51999998    2.86999989
   13.96166611  133.15299988    0.51999998    2.84999990
   13.96500015  129.34500122    0.51999998    2.84999990
   13.97083282  129.34500122    0.51999998    2.84999990
   13.97499943  136.74899292    0.51999998    2.86999989
   13.97805500  138.85000610    0.47999999    2.84999990
   13.98138809  133.17599487    0.47999999    2.86999989
   13.98472214  136.61999512    0.47999999    2.84999990
   13.98777771  129.94400024    0.47999999    2.84999990
   13.99111176  141.27499390    0.46000001    2.84999990
   13.99444485  141.50900269    0.47999999    2.84999990
   13.99750042  139.29499817    0.47999999    2.84999990
   14.00083351  136.17500305    0.47999999    2.84999990
   14.00388908  132.87100220    0.47999999    2.84999990
   14.00583363  133.84700012    0.47999999    2.84999990
   14.00777817  134.93699646    0.50000000    2.84999990
   14.01361084  134.93699646    0.47999999    2.84999990
   14.01777744  139.30000305    0.50000000    2.84999990
   14.02111053  137.06599426    0.47999999    2.84999990
   14.02416611  139.92900085    0.47999999    2.84999990
   14.02750015  133.22799683    0.47999999    2.84999990
   14.03083324  131.43699646    0.47999999    2.84999990
   14.03388977  131.51199341    0.47999999    2.84999990
   14.03722286  136.23100281    0.47999999    2.84999990
   14.03916740  134.02400208    0.47999999    2.84999990
   14.04083347  140.75100708    0.47999999    2.84999990
   14.04388905  135.42100525    0.47999999    2.84999990
   14.04722309  134.06399536    0.47999999    2.84999990
   14.05027771  132.07299805    0.47999999    2.84999990
   14.05666733  132.07299805    0.47999999    2.86999989
   14.06083393  130.19599915    0.47999999    2.84999990
   14.06388950  142.63900757    0.47999999    2.84999990
   14.06722260  130.64199829    0.46000001    2.86999989
   14.07055569  134.36900330    0.46000001    2.86999989
   14.07250023  132.17399597    0.46000001    2.84999990
   14.07416630  132.16900635    0.46000001    2.84999990
   14.07722187  128.69999695    0.46000001    2.84999990
   14.08055592  129.02299500    0.46000001    2.86999989
   14.08388901  136.21699524    0.46000001    2.84999990
   14.08694458  133.88200378    0.46000001    2.84999990
   14.09027767  128.14599609    0.46000001    2.86999989
   14.09333324  130.17900085    0.46000001    2.86999989
   14.09944439  130.17900085    0.47999999    2.84999990
   14.10361195  135.78900146    0.46000001    2.84999990
   14.10583401  133.78300476    0.46000001    2.84999990
   14.10722256  138.03999329    0.47999999    2.86999989
   14.11027813  135.28799438    0.46000001    2.84999990
   14.11361122  132.25000000    0.44000000    2.86999989
   14.11694431  131.24499512    0.44000000    2.86999989
   14.11999989  135.81199646    0.44000000    2.86999989
   14.12333393  130.32499695    0.46000001    2.86999989
   14.12638855  118.16300201    0.44000000    2.86999989
   14.12972260  127.57199860    0.44000000    2.86999989
   14.13305569  135.23599243    0.44000000    2.84999990
   14.13611126  129.01499939    0.44000000    2.86999989
   14.14222240  129.01499939    0.44000000    2.84999990
   14.14638901  141.23199463    0.44000000    2.86999989
   14.14944458  136.91299438    0.44000000    2.86999989
   14.15277767  135.32299805    0.44000000    2.86999989
   14.15611076  142.54600525    0.44000000    2.86999989
   14.15916634  139.96899414    0.46000001    2.84999990
   14.16249943  137.34599304    0.46000001    2.84999990
   14.16583252  132.89599609    0.46000001    2.84999990
   14.16888905  136.80200195    0.44000000    2.84999990
   14.17222214  129.34300232    0.46000001    2.86999989
   14.17305565  135.81399536    0.46000001    2.86999989
   14.17583370  137.55299377    0.46000001    2.84999990
   14.17888927  134.27200317    0.46000001    2.86999989
   14.18500042  134.27200317    0.47999999    2.86999989
   14.18916702  127.09500122    0.46000001    2.84999990
   14.19250011  134.08999634    0.47999999    2.86999989
   14.19555569  138.67599487    0.47999999    2.84999990
   14.19888878  135.21200562    0.47999999    2.84999990
   14.20222187  144.09800720    0.47999999    2.84999990
   14.20527744  131.91200256    0.47999999    2.86999989
   14.20638847  127.29499817    0.47999999    2.86999989
   14.20888901  137.50199890    0.47999999    2.86999989
   14.21194458  131.69000244    0.47999999    2.84999990
   14.21527767  131.33700562    0.47999999    2.86999989
   14.21861076  132.55200195    0.47999999    2.84999990
   14.22166634  127.85399628    0.47999999    2.84999990
   14.22777748  127.85399628    0.47999999    2.86999989
   14.23194408  135.14599609    0.47999999    2.86999989
   14.23527813  137.58399963    0.46000001    2.86999989
   14.23861122  128.88699341    0.46000001    2.86999989
   14.24000072  131.59199524    0.46000001    2.84999990
   14.24222279  132.21299744    0.46000001    2.84999990
   14.24527836  128.79800415    0.44000000    2.86999989
   14.24861145  122.43499756    0.44000000    2.86999989
   14.25166702  138.50000000    0.44000000    2.86999989
   14.25500011  128.95700073    0.44000000    2.86999989
   14.25833321  135.03900146    0.44000000    2.86999989
   14.26138878  129.47700500    0.41999999    2.86999989
   14.26472187  134.98199463    0.44000000    2.86999989
   14.27083302  134.98199463    0.44000000    2.86999989
   14.28916740  139.94299316    0.44000000    2.86999989
   14.29222298  140.04800415    0.44000000    2.84999990
   14.29555607  132.53199768    0.44000000    2.86999989
   14.29888916  120.05400085    0.44000000    2.86999989
   14.30194473  127.03900146    0.44000000    2.86999989
   14.30527782  133.68899536    0.44000000    2.86999989
   14.30861092  130.03500366    0.44000000    2.86999989
   14.31388950  130.03500366    0.46000001    2.86999989
   14.31777763  132.90199280    0.46000001    2.86999989
   14.32111073  131.09599304    0.46000001    2.86999989
   14.32222176  136.27400208    0.46000001    2.86999989
   14.32472229  127.44799805    0.46000001    2.86999989
   14.32805538  134.42399597    0.46000001    2.86999989
   14.33138847  136.81500244    0.46000001    2.86999989
   14.33444405  134.77799988    0.46000001    2.86999989
   14.33777714  130.01699829    0.46000001    2.86999989
   14.34083271  129.53199768    0.44000000    2.86999989
   14.34416676  135.12399292    0.44000000    2.86999989
   14.34749985  138.75500488    0.44000000    2.86999989
   14.35055637  127.08899689    0.46000001    2.86999989
   14.35666752  127.08899689    0.47999999    2.86999989
   14.36083412  129.29100037    0.46000001    2.86999989
   14.36388969  132.57800293    0.46000001    2.86999989
   14.36722279  135.71400452    0.47999999    2.86999989
   14.37055588  133.96400452    0.47999999    2.84999990
   14.37388897  136.13900757    0.47999999    2.84999990
   14.37694454  131.78799438    0.47999999    2.86999989
   14.38027763  135.11399841    0.47999999    2.86999989
   14.38361073  129.66600037    0.47999999    2.86999989
   14.38666630  136.96899414    0.47999999    2.86999989
   14.38888836  134.62800598    0.47999999    2.86999989
   14.39027786  131.98300171    0.47999999    2.86999989
   14.39361095  131.17700195    0.46000001    2.86999989
   14.39944458  131.17700195    0.46000001    2.86999989
   14.40361118  134.54499817    0.47999999    2.89000010
   14.40694427  134.30799866    0.47999999    2.89000010
   14.40999985  135.24800110    0.47999999    2.86999989
   14.41333294  132.26400757    0.46000001    2.86999989
   14.41638851  137.20599365    0.46000001    2.86999989
   14.41972256  128.47300720    0.47999999    2.86999989
   14.42222214  125.47599792    0.46000001    2.86999989
   14.42333412  126.20400238    0.46000001    2.86999989
   14.42666721  127.88099670    0.46000001    2.86999989
   14.43000031  129.30700684    0.47999999    2.86999989
   14.43305588  130.19900513    0.47999999    2.86999989
   14.43638897  132.14399719    0.47999999    2.86999989
   14.44222260  132.14399719    0.47999999    2.86999989
   14.44638920  128.18299866    0.47999999    2.86999989
   14.44972229  129.66299438    0.47999999    2.86999989
   14.45277786  136.45599365    0.47999999    2.86999989
   14.45555496  136.12899780    0.47999999    2.86999989
   14.45638847  126.28800201    0.47999999    2.86999989
   14.45972157  129.19400024    0.46000001    2.86999989
   14.46305561  135.38299561    0.47999999    2.86999989
   14.46611118  137.35699463    0.47999999    2.86999989
   14.46944427  130.37199402    0.46000001    2.86999989
   14.47277737  120.22699738    0.47999999    2.86999989
   14.47583294  123.71099854    0.46000001    2.86999989
   14.47916603  128.00199890    0.46000001    2.86999989
   14.48527813  128.00199890    0.46000001    2.86999989
   14.48916721  129.36799622    0.46000001    2.86999989
   14.49250031  122.57499695    0.46000001    2.86999989
   14.49583340  125.37999725    0.44000000    2.86999989
   14.49888897  130.35800171    0.44000000    2.86999989
   14.50222206  133.26100159    0.44000000    2.86999989
   14.50555515  130.88600159    0.44000000    2.89000010
   14.50861073  131.32699585    0.46000001    2.86999989
   14.51194477  134.17999268    0.44000000    2.86999989
   14.51527786  127.60600281    0.44000000    2.86999989
   14.51833344  125.26499939    0.44000000    2.86999989
   14.52166653  131.11599731    0.44000000    2.86999989
   14.52222157  122.23699951    0.44000000    2.86999989
   14.52805519  122.23699951    0.44000000    2.86999989
   14.53222179  128.10099792    0.41999999    2.89000010
   14.53527832  135.81599426    0.41999999    2.86999989
   14.53861141  130.15299988    0.41999999    2.86999989
   14.54194450  122.79499817    0.41999999    2.89000010
   14.54500008  126.82900238    0.41999999    2.86999989
   14.54833412  137.09599304    0.41999999    2.86999989
   14.55138874  129.79600525    0.41999999    2.86999989
   14.55472279  125.64900208    0.41999999    2.89000010
   14.55555534  130.72399902    0.41999999    2.89000010
   14.55833340  131.30599976    0.41999999    2.89000010
   14.56166649  141.15600586    0.41999999    2.89000010
   14.56500053  132.09800720    0.40000001    2.86999989
   14.57083321  132.09800720    0.41999999    2.89000010
   14.57499981  127.56199646    0.40000001    2.86999989
   14.57833290  126.59600067    0.40000001    2.89000010
   14.58138847  137.61700439    0.40000001    2.89000010
   14.58472157  130.36599731    0.40000001    2.86999989
   14.58777714  135.68800354    0.40000001    2.86999989
   14.58888817  134.43600464    0.40000001    2.89000010
   14.59138870  134.18899536    0.40000001    2.89000010
   14.59472179  130.71600342    0.40000001    2.89000010
   14.59805489  134.45899963    0.40000001    2.89000010
   14.60111141  129.97999573    0.40000001    2.89000010
   14.60444450  136.33200073    0.40000001    2.89000010
   14.60777855  118.60399628    0.40000001    2.89000010
   14.61361122  118.60399628    0.38000000    2.89000010
   14.61777782  136.67500305    0.38000000    2.91000009
   14.62111092  135.38099670    0.38000000    2.91000009
   14.62222195  138.62699890    0.38000000    2.89000010
   14.62472248  132.10299683    0.38000000    2.89000010
   14.62777805  135.43299866    0.38000000    2.89000010
   14.63111115  133.48199463    0.38000000    2.89000010
   14.63416672  140.57200623    0.38000000    2.89000010
   14.63749981  136.43200684    0.38000000    2.89000010
   14.64083290  135.22500610    0.38000000    2.86999989
   14.64388847  134.07499695    0.38000000    2.89000010
   14.64722252  131.95500183    0.38000000    2.89000010
   14.65055561  142.38600159    0.40000001    2.89000010
   14.65666676  142.38600159    0.40000001    2.89000010
   14.66055489  134.79299927    0.40000001    2.89000010
   14.66388893  132.57499695    0.38000000    2.89000010
   14.66722298  127.56700134    0.40000001    2.91000009
   14.67027855  126.42700195    0.40000001    2.89000010
   14.67361164  131.80700684    0.40000001    2.89000010
   14.67694473  129.25000000    0.40000001    2.89000010
   14.68000031  135.05900574    0.40000001    2.89000010
   14.68333340  132.34899902    0.40000001    2.89000010
   14.68638897  128.44200134    0.40000001    2.89000010
   14.68888855  131.96899414    0.40000001    2.89000010
   14.69000053  125.31700134    0.40000001    2.89000010
   14.69333363  129.92500305    0.40000001    2.89000010
   14.69944477  129.92500305    0.40000001    2.89000010
   14.70361137  131.46899414    0.40000001    2.89000010
   14.70666695  137.59199524    0.40000001    2.89000010
   14.71000004  124.90499878    0.40000001    2.89000010
   14.71333313  130.08700562    0.38000000    2.89000010
   14.71638870  126.20099640    0.40000001    2.89000010
   14.71972179  140.96699524    0.40000001    2.91000009
   14.72222137  135.07200623    0.40000001    2.89000010
   14.72305489  128.47799683    0.40000001    2.89000010
   14.72638798  125.56400299    0.40000001    2.89000010
   14.72972202  128.64599609    0.38000000    2.89000010
   14.73277760  131.95300293    0.38000000    2.89000010
   14.73611164  132.37699890    0.38000000    2.89000010
   14.74222279  132.37699890    0.40000001    2.89000010
   14.74638939  128.68699646    0.38000000    2.89000010
   14.74972248  135.48399353    0.38000000    2.89000010
   14.75277805  128.83700562    0.40000001    2.91000009
   14.75555515  125.79599762    0.40000001    2.91000009
   14.75638866  126.99900055    0.38000000    2.89000010
   14.75972176  127.15899658    0.40000001    2.91000009
   14.76305580  131.32299805    0.40000001    2.86999989
   14.76611137  127.79399872    0.40000001    2.89000010
   14.76944447  128.18699646    0.40000001    2.91000009
   14.77277756  138.01100159    0.40000001    2.91000009
   14.77583313  128.06199646    0.40000001    2.91000009
   14.77916622  138.16000366    0.41999999    2.91000009
   14.78500080  138.16000366    0.41999999    2.91000009
   14.78916740  136.27099609    0.41999999    2.89000010
   14.79250050  131.08599854    0.41999999    2.89000010
   14.79583359  129.29200745    0.40000001    2.89000010
   14.79888916  136.76100159    0.41999999    2.91000009
   14.80222225  143.52600098    0.41999999    2.89000010
   14.80555534  139.00399780    0.41999999    2.89000010
   14.80861092  135.88200378    0.41999999    2.91000009
   14.81194496  124.37100220    0.41999999    2.91000009
   14.81527805  129.96600342    0.41999999    2.89000010
   14.81833363  128.52200317    0.41999999    2.89000010
   14.82166672  133.19000244    0.44000000    2.89000010
   14.82222176  133.73699951    0.44000000    2.89000010
   14.82805538  133.73699951    0.44000000    2.86999989
   14.83194447  135.48399353    0.44000000    2.89000010
   14.83527756  131.89100647    0.44000000    2.89000010
   14.83861065  128.12899780    0.44000000    2.89000010
   14.84166622  130.15899658    0.44000000    2.89000010
   14.84499931  127.09500122    0.44000000    2.89000010
   14.84833336  127.62699890    0.44000000    2.89000010
   14.85138893  140.80900574    0.41999999    2.89000010
   14.85472298  123.42500305    0.40000001    2.89000010
   14.85555553  136.43699646    0.40000001    2.89000010
   14.85833359  134.48100281    0.40000001    2.89000010
   14.86138916  137.33599854    0.40000001    2.89000010
   14.86472225  128.20700073    0.40000001    2.89000010
   14.87083340  128.20700073    0.40000001    2.91000009
   14.87500000  119.58200073    0.40000001    2.91000009
   14.87805557  128.47799683    0.40000001    2.91000009
   14.88138866  135.75399780    0.40000001    2.89000010
   14.88472176  133.33099365    0.38000000    2.89000010
   14.88777733  137.18600464    0.40000001    2.89000010
   14.88888836  138.22700500    0.40000001    2.89000010
   14.89166641  127.94799805    0.40000001    2.89000010
   14.89472198  141.56100464    0.40000001    2.86999989
   14.89805508  139.21000671    0.38000000    2.89000010
   14.90111065  134.99299622    0.40000001    2.91000009
   14.90444374  140.10499573    0.38000000    2.89000010
   14.90777779  130.23899841    0.38000000    2.89000010
   14.91361046  130.23899841    0.40000001    2.91000009
   14.91777802  130.58200073    0.41999999    2.89000010
   14.92111111  134.86799622    0.40000001    2.89000010
   14.92222214  137.40100098    0.40000001    2.89000010
   14.92472267  134.87699890    0.40000001    2.89000010
   14.92777824  139.17700195    0.41999999    2.89000010
   14.93111134  132.15499878    0.40000001    2.89000010
   14.93416691  126.84100342    0.41999999    2.89000010
   14.93750000  132.14100647    0.41999999    2.89000010
   14.94083309  143.26400757    0.41999999    2.91000009
   14.94388866  142.56700134    0.41999999    2.89000010
   14.94722271  129.88400269    0.41999999    2.91000009
   14.95027733  146.51800537    0.41999999    2.89000010
   14.95638847  146.51800537    0.41999999    2.89000010
   14.96055508  113.39900208    0.40000001    2.89000010
   14.96388912  133.46899414    0.41999999    2.89000010
   14.96694374  130.08999634    0.41999999    2.89000010
   14.97027779  129.45300293    0.40000001    2.89000010
   14.97361088  130.18600464    0.40000001    2.89000010
   14.97666645  134.22999573    0.41999999    2.91000009
   14.97999954  183.29400635    0.41999999    2.91000009
   14.98305511  131.15100098    0.40000001    2.89000010
   14.98638916  135.60000610    0.40000001    2.89000010
   14.98888874  127.58899689    0.41999999    2.89000010
   14.99027824  132.14199829    0.41999999    2.89000010
   14.99333382  129.42500305    0.40000001    2.89000010
   14.99916649  129.42500305    0.41999999    2.89000010
   15.00333309  131.55999756    0.41999999    2.89000010
   15.00666714  133.50399780    0.41999999    2.89000010
   15.01000023  132.81900024    0.41999999    2.89000010
   15.01305580  124.69599915    0.41999999    2.89000010
   15.01638889  134.60699463    0.41999999    2.89000010
   15.01944447  133.03500366    0.41999999    2.89000010
   15.02222157  139.60600281    0.41999999    2.89000010
   15.02333355  134.99600220    0.41999999    2.89000010
   15.02638817  130.55900574    0.41999999    2.89000010
   15.02972221  135.91999817    0.40000001    2.89000010
   15.03277779  131.94900513    0.40000001    2.89000010
   15.03611183  135.15899658    0.41999999    2.89000010
   15.04222298  135.15899658    0.41999999    2.89000010
   15.04638958  135.69999695    0.41999999    2.89000010
   15.04944515  129.88699341    0.41999999    2.91000009
   15.05277824  132.67199707    0.40000001    2.89000010
   15.05555534  133.57699585    0.40000001    2.89000010
   15.05638885  136.27000427    0.40000001    2.91000009
   15.05944443  130.33500671    0.40000001    2.89000010
   15.06277752  130.60600281    0.40000001    2.89000010
   15.06583309  138.80900574    0.40000001    2.91000009
   15.06916618  132.98899841    0.40000001    2.91000009
   15.07250023  128.51600647    0.40000001    2.91000009
   15.07555580  132.19400024    0.40000001    2.91000009
   15.07888889  130.45100403    0.41999999    2.89000010
   15.08500004  130.45100403    0.41999999    2.91000009
   15.08916664  126.35900116    0.44000000    2.91000009
   15.09222221  140.62500000    0.44000000    2.89000010
   15.09555531  139.13099670    0.44000000    2.89000010
   15.09888840  136.34700012    0.44000000    2.89000010
   15.10194492  140.10200500    0.44000000    2.89000010
   15.10527802  156.44700623    0.41999999    2.89000010
   15.10861111  127.67600250    0.41999999    2.89000010
   15.11166668  138.52699280    0.41999999    2.89000010
   15.11500072  140.84300232    0.41999999    2.89000010
   15.11833382  136.21400452    0.41999999    2.91000009
   15.12138939  132.84800720    0.41999999    2.89000010
   15.12222195  132.65899658    0.41999999    2.89000010
   15.12777805  132.65899658    0.41999999    2.89000010
   15.13194466  135.19099426    0.41999999    2.89000010
   15.13527775  145.71499634    0.41999999    2.89000010
   15.13833332  135.56900024    0.41999999    2.91000009
   15.14166641  139.23599243    0.41999999    2.91000009
   15.14499950  133.55900574    0.41999999    2.89000010
   15.14833355  138.09599304    0.41999999    2.89000010
   15.15138817  141.75799561    0.40000001    2.89000010
   15.15472221  137.35699463    0.40000001    2.91000009
   15.15555477  138.22999573    0.40000001    2.91000009
   15.15833282  130.95700073    0.41999999    2.89000010
   15.16138840  132.64599609    0.40000001    2.89000010
   15.16472149  128.85800171    0.40000001    2.89000010
   15.17055607  128.85800171    0.40000001    2.89000010
   15.17472267  130.10600281    0.40000001    2.89000010
   15.17805576  131.06300354    0.41999999    2.91000009
   15.18138885  125.30599976    0.41999999    2.91000009
   15.18444443  126.10800171    0.41999999    2.91000009
   15.18777752  128.61300659    0.40000001    2.89000010
   15.18888855  123.96800232    0.40000001    2.89000010
   15.19138908  135.15199280    0.40000001    2.89000010
   15.19444466  127.00199890    0.40000001    2.89000010
   15.19777775  128.61300659    0.41999999    2.91000009
   15.20083332  126.33300018    0.41999999    2.89000010
   15.20416641  130.98300171    0.41999999    2.89000010
   15.20749950  127.47599792    0.41999999    2.89000010
   15.21361065  127.47599792    0.41999999    2.89000010
   15.21749973  126.07800293    0.41999999    2.91000009
   15.22083282  126.89399719    0.41999999    2.89000010
   15.22222137  121.45899963    0.41999999    2.89000010
   15.22444439  131.37199402    0.41999999    2.89000010
   15.22749996  128.62500000    0.41999999    2.91000009
   15.23083305  125.49299622    0.41999999    2.89000010
   15.23416710  121.46800232    0.41999999    2.91000009
   15.23722267  127.67500305    0.41999999    2.91000009
   15.24055576  127.55500031    0.41999999    2.89000010
   15.24388885  126.96199799    0.41999999    2.89000010
   15.24694443  124.66200256    0.41999999    2.91000009
   15.25027752  121.79000092    0.41999999    2.89000010
   15.25638866  121.79000092    0.44000000    2.91000009
   15.26055527  130.34300232    0.44000000    2.86999989
   15.26361084  130.74299622    0.46000001    2.91000009
   15.26694393  133.54400635    0.46000001    2.91000009
   15.27027798  134.07099915    0.46000001    2.89000010
   15.27333355  121.56500244    0.46000001    2.91000009
   15.27666664  127.44899750    0.47999999    2.91000009
   15.27999973  134.73199463    0.47999999    2.89000010
   15.28305531  134.55900574    0.47999999    2.91000009
   15.28638935  129.77400208    0.47999999    2.89000010
   15.28888893  136.86300659    0.47999999    2.89000010
   15.30944443  136.86300659    0.47999999    2.89000010
   15.31361103  139.38800049    0.50000000    2.89000010
   15.31694412  136.06199646    0.50000000    2.91000009
   15.31999969  135.81799316    0.50000000    2.89000010
   15.32222176  121.26300049    0.50000000    2.89000010
   15.32388878  137.31300354    0.51999998    2.89000010
   15.32722187  135.36700439    0.51999998    2.89000010
   15.33027744  122.31700134    0.50000000    2.89000010
   15.33361053  129.07099915    0.50000000    2.89000010
   15.33694458  120.96800232    0.50000000    2.89000010
   15.34000015  127.22399902    0.50000000    2.89000010
   15.34333324  125.55599976    0.50000000    2.91000009
   15.34638882  129.28999329    0.50000000    2.89000010
   15.35222244  129.28999329    0.50000000    2.89000010
   15.35638905  124.87599945    0.50000000    2.91000009
   15.35972214  128.84300232    0.51999998    2.91000009
   15.36277771  130.38299561    0.51999998    2.91000009
   15.36611176  128.56300354    0.51999998    2.89000010
   15.36944485  126.31400299    0.51999998    2.89000010
   15.37250042  130.58000183    0.51999998    2.89000010
   15.37583351  130.41299438    0.51999998    2.89000010
   15.37888908  126.12599945    0.51999998    2.89000010
   15.49583340   -1.00000000   -1.00000000   -1.00000000
   15.61666679   -1.00000000   -1.00000000   -1.00000000
   15.79472256   -1.00000000   -1.00000000   -1.00000000
   15.87638855  134.63200378    0.38000000    2.91000009
   15.87972260  145.57800293    0.38000000    2.91000009
   15.88277817  132.85400391    0.36000001    2.91000009
   15.88611126  131.56700134    0.36000001    2.91000009
   15.88944435  140.25599670    0.36000001    2.89000010
   15.89249992  137.86099243    0.36000001    2.91000009
   15.89666653  137.86099243    0.36000001    2.91000009
   15.90083313  133.78500366    0.34000000    2.91000009
   15.90416622  135.15899658    0.36000001    2.91000009
   15.90722179  130.34300232    0.34000000    2.91000009
   15.90972137  134.11000061    0.36000001    2.91000009
   15.91083336  133.03900146    0.36000001    2.91000009
   15.91388893  135.31199646    0.36000001    2.91000009
   15.91722298  134.53500366    0.36000001    2.91000009
   15.92055607  129.15499878    0.36000001    2.91000009
   15.92361164  138.12399292    0.36000001    2.91000009
   15.92694473  130.69099426    0.36000001    2.91000009
   15.93000031  134.76300049    0.36000001    2.91000009
   15.93333340  127.86699677    0.36000001    2.93000007
   15.93944454  127.86699677    0.40000001    2.91000009
   15.94388866  128.56100464    0.40000001    2.91000009
   15.94722271  126.74099731    0.40000001    2.91000009
   15.95027733  123.33999634    0.40000001    2.91000009
   15.95361137  126.21700287    0.40000001    2.91000009
   15.95666695  129.55499268    0.40000001    2.91000009
   15.96000004  130.81399536    0.40000001    2.91000009
   15.96333313  141.10200500    0.38000000    2.91000009
   15.96638870  138.50700378    0.40000001    2.91000009
   15.96972179  130.85800171    0.40000001    2.91000009
   15.97305489  131.97099304    0.38000000    2.91000009
   15.97611046  136.91299438    0.40000001    2.89000010
   15.97666645  133.11799622    0.40000001    2.89000010
   15.98249912  133.11799622    0.40000001    2.91000009
   15.98638916  129.15499878    0.38000000    2.91000009
   15.98972225  137.84800720    0.40000001    2.91000009
   15.99305534  134.48100281    0.40000001    2.91000009
   15.99611092  125.08499908    0.40000001    2.91000009
   15.99944496  129.62199402    0.40000001    2.91000009
   16.00277710  127.05500031    0.40000001    2.91000009
   16.00583267  129.88299561    0.40000001    2.91000009
   16.00916672  130.97999573    0.40000001    2.91000009
   16.01000023  135.27600098    0.40000001    2.91000009
   16.01277733  125.76399994    0.40000001    2.91000009
   16.01583290  131.66299438    0.40000001    2.93000007
   16.01916695  124.44200134    0.40000001    2.91000009
   16.02527809  124.44200134    0.40000001    2.91000009
   16.02944374  131.70799255    0.40000001    2.91000009
   16.03249931  134.52600098    0.40000001    2.89000010
   16.03583336  135.36099243    0.40000001    2.91000009
   16.03888893  130.03799438    0.40000001    2.91000009
   16.04222107  131.39500427    0.40000001    2.91000009
   16.04333305  126.41999817    0.40000001    2.91000009
   16.04583359  136.66700745    0.41999999    2.91000009
   16.04888916  129.50199890    0.41999999    2.91000009
   16.05222130  130.69200134    0.40000001    2.91000009
   16.05555534  134.58299255    0.40000001    2.91000009
   16.05861092  126.52700043    0.40000001    2.91000009
   16.06194305  131.51300049    0.41999999    2.91000009
   16.06805611  131.51300049    0.41999999    2.91000009
   16.07222366  128.71600342    0.40000001    2.91000009
   16.07527924  123.57599640    0.40000001    2.91000009
   16.07666779  131.66200256    0.40000001    2.91000009
   16.07916832  126.77600098    0.40000001    2.89000010
   16.08222389  133.35600281    0.40000001    2.91000009
   16.08555603  118.37300110    0.40000001    2.91000009
   16.08889008  122.19699860    0.40000001    2.89000010
   16.09194565  123.50700378    0.38000000    2.91000009
   16.09527779  123.84500122    0.38000000    2.91000009
   16.09833336  125.18000031    0.38000000    2.91000009
   16.10166740  131.36099243    0.38000000    2.91000009
   16.10499954  128.65499878    0.38000000    2.91000009
   16.11083412  128.65499878    0.38000000    2.91000009
   16.11499977  128.13800049    0.36000001    2.91000009
   16.11833382  123.99299622    0.38000000    2.91000009
   16.12138939  124.01200104    0.36000001    2.91000009
   16.12472153  130.23899841    0.38000000    2.91000009
   16.12805557  122.04399872    0.36000001    2.91000009
   16.13111115  131.53900146    0.38000000    2.91000009
   16.13444519  122.34300232    0.38000000    2.91000009
   16.13750076  122.08699799    0.34000000    2.91000009
   16.14083290  125.57399750    0.36000001    2.91000009
   16.14333344  124.92600250    0.36000001    2.91000009
   16.14444351  126.42700195    0.36000001    2.91000009
   16.14749908  129.73500061    0.36000001    2.91000009
   16.15388870  129.73500061    0.36000001    2.91000009
   16.15777779  127.00900269    0.36000001    2.91000009
   16.16110992  130.90299988    0.36000001    2.91000009
   16.16444397  127.60700226    0.36000001    2.91000009
   16.16749954  132.86099243    0.36000001    2.91000009
   16.17083359  126.51300049    0.36000001    2.91000009
   16.17416573  129.14500427    0.36000001    2.91000009
   16.17666626  132.03900146    0.36000001    2.91000009
   16.17777634  129.60200500    0.36000001    2.91000009
   16.18083191  131.43499756    0.36000001    2.91000009
   16.18416595  130.75799561    0.36000001    2.91000009
   16.18750000  125.92500305    0.36000001    2.91000009
   16.19055557  132.72399902    0.36000001    2.91000009
   16.19666672  132.72399902    0.36000001    2.91000009
   16.20083427  127.47299957    0.36000001    2.91000009
   16.20388985  125.53299713    0.36000001    2.91000009
   16.20722389  127.37500000    0.36000001    2.91000009
   16.21000099  126.67900085    0.36000001    2.91000009
   16.21083450  125.55500031    0.36000001    2.91000009
   16.21389008  123.21600342    0.36000001    2.91000009
   16.21722221  124.96199799    0.36000001    2.91000009
   16.22055626  130.01199341    0.38000000    2.91000009
   16.22361183  133.86399841    0.36000001    2.91000009
   16.22694588  126.61599731    0.36000001    2.91000009
   16.23027802  123.74099731    0.36000001    2.91000009
   16.23333359  123.30200195    0.36000001    2.91000009
   16.23944473  123.30200195    0.36000001    2.91000009
   16.24361229  127.86699677    0.36000001    2.91000009
   16.24666786  135.18499756    0.38000000    2.91000009
   16.25000000  127.33100128    0.36000001    2.91000009
   16.25333405  132.53900146    0.38000000    2.91000009
   16.25638962  128.73699951    0.36000001    2.91000009
   16.25972176  128.26899719    0.38000000    2.91000009
   16.26305580  133.83399963    0.38000000    2.91000009
   16.26611137  131.35299683    0.36000001    2.93000007
   16.26944351  128.69900513    0.36000001    2.91000009
   16.27249908  136.74899292    0.36000001    2.91000009
   16.27583313  128.64599609    0.36000001    2.91000009
   16.27666664  124.86699677    0.36000001    2.91000009
   16.28222275  124.86699677    0.36000001    2.89000010
   16.28666687  128.16299438    0.36000001    2.91000009
   16.28972244  120.95999908    0.36000001    2.91000009
   16.29305458  129.13900757    0.36000001    2.91000009
   16.29611015  128.11900330    0.36000001    2.91000009
   16.29944420  126.80500031    0.36000001    2.91000009
   16.30277634  122.29799652    0.36000001    2.91000009
   16.30583191  131.50799561    0.36000001    2.91000009
   16.30916595  134.19900513    0.38000000    2.93000007
   16.30999947  130.37300110    0.38000000    2.93000007
   16.31277657  124.51999664    0.36000001    2.91000009
   16.31583214  123.97399902    0.36000001    2.91000009
   16.31916809  124.23600006    0.36000001    2.91000009
   16.32500076  124.23600006    0.36000001    2.91000009
   16.32916832  131.02000427    0.38000000    2.93000007
   16.33250046  123.75399780    0.38000000    2.91000009
   16.33583450  118.45800018    0.38000000    2.91000009
   16.33889008  124.82900238    0.38000000    2.91000009
   16.34222221  127.14199829    0.38000000    2.93000007
   16.34333420  126.58499908    0.36000001    2.91000009
   16.34583473  127.33399963    0.36000001    2.91000009
   16.34916687  128.42799377    0.36000001    2.91000009
   16.35222244  124.10500336    0.40000001    2.91000009
   16.35555649  125.45600128    0.40000001    2.91000009
   16.35861206  122.66999817    0.38000000    2.91000009
   16.36194420  132.36599731    0.40000001    2.91000009
   16.36805534  132.36599731    0.40000001    2.91000009
   16.37194443  125.32499695    0.40000001    2.91000009
   16.37527847  126.74400330    0.40000001    2.91000009
   16.37666702  127.66000366    0.40000001    2.91000009
   16.37888908  120.29799652    0.40000001    2.91000009
   16.38194466  132.34300232    0.40000001    2.91000009
   16.38527679  132.49099731    0.38000000    2.91000009
   16.38861084  130.99400330    0.40000001    2.91000009
   16.39194489  138.93800354    0.40000001    2.91000009
   16.39500046  133.60800171    0.38000000    2.91000009
   16.39833260  128.45799255    0.38000000    2.91000009
   16.40166664  125.73100281    0.38000000    2.91000009
   16.40472221  126.87200165    0.40000001    2.89000010
   16.41083336  126.87200165    0.38000000    2.91000009
   16.41499901  123.55400085    0.38000000    2.91000009
   16.41805458  127.38300323    0.40000001    2.91000009
   16.42138863  125.97000122    0.40000001    2.91000009
   16.42472076  121.12300110    0.40000001    2.91000009
   16.42777634  130.31399536    0.40000001    2.91000009
   16.43111038  123.72399902    0.40000001    2.89000010
   16.43416595  128.20599365    0.40000001    2.89000010
   16.43750000  114.31099701    0.41999999    2.91000009
   16.44083214  122.63099670    0.41999999    2.91000009
   16.44333267  132.12500000    0.41999999    2.91000009
   16.44444275  126.59799957    0.41999999    2.91000009
   16.44749832  125.04100037    0.44000000    2.89000010
   16.45361137  125.04100037    0.44000000    2.91000009
   16.45777893  131.67799377    0.44000000    2.91000009
   16.46111107  128.50999451    0.44000000    2.91000009
   16.46416664  126.00900269    0.44000000    2.91000009
   16.46750069  133.45199585    0.44000000    2.91000009
   16.47083473  123.77200317    0.44000000    2.91000009
   16.47389030  128.54600525    0.44000000    2.91000009
   16.47666740  125.77999878    0.44000000    2.91000009
   16.47750092  125.22200012    0.44000000    2.91000009
   16.48055649  123.85500336    0.44000000    2.91000009
   16.48388863  129.74400330    0.44000000    2.89000010
   16.48722267  124.72100067    0.44000000    2.91000009
   16.49027824  127.32299805    0.44000000    2.91000009
   16.49638939  127.32299805    0.44000000    2.91000009
   16.50055504  123.76599884    0.44000000    2.93000007
   16.50388908  127.45700073    0.44000000    2.91000009
   16.50694466  122.67099762    0.44000000    2.89000010
   16.51000023  120.76899719    0.44000000    2.89000010
   16.51083374  115.58899689    0.44000000    2.89000010
   16.51416588  123.42099762    0.44000000    2.89000010
   16.51722145  115.85399628    0.44000000    2.91000009
   16.52055550  123.79799652    0.44000000    2.91000009
   16.52361107  119.07900238    0.44000000    2.91000009
   16.52694511  121.04100037    0.44000000    2.91000009
   16.53027725  125.12699890    0.44000000    2.89000010
   16.53333282  120.28800201    0.44000000    2.91000009
   16.53944397  120.28800201    0.44000000    2.89000010
   16.54333305  133.03700256    0.44000000    2.91000009
   16.54666710  124.16200256    0.44000000    2.91000009
   16.54999924  129.41099548    0.44000000    2.91000009
   16.55305481  124.14099884    0.44000000    2.91000009
   16.55638885  135.07099915    0.44000000    2.93000007
   16.55972099  127.57199860    0.44000000    2.91000009
   16.56277657  126.92900085    0.44000000    2.91000009
   16.56611061  129.44000244    0.44000000    2.91000009
   16.56916809  123.23300171    0.44000000    2.91000009
   16.57250023  128.98100281    0.44000000    2.91000009
   16.57583427  118.28900146    0.44000000    2.91000009
   16.57666779  123.05400085    0.44000000    2.91000009
   16.58222389  123.05400085    0.41999999    2.91000009
   16.58638954  122.51599884    0.41999999    2.91000009
   16.58944511  125.29000092    0.44000000    2.91000009
   16.59277916  121.02300262    0.44000000    2.93000007
   16.59611130  121.72799683    0.44000000    2.89000010
   16.59916687  122.59999847    0.44000000    2.91000009
   16.60250092  127.91799927    0.44000000    2.91000009
   16.60583305  128.94299316    0.44000000    2.91000009
   16.60888863  126.51599884    0.44000000    2.91000009
   16.61000061  130.99499512    0.44000000    2.91000009
   16.61250114  131.69799805    0.44000000    2.91000009
   16.61583328  123.73100281    0.44000000    2.91000009
   16.61888885  123.89600372    0.44000000    2.93000007
   16.62500000  123.89600372    0.44000000    2.91000009
   16.62916756  124.41999817    0.44000000    2.89000010
   16.63249969  114.97899628    0.44000000    2.89000010
   16.63555527  122.99800110    0.41999999    2.89000010
   16.63888931  119.34999847    0.44000000    2.91000009
   16.64222145  111.05899811    0.44000000    2.91000009
   16.64333344  130.14599609    0.44000000    2.91000009
   16.64583397  127.04399872    0.41999999    2.93000007
   16.64916611  126.18800354    0.44000000    2.91000009
   16.65222168  119.66600037    0.44000000    2.91000009
   16.65555573  122.02999878    0.44000000    2.91000009
   16.65861130  124.43399811    0.44000000    2.93000007
   16.66194344  132.19299316    0.44000000    2.91000009
   16.66777802  132.19299316    0.44000000    2.91000009
   16.67194366  127.45500183    0.46000001    2.91000009
   16.67527771  128.58700562    0.46000001    2.91000009
   16.67666626  130.75700378    0.46000001    2.91000009
   16.67888832  126.47299957    0.44000000    2.91000009
   16.68222237  130.23500061    0.44000000    2.91000009
   16.68527603  118.17400360    0.44000000    2.91000009
   16.68861008  121.28800201    0.46000001    2.93000007
   16.69166565  119.65699768    0.46000001    2.91000009
   16.69499969  125.69400024    0.47999999    2.91000009
   16.69833183  127.15000153    0.50000000    2.91000009
   16.70138931  130.36700439    0.50000000    2.91000009
   16.70472336  118.03199768    0.47999999    2.91000009
   16.71083450  118.03199768    0.47999999    2.93000007
   16.71472359  121.48999786    0.47999999    2.91000009
   16.71805573  127.52400208    0.47999999    2.91000009
   16.72138977  119.55799866    0.47999999    2.91000009
   16.72444534  126.73200226    0.50000000    2.91000009
   16.72777748  122.00499725    0.50000000    2.89000010
   16.73111153  128.91700745    0.50000000    2.89000010
   16.73416710  127.81600189    0.47999999    2.91000009
   16.73750114  124.56999969    0.50000000    2.91000009
   16.74055672  127.71800232    0.50000000    2.89000010
   16.74333382  128.34399414    0.51999998    2.91000009
   16.74416733  120.84100342    0.51999998    2.91000009
   16.74749947  129.30099487    0.51999998    2.91000009
   16.75361061  129.30099487    0.51999998    2.91000009
   16.75777817  113.47000122    0.51999998    2.91000009
   16.76083374  122.93699646    0.51999998    2.91000009
   16.76416588  128.38600159    0.51999998    2.91000009
   16.76749992  121.14600372    0.51999998    2.91000009
   16.77055550  128.16000366    0.52999997    2.91000009
   16.77388954  125.84700012    0.55000001    2.89000010
   16.77666664  130.18499756    0.58999997    2.91000009
   16.77750015  128.37600708    0.58999997    2.91000009
   16.78083229  124.39099884    0.56999999    2.89000010
   16.78388786  126.09100342    0.56999999    2.89000010
   16.78722191  121.84400177    0.58999997    2.91000009
   16.79027748  125.27300262    0.58999997    2.91000009
   16.79638863  125.27300262    0.63000000    2.93000007
   16.80055428  120.58000183    0.64999998    2.91000009
   16.80360985  121.56400299    0.69000000    2.91000009
   16.80694389  121.35299683    0.69000000    2.91000009
   16.80999947  124.24299622    0.73000002    2.91000009
   16.81055450  131.55200195    0.73000002    2.91000009
   16.81388855  120.92900085    0.69000000    2.91000009
   16.81694603  124.69899750    0.64999998    2.89000010
   16.82027817  127.08100128    0.64999998    2.91000009
   16.82333374  126.73500061    0.64999998    2.91000009
   16.82666779  128.44599915    0.64999998    2.91000009
   16.83000183  126.82900238    0.67000002    2.91000009
   16.83305550  129.18600464    0.69000000    2.91000009
   16.83916664  129.18600464    0.67000002    2.91000009
   16.84333420  122.26999664    0.61000001    2.91000009
   16.84388924  122.99800110    0.61000001    2.91000009
   16.84694481  118.58000183    0.56999999    2.91000009
   16.85027885  129.34300232    0.56999999    2.91000009
   16.85361099  125.76899719    0.56999999    2.91000009
   16.85666656  124.48699951    0.55000001    2.91000009
   16.86000061  123.96199799    0.56999999    2.89000010
   16.86333466  126.51399994    0.56999999    2.91000009
   16.86638832  123.90299988    0.55000001    2.89000010
   16.86972237  126.40599823    0.55000001    2.89000010
   16.87277794  122.77700043    0.55000001    2.91000009
   16.87611198  126.16799927    0.55000001    2.91000009
   16.89361191  124.46800232    0.55000001    2.91000009
   16.89777756  124.46800232    0.55000001    2.91000009
   16.90194321  113.27899933    0.52999997    2.89000010
   16.90499878  130.41299438    0.55000001    2.91000009
   16.90833282  119.41699982    0.52999997    2.89000010
   16.91166687  122.52500153    0.52999997    2.91000009
   16.91472244  124.83100128    0.52999997    2.91000009
   16.91805458  125.55100250    0.52999997    2.91000009
   16.92111015  113.68699646    0.55000001    2.89000010
   16.92444420  120.33599854    0.52999997    2.91000009
   16.92694473  120.94400024    0.52999997    2.91000009
   16.92805481  123.56800079    0.52999997    2.91000009
   16.93138885  120.65799713    0.55000001    2.91000009
   16.93472099  116.54299927    0.55000001    2.89000010
   16.94055557  116.54299927    0.55000001    2.91000009
   16.94472122  123.28099823    0.55000001    2.91000009
   16.94805527  126.42099762    0.55000001    2.91000009
   16.95111275  123.18399811    0.52999997    2.89000010
   16.95444489  125.62699890    0.61000001    2.91000009
   16.95750046  122.67400360    0.58999997    2.91000009
   16.96027946  124.86299896    0.58999997    2.89000010
   16.96111107  125.58699799    0.58999997    2.89000010
   16.96444511  126.99800110    0.61000001    2.91000009
   16.96777916  120.24099731    0.61000001    2.91000009
   16.97083473  120.14600372    0.58999997    2.89000010
   16.97416687  121.11199951    0.58999997    2.91000009
   16.97750092  128.83299255    0.58999997    2.89000010
   16.98333359  128.83299255    0.56999999    2.91000009
   16.98750114  130.17399597    0.56999999    2.91000009
   16.99083328  122.90200043    0.56999999    2.89000010
   16.99361229  124.44300079    0.56999999    2.91000009
   16.99416733  121.44899750    0.56999999    2.91000009
   16.99749947  125.43199921    0.58999997    2.89000010
   17.00083351  127.74199677    0.55000001    2.91000009
   17.00388908  126.82299805    0.55000001    2.89000010
   17.00722313  124.15799713    0.55000001    2.89000010
   17.01055527  125.69599915    0.56999999    2.89000010
   17.01361084  127.00099945    0.56999999    2.91000009
   17.01694489  124.85700226    0.56999999    2.91000009
   17.02000046  125.85900116    0.56999999    2.89000010
   17.02638817  125.85900116    0.58999997    2.89000010
   17.03027725  126.72899628    0.61000001    2.89000010
   17.03361130  124.98100281    0.63000000    2.91000009
   17.03694344  127.41799927    0.61000001    2.89000010
   17.03999901  120.64800262    0.58999997    2.89000010
   17.04333305  129.03399658    0.58999997    2.89000010
   17.04666710  126.33200073    0.56999999    2.91000009
   17.04972076  127.25299835    0.61000001    2.91000009
   17.05305481  126.40699768    0.61000001    2.91000009
   17.05611038  123.19599915    0.58999997    2.89000010
   17.05944443  129.83799744    0.58999997    2.89000010
   17.06138802  124.41400146    0.56999999    2.89000010
   17.06333351  125.45400238    0.56999999    2.89000010
   17.06916809  125.45400238    0.61000001    2.89000010
   17.07361221  120.69899750    0.63000000    2.89000010
   17.07666779  120.25000000    0.64999998    2.89000010
   17.08000183  134.67799377    0.67000002    2.89000010
   17.08305550  127.80500031    0.67000002    2.89000010
   17.08638954  125.05500031    0.70999998    2.89000010
   17.08972359  123.66000366    0.70999998    2.89000010
   17.09277916  125.15499878    0.67000002    2.89000010
   17.09472275  129.90699768    0.67000002    2.89000010
   17.09666824  124.16200256    0.64999998    2.89000010
   17.09972191  123.66100311    0.63000000    2.91000009
   17.10305595  123.46099854    0.63000000    2.89000010
   17.10639000  120.24600220    0.63000000    2.89000010
   17.11194420  120.24600220    0.64999998    2.91000009
   17.11611176  125.30400085    0.64999998    2.89000010
   17.11944389  122.44899750    0.64999998    2.89000010
   17.12249947  129.41499329    0.64999998    2.89000010
   17.12583351  124.44499969    0.64999998    2.89000010
   17.12805557  129.96899414    0.67000002    2.89000010
   17.12944412  128.25599670    0.67000002    2.89000010
   17.13277817  124.58000183    0.67000002    2.89000010
   17.13583374  127.67900085    0.67000002    2.89000010
   17.13916588  128.10600281    0.63000000    2.91000009
   17.14249992  123.08100128    0.63000000    2.91000009
   17.14555550  128.74400330    0.61000001    2.86999989
   17.14888954  125.48300171    0.61000001    2.89000010
   17.15472221  125.48300171    0.58999997    2.89000010
   17.15888786  127.30300140    0.58999997    2.89000010
   17.16138840  128.34899902    0.58999997    2.89000010
   17.16250038  125.60900116    0.61000001    2.89000010
   17.16583252  127.76999664    0.58999997    2.89000010
   17.16888809  131.50500488    0.58999997    2.89000010
   17.17222214  132.32800293    0.56999999    2.89000010
   17.17555428  126.01699829    0.58999997    2.89000010
   17.17860985  122.72599792    0.58999997    2.89000010
   17.18194389  121.56600189    0.58999997    2.89000010
   17.18499947  129.82200623    0.61000001    2.89000010
   17.18833160  123.80599976    0.61000001    2.89000010
   17.19166565  131.13400269    0.63000000    2.89000010
   17.19777679  131.13400269    0.61000001    2.89000010
   17.20166779  122.06099701    0.61000001    2.89000010
   17.20499992  125.88099670    0.61000001    2.89000010
   17.20833397  133.49699402    0.61000001    2.86999989
   17.21138954  129.87100220    0.61000001    2.89000010
   17.21472359  127.20400238    0.61000001    2.89000010
   17.21805573  129.76199341    0.61000001    2.89000010
   17.22111130  128.16299438    0.61000001    2.89000010
   17.22444534  123.20400238    0.63000000    2.89000010
   17.22750092  123.58200073    0.63000000    2.89000010
   17.22861099  126.26399994    0.63000000    2.89000010
   17.23139000  127.90799713    0.63000000    2.89000010
   17.23444557  121.68099976    0.64999998    2.89000010
   17.24055672  121.68099976    0.67000002    2.89000010
   17.24472237  128.82000732    0.64999998    2.89000010
   17.24777794  118.31600189    0.64999998    2.89000010
   17.25111198  128.12699890    0.61000001    2.86999989
   17.25444412  124.11000061    0.63000000    2.89000010
   17.25749969  125.93499756    0.63000000    2.86999989
   17.26083374  123.19200134    0.61000001    2.89000010
   17.26194382  124.53600311    0.61000001    2.89000010
   17.26416588  131.13900757    0.63000000    2.86999989
   17.26749992  124.83599854    0.61000001    2.89000010
   17.27083397  131.90800476    0.63000000    2.89000010
   17.27388954  123.79799652    0.63000000    2.89000010
   17.27722168  125.30999756    0.63000000    2.89000010
   17.28333282  125.30999756    0.63000000    2.89000010
   17.28750038  128.43800354    0.63000000    2.89000010
   17.29055595  126.69799805    0.61000001    2.91000009
   17.29388809  127.02799988    0.58999997    2.89000010
   17.29527664  130.21699524    0.58999997    2.89000010
   17.29749870  127.96600342    0.61000001    2.89000010
   17.30083275  133.01199341    0.58999997    2.86999989
   17.30388832  129.50999451    0.58999997    2.86999989
   17.30722237  125.79599762    0.58999997    2.89000010
   17.31055450  130.91000366    0.58999997    2.89000010
   17.31361008  132.62600708    0.58999997    2.89000010
   17.31694603  130.50100708    0.58999997    2.89000010
   17.32027817  124.16600037    0.61000001    2.89000010
   17.32611275  124.16600037    0.63000000    2.89000010
   17.33027840  125.14399719    0.61000001    2.89000010
   17.33361244  126.91100311    0.61000001    2.89000010
   17.33666801  126.25900269    0.61000001    2.89000010
   17.34000015  128.06300354    0.61000001    2.89000010
   17.34333420  121.80599976    0.63000000    2.89000010
   17.34638977  122.55599976    0.63000000    2.89000010
   17.34972191  123.68399811    0.63000000    2.89000010
   17.35277748  125.55200195    0.63000000    2.89000010
   17.35611153  128.60099792    0.64999998    2.89000010
   17.35944557  131.94500732    0.64999998    2.86999989
   17.36194420  127.35199738    0.64999998    2.89000010
   17.36305618  125.55799866    0.64999998    2.89000010
   17.36888885  125.55799866    0.67000002    2.89000010
   17.37305641  126.72699738    0.64999998    2.89000010
   17.37638855  133.81599426    0.64999998    2.89000010
   17.37972260  127.54900360    0.63000000    2.89000010
   17.38277817  123.83699799    0.63000000    2.89000010
   17.38611031  125.11000061    0.63000000    2.89000010
   17.38916588  125.76200104    0.64999998    2.89000010
   17.39249992  127.35399628    0.64999998    2.89000010
   17.39527702  120.93499756    0.63000000    2.86999989
   17.39611053  126.05400085    0.63000000    2.86999989
   17.39944458  127.56800079    0.67000002    2.86999989
   17.40250015  126.58899689    0.69000000    2.89000010
   17.40583229  124.90599823    0.67000002    2.89000010
   17.41194344  124.90599823    0.69000000    2.89000010
   17.41611099  126.26200104    0.69000000    2.86999989
   17.41916656  123.51599884    0.67000002    2.89000010
   17.42249870  126.86699677    0.67000002    2.86999989
   17.42555428  129.86700439    0.69000000    2.86999989
   17.42888832  133.05700684    0.69000000    2.86999989
   17.42916679  123.87200165    0.69000000    2.86999989
   17.43249893  120.73600006    0.70999998    2.89000010
   17.43555450  127.45600128    0.70999998    2.89000010
   17.43888855  132.00900269    0.69000000    2.89000010
   17.44222069  130.19200134    0.69000000    2.89000010
   17.44527626  124.75000000    0.70999998    2.86999989
   17.44861031  119.73500061    0.70999998    2.86999989
   17.45472336  119.73500061    0.70999998    2.86999989
   17.45888901  129.64799500    0.73000002    2.89000010
   17.46194458  129.26600647    0.73000002    2.89000010
   17.46250153  129.30000305    0.73000002    2.89000010
   17.46583366  125.67199707    0.73000002    2.86999989
   17.46888924  126.31600189    0.73000002    2.86999989
   17.47249985  131.02600098    0.73000002    2.86999989
   17.47555542  129.92199707    0.75000000    2.89000010
   17.47888947  127.22100067    0.75000000    2.86999989
   17.48222351  127.20899963    0.75000000    2.86999989
   17.48555565  125.62799835    0.75000000    2.86999989
   17.48861122  127.79199982    0.75000000    2.86999989
   17.49194527  117.31199646    0.75000000    2.86999989
   17.49749947  117.31199646    0.75000000    2.86999989
   17.50166702  131.38400269    0.75000000    2.86999989
   17.50499916  125.45999908    0.75000000    2.86999989
   17.50805473  130.90899658    0.75000000    2.89000010
   17.51138878  127.26499939    0.73000002    2.86999989
   17.51472282  124.45300293    0.73000002    2.86999989
   17.51777840  127.59500122    0.70999998    2.89000010
   17.52111053  129.85600281    0.70999998    2.86999989
   17.52444458  125.97200012    0.70999998    2.86999989
   17.52750015  127.64700317    0.70999998    2.89000010
   17.52916718  123.78099823    0.70999998    2.89000010
   17.53111076  123.97000122    0.70999998    2.89000010
   17.53416634  130.39300537    0.70999998    2.86999989
   17.54027748  130.39300537    0.73000002    2.86999989
   17.54444313  128.32499695    0.73000002    2.86999989
   17.54777718  127.71800232    0.73000002    2.86999989
   17.55083275  126.68099976    0.70999998    2.89000010
   17.55416679  125.69599915    0.70999998    2.89000010
   17.55749893  126.37699890    0.73000002    2.86999989
   17.56055450  121.11299896    0.70999998    2.89000010
   17.56250000  125.40200043    0.70999998    2.89000010
   17.56444359  125.54599762    0.70999998    2.86999989
   17.56750107  125.60600281    0.70999998    2.86999989
   17.57083511  124.59600067    0.69000000    2.89000010
   17.57416725  128.36300659    0.69000000    2.89000010
   17.57722282  129.60000610    0.69000000    2.89000010
   17.58333397  129.60000610    0.64999998    2.89000010
   17.58750153  126.17299652    0.64999998    2.86999989
   17.59055710  133.52400208    0.64999998    2.89000010
   17.59388924  128.89500427    0.64999998    2.89000010
   17.59611130  128.11500549    0.67000002    2.89000010
   17.59749985  125.49299622    0.67000002    2.89000010
   17.60083389  130.88499451    0.67000002    2.86999989
   17.60388947  125.55999756    0.67000002    2.86999989
   17.60722351  129.47999573    0.67000002    2.89000010
   17.61055565  126.72599792    0.73000002    2.86999989
   17.61361122  123.63700104    0.75000000    2.86999989
   17.61694527  125.94899750    0.75000000    2.86999989
   17.62027740  124.42299652    0.75000000    2.86999989
   17.62611198  124.42299652    0.76999998    2.86999989
   17.63027763  123.78900146    0.76999998    2.86999989
   17.63333321  127.83699799    0.76999998    2.86999989
   17.63666725  125.55300140    0.76999998    2.86999989
   17.63999939  125.15200043    0.76999998    2.86999989
   17.64305496  119.38400269    0.79000002    2.86999989
   17.64638901  118.85299683    0.79000002    2.86999989
   17.64944458  122.47299957    0.80000001    2.86999989
   17.65277672  127.09899902    0.80000001    2.86999989
   17.65611076  126.29299927    0.80000001    2.86999989
   17.65916634  127.08899689    0.80000001    2.89000010
   17.66250038  127.62500000    0.79000002    2.89000010
   17.66305542  125.65799713    0.79000002    2.89000010
   17.66888809  125.65799713    0.79000002    2.86999989
   17.67305565  115.89299774    0.76999998    2.86999989
   17.67638779  117.47699738    0.76999998    2.86999989
   17.67944336  121.54599762    0.76999998    2.89000010
   17.68277740  122.54000092    0.76999998    2.89000010
   17.68610954  128.56199646    0.75000000    2.84999990
   17.68916512  128.68099976    0.76999998    2.89000010
   17.69249916  124.71700287    0.75000000    2.86999989
   17.69555473  117.64900208    0.75000000    2.89000010
   17.69638824  122.43399811    0.75000000    2.89000010
   17.69916534  122.73899841    0.75000000    2.89000010
   17.70250130  123.71900177    0.75000000    2.86999989
   17.70583344  120.68000031    0.73000002    2.86999989
   17.71166801  120.68000031    0.69000000    2.86999989
   17.71583366  118.71900177    0.69000000    2.86999989
   17.71916771  117.63500214    0.69000000    2.86999989
   17.72222328  124.35900116    0.69000000    2.86999989
   17.72555542  123.31900024    0.69000000    2.86999989
   17.72888947  122.69400024    0.67000002    2.86999989
   17.72972298  126.01599884    0.67000002    2.86999989
   17.73250008  123.05200195    0.67000002    2.89000010
   17.73555565  123.31999969    0.67000002    2.86999989
   17.73888969  131.08500671    0.67000002    2.86999989
   17.74194527  123.91200256    0.67000002    2.86999989
   17.74527740  122.11599731    0.67000002    2.89000010
   17.74861145  125.04699707    0.67000002    2.86999989
   17.75472260  125.04699707    0.67000002    2.86999989
   17.75861168  126.43099976    0.67000002    2.86999989
   17.76194382  129.13200378    0.67000002    2.86999989
   17.76305580  123.67099762    0.67000002    2.86999989
   17.76555634  126.79100037    0.67000002    2.86999989
   17.76888847  129.08900452    0.67000002    2.86999989
   17.77222252  127.26799774    0.64999998    2.86999989
   17.77527809  123.38600159    0.64999998    2.86999989
   17.77861023  124.09700012    0.64999998    2.89000010
   17.78194427  124.60800171    0.64999998    2.89000010
   17.78499985  118.73300171    0.67000002    2.89000010
   17.78833199  121.44499969    0.69000000    2.89000010
   17.79138756  121.81400299    0.69000000    2.89000010
   17.79749870  121.81400299    0.70999998    2.86999989
   17.80166626  125.84600067    0.70999998    2.86999989
   17.80472183  117.67800140    0.70999998    2.86999989
   17.80805397  122.63800049    0.67000002    2.86999989
   17.81138802  119.74500275    0.69000000    2.86999989
   17.81444359  116.54399872    0.64999998    2.86999989
   17.81777954  120.74299622    0.67000002    2.86999989
   17.82111168  119.03600311    0.67000002    2.86999989
   17.82416725  125.76399994    0.67000002    2.89000010
   17.82750130  119.34300232    0.67000002    2.89000010
   17.82972336  125.83300018    0.67000002    2.89000010
   17.83083344  123.86799622    0.67000002    2.89000010
   17.83416748  116.55999756    0.69000000    2.86999989
   17.84027863  116.55999756    0.69000000    2.86999989
   17.84444427  129.81900024    0.70999998    2.86999989
   17.84777832  126.81600189    0.70999998    2.86999989
   17.85083389  123.60099792    0.70999998    2.86999989
   17.85416794  119.72599792    0.70999998    2.86999989
   17.85750008  118.45899963    0.70999998    2.86999989
   17.86055565  125.15699768    0.70999998    2.86999989
   17.86305618  125.34200287    0.73000002    2.86999989
   17.86416626  126.14399719    0.73000002    2.86999989
   17.86750031  123.51399994    0.73000002    2.86999989
   17.87083435  128.01100159    0.75000000    2.86999989
   17.87388992  127.10500336    0.75000000    2.86999989
   17.87722206  129.50300598    0.75000000    2.86999989
   17.88305473  129.50300598    0.75000000    2.86999989
   17.88722229  129.22000122    0.75000000    2.86999989
   17.89055634  130.35800171    0.76999998    2.86999989
   17.89361191  129.07099915    0.76999998    2.86999989
   17.91083336  124.89600372    0.76999998    2.86999989
   17.91388893  123.36100006    0.75000000    2.86999989
   17.91694450  134.25799561    0.75000000    2.86999989
   17.92027664  126.87699890    0.75000000    2.86999989
   17.92611122  126.87699890    0.73000002    2.86999989
   17.93027687  126.45800018    0.73000002    2.86999989
   17.93361092  127.52600098    0.73000002    2.86999989
   17.93666649  124.91799927    0.75000000    2.86999989
   17.93999863  128.59399414    0.73000002    2.86999989
   17.94333267  129.35699463    0.73000002    2.86999989
   17.94416618  122.21800232    0.73000002    2.86999989
   17.94666672  125.35900116    0.73000002    2.84999990
   17.95000076  129.80400085    0.73000002    2.84999990
   17.95333481  125.69899750    0.73000002    2.86999989
   17.95639038  126.39700317    0.73000002    2.86999989
   17.95972252  127.70099640    0.73000002    2.86999989
   17.96277809  123.67800140    0.76999998    2.86999989
   17.96916771  123.67800140    0.79000002    2.86999989
   17.97305679  127.81500244    0.80000001    2.86999989
   17.97638893  127.04599762    0.80000001    2.86999989
   17.97750092  121.06500244    0.80000001    2.86999989
   17.98000145  126.75099945    0.80000001    2.86999989
   17.98333359  127.03099823    0.79000002    2.86999989
   17.98638916  132.26400757    0.76999998    2.86999989
   17.98972321  130.11999512    0.76999998    2.86999989
   17.99305534  131.52400208    0.76999998    2.86999989
   17.99638939  133.28599548    0.75000000    2.86999989
   17.99944496  114.22499847    0.73000002    2.86999989
   18.00277710  126.80899811    0.73000002    2.86999989
   18.00583267  129.15699768    0.70999998    2.84999990
   18.01194382  129.15699768    0.73000002    2.86999989
   18.01611137  130.44500732    0.70999998    2.86999989
   18.01916695  132.64700317    0.70999998    2.86999989
   18.02249908  126.32700348    0.69000000    2.86999989
   18.02555466  131.92399597    0.70999998    2.86999989
   18.02888870  133.50700378    0.76999998    2.86999989
   18.03222275  129.09800720    0.86000001    2.86999989
   18.03527641  126.50499725    0.86000001    2.86999989
   18.03861046  121.15799713    0.86000001    2.86999989
   18.04194450  128.85699463    0.86000001    2.86999989
   18.04416656  129.45899963    0.86000001    2.86999989
   18.04527664  126.01899719    0.86000001    2.86999989
   18.04861069  116.87699890    0.86000001    2.86999989
   18.05472183  116.87699890    0.92000002    2.89000010
   18.05888748  122.44300079    0.95999998    2.84999990
   18.06194305  125.34700012    0.95999998    2.84999990
   18.06527710  125.95800018    0.89999998    2.86999989
   18.06861115  126.44200134    1.01999998    2.86999989
   18.07166672  124.20400238    0.98000002    2.84999990
   18.07500076  118.89299774    0.94000000    2.84999990
   18.07750130  122.65899658    0.94000000    2.84999990
   18.07861137  121.88200378    0.95999998    2.86999989
   18.08194542  123.71700287    0.95999998    2.86999989
   18.08500099  120.23699951    0.94000000    2.86999989
   18.08833313  124.71700287    0.95999998    2.86999989
   18.09166718  126.47799683    0.95999998    2.86999989
   18.09749985  126.47799683    1.13000000    2.84999990
   18.10166740  126.08200073    3.91000009    2.78999996
   18.10499954  131.22000122    2.36999989    2.84999990
   18.10805511  125.63200378    2.17000008    2.84999990
   18.11083412  129.22300720    3.21000004    2.82999992
   18.11166763  114.53299713    3.72000003    2.82999992
   18.11499977  128.48100281    4.80999994    2.80999994
   18.11805534  134.47399902    4.90999985    2.80999994
   18.12138939  131.99400330    4.90999985    2.75000000
   18.12472153  141.27999878    4.90999985    2.71000004
   18.12777710  133.46099854    4.90999985    2.71000004
   18.13111115  130.60299683    4.90999985    2.73000002
   18.13444519  120.72000122    4.90999985    2.78999996
   18.14027786  120.72000122    2.94000006    2.84999990
   18.14444351  124.34200287    2.00000000    2.84999990
   18.14777756  127.83000183    1.98000002    2.84999990
   18.15111160  119.84200287    2.34999990    2.84999990
   18.15416718  123.34799957    2.34999990    2.84999990
   18.15749931  127.76599884    2.17000008    2.84999990
   18.16055489  128.19799805    1.98000002    2.86999989
   18.16388893  116.48600006    1.89999998    2.84999990
   18.16722107  127.16899872    1.80999994    2.84999990
   18.17027664  128.01400757    1.91999996    2.84999990
   18.17361069  121.28099823    1.94000006    2.84999990
   18.17694473  127.46800232    1.94000006    2.82999992
   18.17749977  124.54699707    1.94000006    2.82999992
   18.18333244  124.54699707    1.63000000    2.84999990
   18.18750000  126.16100311    1.66999996    2.84999990
   18.19055557  118.68399811    1.73000002    2.84999990
   18.19388771  118.68900299    1.66999996    2.84999990
   18.19694328  117.26499939    1.66999996    2.84999990
   18.20027924  119.34300232    1.60000002    2.84999990
   18.20361137  124.12799835    1.55999994    2.84999990
   18.20666695  120.12699890    1.75000000    2.84999990
   18.21000099  112.15799713    1.83000004    2.86999989
   18.21083450  115.74500275    1.83000004    2.86999989
   18.21361160  119.68000031    1.66999996    2.84999990
   18.21694565  116.69699860    1.55999994    2.84999990
   18.22027779  128.23399353    1.41999996    2.86999989
   18.22611237  128.23399353    1.50000000    2.84999990
   18.23027802  123.42500305    1.41999996    2.84999990
   18.23333359  129.19500732    1.16999996    2.86999989
   18.23666763  124.04100037    1.19000006    2.86999989
   18.23999977  123.24900055    1.19000006    2.84999990
   18.24305534  123.03700256    1.23000002    2.86999989
   18.24416733  124.54399872    1.23000002    2.86999989
   18.24666786  120.37599945    1.23000002    2.84999990
   18.25000000  129.28599548    1.19000006    2.84999990
   18.25333405  121.93699646    1.11000001    2.84999990
   18.25638962  127.52400208    1.11000001    2.84999990
   18.25972176  129.91900635    1.05999994    2.86999989
   18.26305580  124.72200012    1.60000002    2.84999990
   18.26888847  124.72200012    1.58000004    2.84999990
   18.27305603  119.98899841    1.60000002    2.82999992
   18.27638817  126.17700195    1.46000004    2.84999990
   18.27750015  124.29199982    1.46000004    2.84999990
   18.27972221  126.63899994    1.38000000    2.84999990
   18.28305435  122.75599670    1.19000006    2.86999989
   18.28638840  122.00000000    1.05999994    2.84999990
   18.28944397  125.50800323    1.01999998    2.86999989
   18.29277802  119.37200165    0.80000001    2.84999990
   18.29611015  128.10800171    0.79000002    2.84999990
   18.29916573  124.78800201    0.79000002    2.84999990
   18.30249977  120.88899994    0.79000002    2.86999989
   18.30555534  124.94499969    0.79000002    2.86999989
   18.31166649  124.94499969    0.76999998    2.86999989
   18.31583214  124.85299683    0.76999998    2.86999989
   18.31916809  124.77899933    0.75000000    2.86999989
   18.32222366  125.00499725    0.75000000    2.86999989
   18.32555580  125.91799927    0.76999998    2.86999989
   18.32888985  130.25900269    0.70999998    2.86999989
   18.33222389  125.62100220    0.69000000    2.84999990
   18.33527756  126.28800201    0.64999998    2.86999989
   18.33861160  120.55599976    0.63000000    2.86999989
   18.34166718  157.70500183    0.61000001    2.86999989
   18.34416771  127.06099701    0.61000001    2.86999989
   18.34527779  123.85600281    0.61000001    2.86999989
   18.34861183  124.47899628    0.58999997    2.86999989
   18.35472298  124.47899628    0.61000001    2.86999989
   18.35861206  125.73899841    0.61000001    2.86999989
   18.36194420  123.26200104    0.61000001    2.86999989
   18.36527824  125.75900269    0.63000000    2.86999989
   18.36833382  127.59899902    0.61000001    2.84999990
   18.37166595  125.73699951    0.63000000    2.84999990
   18.37500000  122.89600372    0.63000000    2.86999989
   18.37750053  128.82400513    0.64999998    2.86999989
   18.37833405  128.25300598    0.64999998    2.84999990
   18.38166618  116.71900177    0.64999998    2.86999989
   18.38500023  129.11099243    0.64999998    2.86999989
   18.38805580  125.13800049    0.64999998    2.84999990
   18.39138794  121.73600006    0.64999998    2.86999989
   18.39749908  121.73600006    0.67000002    2.86999989
   18.40166664  122.44699860    0.64999998    2.84999990
   18.40472221  126.81199646    0.67000002    2.84999990
   18.40805435  126.28900146    0.67000002    2.84999990
   18.41083336  121.49299622    0.67000002    2.84999990
   18.41166687  121.80999756    0.67000002    2.84999990
   18.41499901  122.15299988    0.67000002    2.84999990
   18.41833305  122.26200104    0.67000002    2.86999989
   18.42138863  122.60900116    0.64999998    2.84999990
   18.42472076  125.47499847    0.64999998    2.86999989
   18.42777634  124.31600189    0.64999998    2.86999989
   18.43111038  128.07899475    0.64999998    2.86999989
   18.43444443  124.87300110    0.64999998    2.86999989
   18.44027710  124.87300110    0.64999998    2.86999989
   18.44444275  122.67400360    0.64999998    2.84999990
   18.44777679  128.92100525    0.67000002    2.86999989
   18.45083427  121.39199829    0.67000002    2.86999989
   18.45416832  122.09600067    0.67000002    2.84999990
   18.45722389  120.38999939    0.64999998    2.84999990
   18.46055603  125.50199890    0.64999998    2.84999990
   18.46389008  131.49600220    0.64999998    2.84999990
   18.46694565  122.16000366    0.64999998    2.84999990
   18.47027779  120.53299713    0.64999998    2.84999990
   18.47333336  121.80000305    0.63000000    2.84999990
   18.47666740  123.87200165    0.63000000    2.86999989
   18.47750092  129.55099487    0.63000000    2.86999989
   18.48305511  129.55099487    0.63000000    2.86999989
   18.48722267  122.71800232    0.63000000    2.84999990
   18.49055672  122.36799622    0.63000000    2.84999990
   18.49361229  128.31300354    0.63000000    2.84999990
   18.49694443  125.72399902    0.64999998    2.86999989
   18.50027847  127.87000275    0.69000000    2.86999989
   18.50333405  125.75599670    0.70999998    2.86999989
   18.50666618  127.19699860    0.64999998    2.84999990
   18.51000023  126.53500366    0.64999998    2.86999989
   18.51083374  126.04499817    0.64999998    2.86999989
   18.51333427  129.76499939    0.64999998    2.84999990
   18.51666641  125.28199768    0.61000001    2.84999990
   18.52000046  132.02699280    0.58999997    2.86999989
   18.52583313  132.02699280    0.61000001    2.86999989
   18.53000069  127.20899963    0.58999997    2.84999990
   18.53333282  130.71000671    0.58999997    2.86999989
   18.53666687  129.41499329    0.61000001    2.86999989
   18.53972244  133.40299988    0.58999997    2.86999989
   18.54305458  125.53600311    0.61000001    2.86999989
   18.54416656  125.60900116    0.61000001    2.86999989
   18.54638863  122.25499725    0.63000000    2.84999990
   18.54972076  123.30799866    0.63000000    2.84999990
   18.55305481  127.20500183    0.63000000    2.84999990
   18.55611038  123.74700165    0.63000000    2.84999990
   18.55944443  122.06800079    0.64999998    2.86999989
   18.56277657  124.81400299    0.64999998    2.84999990
   18.56888962  124.81400299    0.67000002    2.84999990
   18.57305717  217.12399292    0.67000002    2.84999990
   18.57611275  128.64100647    0.64999998    2.86999989
   18.57750130  132.58200073    0.64999998    2.86999989
   18.57972336  128.66299438    0.73000002    2.84999990
   18.58305550  135.88200378    0.73000002    2.84999990
   18.58638954  128.66999817    0.89999998    2.84999990
   18.58972359  131.69099426    1.33000004    2.84999990
   18.59277916  124.07499695    0.94000000    2.84999990
   18.59611130  124.80899811    0.95999998    2.84999990
   18.59916687  124.67400360    1.01999998    2.84999990
   18.60250092  122.34500122    0.89999998    2.84999990
   18.60583305  124.96800232    0.79000002    2.84999990
   18.61166763  124.96800232    0.67000002    2.86999989
   18.61583328  124.91799927    0.64999998    2.84999990
   18.61916733  122.21499634    0.58999997    2.86999989
   18.62222290  121.41899872    0.63000000    2.84999990
   18.62555504  118.16400146    0.63000000    2.84999990
   18.62861061  120.84999847    0.63000000    2.84999990
   18.63194466  125.14900208    0.63000000    2.86999989
   18.63527679  126.73300171    0.64999998    2.84999990
   18.63833237  130.56300354    0.67000002    2.84999990
   18.64166641  127.26799774    0.67000002    2.84999990
   18.64416695  125.91600037    0.64999998    2.86999989
   18.64527702  130.22700500    0.64999998    2.86999989
   18.64833260  127.65499878    0.69000000    2.84999990
   18.65444374  127.65499878    0.64999998    2.84999990
   18.65861130  129.86500549    0.63000000    2.84999990
   18.66194344  128.25399780    0.63000000    2.84999990
   18.66527748  129.17799377    0.63000000    2.86999989
   18.66833305  118.63200378    0.63000000    2.84999990
   18.67166519  129.63499451    0.63000000    2.84999990
   18.67499924  123.44699860    0.63000000    2.84999990
   18.67749977  127.25499725    0.64999998    2.84999990
   18.67833328  125.37000275    0.64999998    2.84999990
   18.68166542  122.00599670    0.67000002    2.84999990
   18.68499947  121.28800201    0.64999998    2.86999989
   18.68805504  118.74800110    0.64999998    2.86999989
   18.69138718  124.76699829    0.67000002    2.84999990
   18.69722176  124.76699829    0.70999998    2.84999990
   18.70138931  125.76599884    0.75000000    2.84999990
   18.70472336  131.85899353    0.70999998    2.84999990
   18.70805550  119.66899872    0.73000002    2.84999990
   18.71083450  125.06500244    0.73000002    2.84999990
   18.71138954  123.81199646    0.73000002    2.84999990
   18.71472359  117.12200165    0.73000002    2.84999990
   18.71805573  117.83599854    0.75000000    2.86999989
   18.72111130  123.34500122    0.79000002    2.84999990
   18.72444534  122.86900330    0.81999999    2.84999990
   18.72750092  124.90499878    1.11000001    2.82999992
   18.73083305  117.81199646    1.14999998    2.82999992
   18.73416710  117.09300232    0.81999999    2.84999990
   18.74027824  117.09300232    0.83999997    2.84999990
   18.74416733  126.00800323    0.86000001    2.84999990
   18.74749947  123.55999756    0.92000002    2.84999990
   18.75083351  120.52300262    0.92000002    2.84999990
   18.75388908  122.16600037    1.00000000    2.82999992
   18.75722313  124.42700195    1.05999994    2.84999990
   18.76055527  119.88999939    0.95999998    2.84999990
   18.76361084  119.14399719    0.98000002    2.82999992
   18.76694489  121.74900055    2.17000008    2.82999992
   18.77000046  118.42199707    2.05999994    2.82999992
   18.77333260  118.94899750    1.33000004    2.82999992
   18.77666664  114.97899628    1.25000000    2.84999990
   18.77750015  118.70700073    1.16999996    2.84999990
   18.78305435  118.70700073    0.88000000    2.84999990
   18.78722191  122.78900146    0.86000001    2.82999992
   18.79027748  125.06099701    0.83999997    2.84999990
   18.79361153  116.52799988    0.80000001    2.84999990
   18.79694366  118.90599823    0.79000002    2.84999990
   18.79999924  128.23899841    0.76999998    2.84999990
   18.80333328  121.75000000    0.76999998    2.84999990
   18.80638885  125.76200104    0.73000002    2.84999990
   18.80972099  122.55300140    0.69000000    2.84999990
   18.81083298  121.37300110    0.69000000    2.84999990
   18.81333351  118.88500214    0.67000002    2.84999990
   18.81666756  117.31199646    0.67000002    2.86999989
   18.82000160  123.50599670    0.64999998    2.86999989
   18.82583427  123.50599670    0.64999998    2.84999990
   18.83000183  128.05700684    0.64999998    2.84999990
   18.83333397  123.70200348    0.64999998    2.84999990
   18.83638954  125.68699646    0.64999998    2.84999990
   18.83972359  126.34899902    0.70999998    2.84999990
   18.84277916  124.53299713    0.75000000    2.86999989
   18.84416771  120.23899841    0.75000000    2.86999989
   18.84638977  126.21800232    0.76999998    2.84999990
   18.84972191  121.00700378    0.76999998    2.84999990
   18.85305595  124.43699646    0.79000002    2.84999990
   18.85611153  124.65000153    0.81999999    2.84999990
   18.85944557  120.76100159    0.98000002    2.82999992
   18.86277771  123.75499725    0.98000002    2.82999992
   18.86861038  123.75499725    0.95999998    2.84999990
   18.87277794  122.94400024    0.89999998    2.82999992
   18.87611198  122.78700256    0.94000000    2.84999990
   18.87750053  123.48400116    0.94000000    2.84999990
   18.87972260  120.58399963    0.81999999    2.84999990
   18.88277817  119.67700195    0.70999998    2.84999990
   18.88611031  122.16600037    0.70999998    2.84999990
   18.88916588  123.48300171    0.69000000    2.84999990
   18.89249992  125.04000092    0.63000000    2.84999990
   18.89583397  127.87300110    0.63000000    2.84999990
   18.89888954  122.91100311    0.61000001    2.84999990
   18.90222168  122.65299988    0.58999997    2.84999990
   18.90555573  119.80899811    0.58999997    2.84999990
   18.92777634  124.43499756    0.61000001    2.84999990
   18.92833328  127.29799652    0.61000001    2.84999990
   18.93166542  128.91299438    0.58999997    2.84999990
   18.93472099  126.72799683    0.58999997    2.84999990
   18.93805504  123.47200012    0.61000001    2.84999990
   18.94138718  127.76999664    0.64999998    2.84999990
   18.94416618  128.09500122    4.90999985    2.76999998
   18.94499969  128.09500122    4.26999998    2.80999994
   18.94805527  119.57900238    2.93000007    2.82999992
   18.95444489  119.57900238    0.55000001    2.84999990
   18.95861244  122.34799957    0.55000001    2.82999992
   18.96194458  124.59300232    0.55000001    2.82999992
   18.96500015  118.24099731    0.58999997    2.82999992
   18.96833420  114.20899963    0.58999997    2.84999990
   18.97138977  127.15499878    0.61000001    2.84999990
   18.97472191  120.17400360    0.63000000    2.84999990
   18.97750092  119.12699890    0.63000000    2.84999990
   18.97805595  125.12200165    0.63000000    2.82999992
   18.98139000  120.08100128    0.63000000    2.84999990
   18.98472214  121.20999908    0.63000000    2.84999990
   18.98777771  117.28399658    0.63000000    2.84999990
   18.99111176  116.11100006    0.63000000    2.84999990
   18.99722290  116.11100006    0.61000001    2.84999990
   19.00138855  117.79399872    0.61000001    2.84999990
   19.00472260  122.22799683    0.61000001    2.84999990
   19.00777817  128.17799377    0.61000001    2.82999992
   19.01083374  123.04199982    0.61000001    2.84999990
   19.01166725  125.06400299    0.61000001    2.82999992
   19.01472282  128.52499390    0.61000001    2.82999992
   19.01805496  119.29100037    0.58999997    2.84999990
   19.02138901  121.25499725    0.61000001    2.84999990
   19.02444458  115.84200287    0.58999997    2.84999990
   19.02777672  122.03500366    0.58999997    2.82999992
   19.03083229  122.05500031    0.61000001    2.82999992
   19.03416634  113.04299927    0.61000001    2.84999990
   19.04027748  113.04299927    0.61000001    2.84999990
   19.04416656  121.38099670    0.63000000    2.82999992
   19.04749870  116.75299835    0.61000001    2.84999990
   19.05083275  122.27200317    0.61000001    2.82999992
   19.05388832  123.43399811    0.63000000    2.82999992
   19.05722237  114.53199768    0.63000000    2.82999992
   19.06055450  114.12899780    0.63000000    2.82999992
   19.06361008  120.19499969    0.63000000    2.82999992
   19.06694603  122.71399689    0.63000000    2.82999992
   19.07000160  118.12799835    0.67000002    2.84999990
   19.07333374  118.55599976    0.73000002    2.82999992
   19.07666779  125.49500275    0.75000000    2.82999992
   19.07750130  122.65200043    0.75000000    2.82999992
   19.08305550  122.65200043    0.73000002    2.84999990
   19.08722305  134.50500488    0.73000002    2.82999992
   19.09055710  126.38300323    0.73000002    2.82999992
   19.09361267  122.56700134    0.70999998    2.84999990
   19.09694481  129.34800720    1.66999996    2.82999992
   19.10027885  128.36199951    1.48000002    2.82999992
   19.10333443  128.39399719    0.98000002    2.82999992
   19.10666656  126.50499725    1.96000004    2.84999990
   19.10972214  122.68099976    3.59999990    2.84999990
   19.11083412  120.83100128    2.93000007    2.84999990
   19.11361122  125.25299835    1.61000001    2.84999990
   19.11666679  122.09999847    1.41999996    2.84999990
   19.12000084  118.89099884    0.81999999    2.82999992
   19.12583351  118.89099884    0.63000000    2.82999992
   19.13000107  126.03500366    0.63000000    2.84999990
   19.13305473  127.23000336    0.63000000    2.82999992
   19.13638878  123.47200012    0.63000000    2.82999992
   19.13972282  123.52400208    0.63000000    2.82999992
   19.14277840  128.70399475    0.63000000    2.82999992
   19.14416695  132.00599670    0.63000000    2.82999992
   19.14666748  128.61900330    0.64999998    2.82999992
   19.14972115  128.38400269    0.64999998    2.82999992
   19.15305519  125.13800049    0.64999998    2.82999992
   19.15611076  118.85299683    0.67000002    2.82999992
   19.15944481  122.79699707    0.69000000    2.82999992
   19.16277695  122.19999695    0.67000002    2.82999992
   19.16860962  122.19999695    0.70999998    2.82999992
   19.17277718  128.97700500    0.70999998    2.82999992
   19.17611122  171.28599548    0.70999998    2.82999992
   19.17749977  119.54000092    0.70999998    2.82999992
   19.17972183  128.72399902    0.70999998    2.82999992
   19.18277740  122.16999817    0.73000002    2.82999992
   19.18610954  125.35199738    0.73000002    2.82999992
   19.18944359  125.99900055    0.73000002    2.82999992
   19.19249916  123.09600067    0.73000002    2.82999992
   19.19583321  119.13600159    0.70999998    2.82999992
   19.19888878  124.10600281    0.70999998    2.82999992
   19.20222282  129.19400024    0.70999998    2.82999992
   19.20555687  128.55799866    0.69000000    2.82999992
   19.21166801  128.55799866    0.67000002    2.82999992
   19.21555710  122.40100098    0.67000002    2.82999992
   19.21888924  120.29699707    2.91000009    2.80999994
   19.22222328  119.63899994    3.75000000    2.82999992
   19.22527885  120.77899933    3.84999990    2.82999992
   19.22861099  123.20200348    3.72000003    2.82999992
   19.23166656  126.44300079    2.34999990    2.80999994
   19.23500061  119.62899780    1.09000003    2.80999994
   19.23833275  117.89399719    0.80000001    2.82999992
   19.24138832  121.29100037    0.70999998    2.82999992
   19.24416733  127.87500000    0.70999998    2.82999992
   19.24527740  121.61299896    0.69000000    2.80999994
   19.24833298  119.93900299    0.64999998    2.80999994
   19.25444412  119.93900299    0.73000002    2.80999994
   19.25861168  127.14399719    0.64999998    2.82999992
   19.26166725  123.35299683    0.64999998    2.82999992
   19.26499939  124.27200317    0.63000000    2.82999992
   19.26805496  115.13899994    0.64999998    2.82999992
   19.27138901  119.79399872    0.64999998    2.80999994
   19.27472115  120.32800293    0.64999998    2.82999992
   19.27750015  123.31500244    0.64999998    2.82999992
   19.27833366  123.75099945    0.63000000    2.82999992
   19.28138924  121.63700104    0.63000000    2.82999992
   19.28472137  139.67900085    0.64999998    2.82999992
   19.28805542  128.44500732    4.90999985    2.71000004
   19.29111099  124.61499786    2.07999992    2.80999994
   19.29722214  124.61499786    3.76999998    2.78999996
   19.30138779  123.27300262    4.90999985    2.80999994
   19.30444336  119.62100220    4.90999985    2.82999992
   19.30777740  126.44899750    4.90999985    2.82999992
   19.31083298  127.88700104    4.90999985    2.69000006
   19.31138802  125.45600128    4.90999985    2.75000000
   19.31444359  123.60900116    4.90999985    2.66000009
   19.31777954  195.67500305    4.90999985    2.11999989
   19.32083511  121.47100067    4.90999985    2.50000000
   19.32416725  127.56999969    4.90999985    2.76999998
   19.32750130  127.04000092    4.90999985    2.75000000
   19.33055687  118.60299683    4.90999985    2.75000000
   19.33388901  117.21099854    4.03999996    2.75000000
   19.34000015  117.21099854    1.19000006    2.80999994
   19.34416771  125.11900330    1.14999998    2.80999994
   19.34472275  121.65399933    1.05999994    2.80999994
   19.34777832  119.13500214    0.81999999    2.78999996
   19.35111237  119.65000153    0.75000000    2.80999994
   19.35444450  125.08399963    0.92000002    2.80999994
   19.35750008  124.23300171    3.21000004    2.82999992
   19.36083412  123.99299622    4.90999985    2.80999994
   19.36388969  122.59500122    4.90999985    2.80999994
   19.36722183  123.67099762    4.90999985    2.80999994
   19.37055588  123.35800171    4.90999985    2.78999996
   19.37361145  120.34100342    4.90999985    2.78999996
   19.37694550  138.49600220    4.90999985    2.57999992
   19.37750053  130.82499695    4.90999985    2.64000010
   19.38277817  130.82499695    4.90999985    2.50000000
   19.38694382  142.51499939    4.90999985    2.26999998
   19.39027786  142.82099915    4.90999985    2.55999994
   19.39333344  126.26100159    4.90999985    2.59999990
   19.39666748  129.79299927    4.90999985    2.64000010
   19.39999962  130.32099915    4.90999985    2.69000006
   19.40305519  129.03500366    4.90999985    2.64000010
   19.40638924  192.72799683    4.90999985    2.50000000
   19.40972137  148.31300354    4.90999985    2.42000008
   19.41083336  137.25799561    4.90999985    2.42000008
   19.41333389  135.58099365    4.90999985    2.61999989
   19.41638756  129.60299683    4.90999985    2.61999989
   19.41972160  125.06800079    4.90999985    2.71000004
   19.42583275  125.06800079    4.90999985    2.69000006
   19.42972183  131.46600342    4.90999985    2.71000004
   19.43305397  137.81599426    4.90999985    2.53999996
   19.43638802  125.19000244    4.90999985    2.64000010
   19.43944359  129.71600342    4.90999985    2.66000009
   19.44277763  122.23999786    4.90999985    2.67000008
   19.44416618  130.35200500    4.90999985    2.69000006
   19.44638824  131.57899475    4.90999985    2.71000004
   19.44944382  127.89900208    4.90999985    2.71000004
   19.45277786  134.00999451    4.90999985    2.75000000
   19.45611191  126.80599976    4.90999985    2.75000000
   19.45916748  125.08100128    4.55999994    2.78999996
   19.46250153  128.74400330    4.07999992    2.76999998
   19.46861076  128.74400330    4.90999985    2.75000000
   19.47277832  130.05000305    4.90999985    2.71000004
   19.47583389  130.03900146    4.90999985    2.73000002
   19.47750092  134.96800232    4.90999985    2.69000006
   19.47944450  131.46200562    4.90999985    2.61999989
   19.48250008  133.58200073    4.90999985    2.61999989
   19.48583412  131.60299683    4.90999985    2.69000006
   19.48916626  135.83500671    4.90999985    2.67000008
   19.49222183  148.60499573    4.90999985    2.61999989
   19.49555588  133.95500183    4.90999985    2.39000010
   19.49888992  141.67500305    4.90999985    2.42000008
   19.50194359  143.28500366    4.90999985    2.50000000
   19.50527763  132.18400574    4.90999985    2.51999998
   19.51138878  132.18400574    4.90999985    2.23000002
   19.51555634  137.08399963    4.90999985    2.44000006
   19.51888847  131.17500305    4.90999985    2.64000010
   19.52194405  134.13000488    4.90999985    2.67000008
   19.52527809  129.79100037    4.90999985    2.64000010
   19.52833366  133.90899658    4.90999985    2.71000004
   19.53166580  130.29200745    4.90999985    2.71000004
   19.53499985  138.60400391    4.90999985    2.64000010
   19.53805542  130.69500732    4.90999985    2.64000010
   19.54138756  124.10900116    4.90999985    2.73000002
   19.54416656  130.70500183    4.90999985    2.73000002
   19.54500008  132.63099670    4.90999985    2.75000000
   19.54805565  124.51100159    4.90999985    2.71000004
   19.55416679  124.51100159    4.90999985    2.75000000
   19.55833244  121.60600281    4.90999985    2.73000002
   19.56166649  126.80799866    4.90999985    2.78999996
   19.56472206  128.60099792    4.13999987    2.76999998
   19.56805611  127.51899719    4.23999977    2.76999998
   19.57139015  126.84600067    4.86999989    2.75000000
   19.57444572  123.03700256    4.76000023    2.76999998
   19.57750130  127.33200073    4.21999979    2.75000000
   19.57805634  129.12399292    4.05999994    2.76999998
   19.58111191  121.29000092    3.91000009    2.76999998
   19.58444595  114.79599762    4.19999981    2.76999998
   19.58777809  125.74099731    4.59999990    2.75000000
   19.59083366  117.80799866    4.90999985    2.76999998
   19.59722328  117.80799866    4.90999985    2.44000006
   19.60111237  129.90400696    4.90999985    2.75000000
   19.60444450  125.32700348    4.34999990    2.75000000
   19.60777855  127.02500153    4.01999998    2.73000002
   19.61083412  121.83100128    4.00000000    2.75000000
   19.61138916  124.47899628    4.00000000    2.75000000
   19.61444473  120.63899994    3.75000000    2.76999998
   19.61777878  118.76399994    3.73000002    2.75000000
   19.62111092  127.44300079    3.72000003    2.76999998
   19.62416649  120.15799713    3.39000010    2.76999998
   19.62750053  117.75599670    3.09999990    2.75000000
   19.63083267  121.59300232    3.03999996    2.76999998
   19.63388824  116.39800262    3.00000000    2.78999996
   19.63999939  116.39800262    2.78999996    2.76999998
   19.64416695  122.88800049    2.53999996    2.76999998
   19.64444351  126.34100342    2.53999996    2.76999998
   19.64777756  120.38700104    2.46000004    2.78999996
   19.65111160  120.74500275    2.34999990    2.76999998
   19.65416718  118.23600006    2.40000010    2.76999998
   19.65749931  122.50399780    2.57999992    2.78999996
   19.66083336  126.76100159    3.09999990    2.78999996
   19.66388893  120.98799896    4.55999994    2.76999998
   19.66722107  131.60499573    4.90999985    2.76999998
   19.67027664  134.72399902    4.90999985    2.69000006
   19.67361069  143.71099854    4.90999985    2.71000004
   19.67694473  124.98699951    4.90999985    2.75000000
   19.67777634  125.12200165    4.90999985    2.75000000
   19.68277740  125.12200165    4.90999985    2.75000000
   19.68694305  120.43099976    4.90999985    2.73000002
   19.68999863  122.24900055    4.90999985    2.73000002
   19.69333267  130.03700256    4.90999985    2.73000002
   19.69666672  129.83599854    4.90999985    2.71000004
   19.70000076  128.04400635    4.90999985    2.71000004
   19.70305634  122.86699677    4.90999985    2.71000004
   19.70639038  127.85199738    4.90999985    2.71000004
   19.70972252  125.98000336    4.90999985    2.73000002
   19.71138954  127.66500092    4.90999985    2.71000004
   19.71305656  141.10400391    4.90999985    2.75000000
   19.71638870  126.93000031    4.90999985    2.59999990
   19.71944427  121.76499939    4.90999985    2.73000002
   19.72555542  121.76499939    4.86999989    2.75000000
   19.72972298  126.63999939    4.84999990    2.75000000
   19.73305511  130.96099854    4.90999985    2.75000000
   19.73611069  124.25299835    4.90999985    2.73000002
   19.73944473  135.73699951    4.90999985    2.73000002
   19.74277878  131.28900146    4.90999985    2.73000002
   19.74472237  128.86500549    4.90999985    2.71000004
   19.74611092  130.02499390    4.90999985    2.71000004
   19.74944496  121.94499969    4.90999985    2.71000004
   19.75250053  126.70600128    4.90999985    2.69000006
   19.75583267  127.04100037    4.90999985    2.71000004
   19.75916672  127.17099762    4.90999985    2.75000000
   19.76222229  123.03199768    4.90999985    2.73000002
   19.76833344  123.03199768    4.38999987    2.71000004
   19.77249908  127.58000183    3.91000009    2.73000002
   19.77583313  128.86900330    3.91000009    2.75000000
   19.77805519  125.40899658    3.78999996    2.76999998
   19.77944374  123.25900269    3.76999998    2.75000000
   19.78277779  121.25700378    4.57999992    2.75000000
   19.78583336  125.02600098    4.82999992    2.69000006
   19.78916550  127.87100220    4.90999985    2.67000008
   19.79249954  115.18199921    4.40999985    2.76999998
   19.79555511  125.31600189    3.70000005    2.75000000
   19.79888916  124.08999634    3.70000005    2.76999998
   19.80222130  122.29399872    3.75000000    2.75000000
   19.80527687  132.88600159    4.53999996    2.75000000
   19.81138802  132.88600159    4.71999979    2.73000002
   19.81555557  122.58999634    4.55999994    2.75000000
   19.81861115  127.24199677    4.55999994    2.75000000
   19.82194519  128.17999268    4.71999979    2.73000002
   19.82500076  132.54400635    4.90999985    2.73000002
   19.82833481  116.12899780    4.90999985    2.73000002
   19.83166695  126.17700195    4.90999985    2.71000004
   19.83472252  131.42900085    4.90999985    2.69000006
   19.83805656  132.46099854    4.90999985    2.69000006
   19.84138870  131.45799255    4.90999985    2.69000006
   19.84444427  128.49600220    4.90999985    2.69000006
   19.84500122  125.51599884    4.90999985    2.69000006
   19.84833336  126.76000214    4.90999985    2.69000006
   19.85416794  126.76000214    4.90999985    2.71000004
   19.85833359  126.77999878    4.90999985    2.67000008
   19.86138916  133.48199463    4.90999985    2.71000004
   19.86472321  128.68499756    4.90999985    2.71000004
   19.86805534  130.62399292    4.90999985    2.69000006
   19.87111092  127.07800293    4.90999985    2.66000009
   19.87444496  136.88600159    4.90999985    2.66000009
   19.87777710  123.91500092    4.90999985    2.66000009
   19.87833405  139.72099304    4.90999985    2.66000009
   19.88138962  125.70400238    4.90999985    2.66000009
   19.88444519  138.44500732    4.90999985    2.69000006
   19.88777733  128.64199829    4.90999985    2.67000008
   19.89111137  123.07499695    4.90999985    2.69000006
   19.89694405  123.07499695    4.90999985    2.73000002
   19.90111160  129.58399963    4.32999992    2.73000002
   19.90444374  124.51699829    4.03999996    2.75000000
   19.90749931  114.81800079    3.97000003    2.73000002
   19.91083336  120.94100189    4.01999998    2.75000000
   19.91166687  112.37100220    3.97000003    2.76999998
   19.91444397  122.16100311    3.55999994    2.75000000
   19.91749954  120.94300079    3.30999994    2.75000000
   19.92083359  120.90899658    3.30999994    2.76999998
   19.92416573  127.12699890    3.28999996    2.75000000
   19.92722130  124.35600281    3.18000007    2.75000000
   19.94861031  124.35600281    2.01999998    2.76999998
   19.95250130  125.62400055    2.23000002    2.76999998
   19.95583344  131.24800110    1.85000002    2.76999998
   19.95916748  114.48100281    1.66999996    2.76999998
   19.96222305  120.98400116    1.46000004    2.76999998
   19.96555710  122.79299927    1.44000006    2.76999998
   19.96888924  124.71499634    1.38000000    2.76999998
   19.97194481  121.93499756    1.26999998    2.76999998
   19.97527885  126.50900269    1.23000002    2.78999996
   19.97833443  131.91000366    1.21000004    2.76999998
   19.97916794  122.32700348    1.21000004    2.76999998
   19.98194504  120.18599701    1.16999996    2.76999998
   19.98527718  125.41500092    1.07000005    2.78999996
   19.99111176  125.41500092    2.96000004    2.71000004
   19.99527740  138.98899841    4.90999985    2.80999994
   19.99861145  115.49099731    4.90999985    2.66000009
   20.00166702  122.04499817    1.83000004    2.76999998
   20.00499916  118.11799622    1.30999994    2.76999998
   20.00833321  116.86299896    1.46000004    2.76999998
   20.01138878  119.82299805    1.94000006    2.75000000
   20.01250076  118.02999878    2.00000000    2.75000000
   20.01499939  128.82000732    2.15000010    2.75000000
   20.01833344  122.65100098    2.32999992    2.75000000
   20.02138901  119.96700287    3.80999994    2.76999998
   20.02472115  126.76000214    4.90999985    2.59999990
   20.02805519  158.50700378    4.90999985    2.69000006
   20.03416634  158.50700378    4.90999985    2.01999998
   20.03805542  231.01699829    4.90999985    2.26999998
   20.04138756  184.61500549    4.90999985    2.36999989
   20.04472160  198.90400696    4.90999985    2.34999990
   20.04611015  147.90100098    4.90999985    2.30999994
   20.04833221  142.80599976    4.90999985    2.53999996
   20.05138779  153.09199524    4.90999985    2.48000002
   20.05472183  161.99200439    4.90999985    2.39000010
   20.05805397  167.86599731    4.90999985    2.46000004
   20.06110954  168.98100281    4.90999985    2.39000010
   20.06444359  151.18400574    4.90999985    2.40000010
   20.06750107  138.07299805    4.90999985    2.44000006
   20.07083511  133.73699951    4.90999985    2.67000008
   20.07694626  133.73699951    4.90999985    2.64000010
   20.08111191  123.81700134    4.90999985    2.71000004
   20.08416748  127.39299774    4.90999985    2.75000000
   20.08750153  126.34200287    4.90999985    2.71000004
   20.09083366  134.25000000    4.90999985    2.67000008
   20.09388924  136.46299744    4.90999985    2.64000010
   20.09722328  273.87600708    4.90999985    2.55999994
   20.10027885  133.30999756    4.90999985    2.55999994
   20.10361099  122.97200012    4.90999985    2.66000009
   20.10694504  131.56100464    4.90999985    2.61999989
   20.11000061  124.90399933    4.90999985    2.64000010
   20.11277771  122.80100250    4.90999985    2.66000009
   20.11361122  120.92099762    4.90999985    2.66000009
   20.11972237  120.92099762    4.90999985    2.67000008
   20.12388992  132.08099365    4.90999985    2.66000009
   20.12722206  127.54199982    4.90999985    2.64000010
   20.13027763  131.84399414    4.90999985    2.59999990
   20.13361168  136.76100159    4.90999985    2.57999992
   20.13666725  120.94100189    4.90999985    2.66000009
   20.13999939  129.62199402    4.90999985    2.59999990
   20.14333344  131.87500000    4.90999985    2.61999989
   20.14611053  129.53300476    4.90999985    2.64000010
   20.14694405  126.08599854    4.90999985    2.61999989
   20.14999962  125.80500031    4.90999985    2.66000009
   20.15333366  124.37300110    4.90999985    2.67000008
   20.15666580  122.27799988    4.90999985    2.69000006
   20.16250038  122.27799988    4.90999985    2.69000006
   20.16666603  117.40399933    4.90999985    2.61999989
   20.17000008  126.16400146    4.90999985    2.66000009
   20.17305565  130.35400391    4.90999985    2.66000009
   20.17638779  125.93099976    4.90999985    2.66000009
   20.17944336  132.59300232    4.90999985    2.64000010
   20.18000031  135.08200073    4.90999985    2.57999992
   20.18305397  151.74400330    4.90999985    2.55999994
   20.18638802  284.50799561    4.90999985    2.19000006
   20.18972206  164.83900452    4.90999985    2.23000002
   20.19277763  155.49499512    4.90999985    2.28999996
   20.19610977  143.43899536    4.90999985    2.36999989
   20.19916534  146.32400513    4.90999985    2.48000002
   20.20555687  146.32400513    4.90999985    2.46000004
   20.20944595  152.43899536    4.90999985    2.50000000
   20.21277809  124.50099945    4.90999985    2.51999998
   20.21333504  135.16499329    4.90999985    2.51999998
   20.21638870  133.48100281    4.90999985    2.66000009
   20.21972275  133.07600403    4.90999985    2.66000009
   20.22305679  130.12699890    4.90999985    2.66000009
   20.22611237  127.39399719    4.90999985    2.67000008
   20.22944450  138.71200562    4.90999985    2.55999994
   20.23277855  126.93399811    4.90999985    2.59999990
   20.23583412  151.80099487    4.90999985    2.57999992
   20.23916626  129.80900574    4.90999985    2.48000002
   20.24222183  190.76699829    4.90999985    2.23000002
   20.24833298  190.76699829    4.90999985    2.32999992
   20.25250053  178.66499329    4.90999985    2.32999992
   20.25555611  165.30599976    4.90999985    2.48000002
   20.25888824  165.33299255    4.90999985    2.42000008
   20.26222229  173.69000244    4.90999985    2.36999989
   20.26527786  164.68499756    4.90999985    2.25000000
   20.26861000  227.90199280    4.90999985    2.30999994
   20.27166557  164.78900146    4.90999985    2.40000010
   20.27499962  162.38900757    4.90999985    2.48000002
   20.27833366  173.05400085    4.90999985    2.40000010
   20.27944374  188.04800415    4.90999985    2.42000008
   20.28194427  160.29899597    4.90999985    2.39000010
   20.28527641  206.69099426    4.90999985    2.28999996
   20.29111099  206.69099426    4.90999985    2.39000010
   20.29527664  129.68899536    4.90999985    2.50000000
   20.29861069  127.66400146    4.90999985    2.40000010
   20.30166626  136.95100403    4.90999985    2.53999996
   20.30499840  128.66799927    4.90999985    2.57999992
   20.30805397  133.98199463    4.90999985    2.61999989
   20.31138802  132.41000366    4.90999985    2.64000010
   20.31277657  130.44599915    4.90999985    2.64000010
   20.31499863  129.64500427    4.90999985    2.64000010
   20.31833458  118.17400360    4.90999985    2.64000010
   20.32139015  129.38900757    4.90999985    2.66000009
   20.32472229  129.19000244    4.90999985    2.64000010
   20.32777786  136.74800110    4.90999985    2.64000010
   20.33388901  136.74800110    4.90999985    2.61999989
   20.33805656  134.09100342    4.90999985    2.61999989
   20.34138870  128.13299561    4.90999985    2.57999992
   20.34444427  129.84899902    4.90999985    2.59999990
   20.34638977  131.03399658    4.90999985    2.61999989
   20.34833336  138.28999329    4.90999985    2.64000010
   20.35138893  134.61300659    4.90999985    2.67000008
   20.35472298  128.44500732    4.90999985    2.66000009
   20.35777855  126.94300079    4.86999989    2.66000009
   20.36111069  127.22000122    4.69999981    2.67000008
   20.36444473  124.79900360    4.07999992    2.69000006
   20.36750031  130.95599365    3.72000003    2.69000006
   20.37083435  124.79100037    3.68000007    2.67000008
   20.37694550  124.79100037    3.21000004    2.71000004
   20.38083267  122.84100342    2.59999990    2.73000002
   20.38416672  124.66899872    2.13000011    2.73000002
   20.38750076  116.23200226    1.61000001    2.73000002
   20.39055634  118.46700287    1.30999994    2.73000002
   20.39388847  121.97799683    1.19000006    2.71000004
   20.39722252  131.77499390    1.14999998    2.71000004
   20.40027809  123.97899628    1.13000000    2.71000004
   20.40361023  121.73600006    1.16999996    2.71000004
   20.40666580  128.02499390    1.19000006    2.73000002
   20.40999985  125.31900024    1.46000004    2.73000002
   20.41305542  122.24500275    1.64999998    2.73000002
   20.41361046  122.91400146    1.64999998    2.73000002
   20.41972160  122.91400146    4.90999985    2.75000000
   20.42388916  123.67299652    3.45000005    2.73000002
   20.42694473  127.44799805    1.66999996    2.71000004
   20.43027687  122.63300323    1.89999998    2.71000004
   20.43333244  121.26300049    1.89999998    2.71000004
   20.43666649  137.18600464    1.50000000    2.71000004
   20.43999863  126.17800140    1.30999994    2.67000008
   20.44305420  118.90499878    2.11999989    2.71000004
   20.44638824  118.48600006    1.13000000    2.71000004
   20.44694328  119.76499939    1.13000000    2.71000004
   20.45000076  121.10199738    1.11000001    2.71000004
   20.45333481  120.10600281    1.09000003    2.71000004
   20.45639038  118.27899933    1.09000003    2.71000004
   20.46250153  118.27899933    1.11000001    2.71000004
   20.46666718  120.43000031    1.13000000    2.71000004
   20.46972275  126.38899994    1.14999998    2.71000004
   20.47305679  133.26899719    1.19000006    2.71000004
   20.47638893  122.97799683    1.19000006    2.71000004
   20.47944450  123.98300171    1.26999998    2.71000004
   20.48000145  119.05599976    1.26999998    2.71000004
   20.48333359  130.24499512    1.30999994    2.71000004
   20.48638916  127.48200226    1.30999994    2.71000004
   20.48972321  132.36900330    1.46000004    2.71000004
   20.49305534  125.02600098    1.50000000    2.71000004
   20.49611092  125.11900330    1.46000004    2.71000004
   20.49944496  119.80999756    1.46000004    2.69000006
   20.50527763  119.80999756    1.50000000    2.71000004
   20.50944519  123.70999908    1.63000000    2.71000004
   20.51277733  115.32700348    1.63000000    2.69000006
   20.51333427  125.37899780    1.63000000    2.69000006
   20.51638794  123.69300079    1.66999996    2.71000004
   20.51944351  122.98899841    1.66999996    2.71000004
   20.52305603  122.76000214    1.71000004    2.69000006
   20.52611160  121.17500305    1.73000002    2.69000006
   20.52944374  120.90200043    1.71000004    2.71000004
   20.53277779  125.26300049    1.76999998    2.69000006
   20.53583336  127.68399811    2.23000002    2.69000006
   20.53916550  122.02899933    4.90999985    2.69000006
   20.54222107  113.54499817    4.90999985    2.73000002
   20.55249977   -1.00000000   -1.00000000   -1.00000000
   20.55583191   -1.00000000    4.90999985    1.76999998
   20.55888748  222.27900696    4.90999985    1.78999996
   20.56222153  358.04199219    4.90999985    2.09999990
   20.56527710  269.26098633    4.90999985    1.88000000
   20.56861115  161.14599609    4.90999985    2.15000010
   20.57194519  173.10600281    4.90999985    2.48000002
   20.57500076   49.55400085    4.90999985    2.30999994
   20.57833481  162.67999268    4.90999985    1.86000001
   20.58027840  163.44500732    4.90999985    2.42000008
   20.58194542  235.12399292    4.90999985    2.40000010
   20.58500099  146.70100403    4.90999985    2.42000008
   20.59111214  146.70100403    4.90999985    2.57999992
   20.59527779  191.51499939    4.90999985    2.03999996
   20.59861183  158.05499268    4.90999985    2.34999990
   20.60194397  145.22599792    4.90999985    2.46000004
   20.60472298  134.04100037    4.90999985    2.59999990
   20.60805511  127.65100098    4.90999985    2.71000004
   20.61138916  126.44499969    4.90999985    2.66000009
   20.61333466  125.00199890    4.90999985    2.69000006
   20.61499977  126.00099945    4.90999985    2.71000004
   20.61805534  128.11799622    4.78000021    2.71000004
   20.62138939  136.24000549    4.90999985    2.61999989
   20.62472153  134.68800354    4.90999985    2.61999989
   20.62777710  133.58700562    4.90999985    2.66000009
   20.63388824  133.58700562    4.90999985    2.61999989
   20.63805580  137.81300354    4.90999985    2.59999990
   20.64111137  132.96600342    4.90999985    2.51999998
   20.64444351  138.75799561    4.90999985    2.61999989
   20.64666748  132.28300476    4.90999985    2.51999998
   20.64805603  129.65100098    4.90999985    2.53999996
   20.65138817  131.64100647    4.90999985    2.66000009
   20.65444374  126.90200043    4.90999985    2.67000008
   20.65777779  123.06700134    4.90999985    2.69000006
   20.66110992  130.76800537    4.90999985    2.66000009
   20.66416550  127.87300110    4.90999985    2.64000010
   20.66749954  125.65100098    4.90999985    2.67000008
   20.67055511  138.12100220    4.90999985    2.67000008
   20.67666626  138.12100220    4.69999981    2.66000009
   20.68083191  125.08499908    4.90999985    2.66000009
   20.68416595  126.53399658    4.90999985    2.67000008
   20.68722153  124.52700043    3.57999992    2.67000008
   20.69055557  132.34300232    2.36999989    2.67000008
   20.69388771  127.23200226    2.01999998    2.67000008
   20.69694328  124.79299927    1.75000000    2.67000008
   20.70027924  125.17500305    1.71000004    2.69000006
   20.70333481  126.70300293    1.83000004    2.66000009
   20.70666695  122.45500183    2.05999994    2.64000010
   20.71000099  124.70300293    2.50000000    2.66000009
   20.71305656  121.01000214    2.55999994    2.69000006
   20.71361160  119.59799957    2.55999994    2.69000006
   20.71944427  119.59799957    2.40000010    2.69000006
   20.72361183  126.71399689    2.80999994    2.61999989
   20.72694588  101.40299988    3.50000000    2.64000010
   20.73000145  120.02100372    3.34999990    2.66000009
   20.73333359  118.08000183    2.93000007    2.66000009
   20.73666763  126.89600372    2.13000011    2.67000008
   20.73972321  115.31999969    1.66999996    2.67000008
   20.74305534  115.25000000    1.34000003    2.67000008
   20.74638939  118.18499756    1.30999994    2.67000008
   20.74694443  119.88200378    1.26999998    2.67000008
   20.75000000  111.29799652    1.16999996    2.67000008
   20.75305557  126.40200043    1.14999998    2.67000008
   20.75638962  116.99900055    1.41999996    2.69000006
   20.76250076  116.99900055    2.09999990    2.67000008
   20.76638794  121.51899719    3.59999990    2.66000009
   20.76972198  124.31600189    4.32999992    2.66000009
   20.77305603  130.58399963    4.63999987    2.66000009
   20.77611160  126.00399780    4.76000023    2.66000009
   20.77944374  122.78099823    4.28999996    2.66000009
   20.78027725  124.61699677    4.26000023    2.66000009
   20.78305435  132.86999512    3.97000003    2.64000010
   20.78610992  131.11000061    3.72000003    2.66000009
   20.78944397  126.90200043    3.80999994    2.67000008
   20.79277802  124.80500031    4.09999990    2.66000009
   20.79583359  126.57599640    4.44999981    2.64000010
   20.79916573  124.85900116    4.90999985    2.64000010
   20.80527687  124.85900116    4.90999985    2.66000009
   20.80944443  134.28900146    4.90999985    2.61999989
   20.81250000  149.52000427    4.90999985    2.50000000
   20.81361008  149.60899353    4.90999985    2.46000004
   20.81611061  141.11000061    4.90999985    2.40000010
   20.81916809  148.25199890    4.90999985    2.50000000
   20.82250023  134.89900208    4.90999985    2.42000008
   20.82583427  126.88999939    4.90999985    2.53999996
   20.82888985  124.62799835    4.90999985    2.59999990
   20.83222389  146.08599854    4.90999985    2.59999990
   20.83555603  142.27400208    4.90999985    2.32999992
   20.83861160  135.80299377    4.90999985    2.44000006
   20.84194565  135.70899963    4.90999985    2.53999996
   20.84805679  135.70899963    4.90999985    2.64000010
   20.85222244  116.93399811    4.90999985    2.67000008
   20.85555649  118.45500183    4.90999985    1.91999996
   20.85861206  136.28500366    4.90999985    2.05999994
   20.86194420  142.78999329    4.90999985    2.46000004
   20.86499977  140.67700195    4.90999985    2.48000002
   20.86833382  148.65400696    4.90999985    2.51999998
   20.87166595  127.02200317    4.90999985    2.46000004
   20.87472153  134.84199524    4.90999985    2.46000004
   20.87805557  151.03900146    4.90999985    2.46000004
   20.88027763  143.91299438    4.90999985    2.34999990
   20.88166618  133.75599670    4.90999985    2.42000008
   20.88472176  126.37400055    4.90999985    2.51999998
   20.89083290  126.37400055    4.90999985    2.53999996
   20.89500046  127.07900238    4.90999985    2.61999989
   20.89833260  125.91400146    4.90999985    2.66000009
   20.90138817  129.94000244    4.90999985    2.64000010
   20.90472221  130.43800354    4.90999985    2.48000002
   20.90805435  132.11099243    4.90999985    2.57999992
   20.91110992  115.41899872    4.90999985    2.55999994
   20.91361046  144.70300293    4.90999985    2.55999994
   20.91472244  148.19700623    4.90999985    2.53999996
   20.91777802  130.23599243    4.90999985    2.28999996
   20.92111015  183.04699707    4.90999985    2.48000002
   20.92444420  149.87899780    4.90999985    2.26999998
   20.92749977  139.46899414    4.90999985    2.32999992
   20.93388748  139.46899414    4.90999985    2.42000008
   20.93777657  160.80400085    4.90999985    2.34999990
   20.95611191  134.37899780    4.90999985    2.51999998
   20.95944595  123.55599976    4.90999985    2.55999994
   20.96277809  126.20800018    4.90999985    2.57999992
   20.96583366  123.62599945    4.90999985    2.57999992
   20.96916771  137.38800049    4.90999985    2.46000004
   20.97249985  136.01100159    4.90999985    2.50000000
   20.97638893  136.01100159    4.90999985    2.53999996
   20.98055649  137.65600586    4.90999985    2.48000002
   20.98388863  134.75700378    4.90999985    2.46000004
   20.98722267  139.19000244    4.90999985    2.42000008
   20.98944473  182.74699402    4.90999985    2.40000010
   20.99055672  154.40699768    4.90999985    2.34999990
   20.99388885  146.03599548    4.90999985    2.36999989
   20.99694443  139.24499512    4.90999985    2.42000008
   21.00027847  127.46299744    4.90999985    2.50000000
   21.00361061  129.53399658    4.90999985    2.55999994
   21.00666618  133.16299438    4.90999985    2.59999990
   21.01000023  134.66799927    4.90999985    2.61999989
   21.01305580  129.82299805    4.90999985    2.59999990
   21.01944351  129.82299805    4.90999985    2.53999996
   21.02361107  122.05300140    4.90999985    2.50000000
   21.02666664  131.25599670    4.90999985    2.48000002
   21.03000069  130.83700562    4.90999985    2.50000000
   21.03305435  132.79899597    4.90999985    2.46000004
   21.03638840  142.46499634    4.90999985    2.39000010
   21.03972244  132.84300232    4.90999985    2.44000006
   21.04305458  120.96399689    4.90999985    2.50000000
   21.04611015  125.18699646    4.90999985    2.53999996
   21.04944420  136.87300110    4.90999985    2.53999996
   21.05249977  134.27600098    4.90999985    2.53999996
   21.05583191  124.68000031    4.90999985    2.57999992
   21.05638885  123.30999756    4.90999985    2.57999992
   21.06222153  123.30999756    4.90999985    2.59999990
   21.06638718  136.40199280    4.90999985    2.51999998
   21.06944466  161.62199402    4.90999985    2.36999989
   21.07277870  342.75399780    4.90999985    2.19000006
   21.07611275  205.13499451    4.90999985    2.05999994
   21.07916832  296.90899658    4.90999985    2.09999990
   21.08250046  170.46400452    4.90999985    2.11999989
   21.08583450  167.75500488    4.90999985    2.30999994
   21.08889008  157.48399353    4.90999985    2.28999996
   21.08972359  139.65899658    4.90999985    2.28999996
   21.09277916  117.78299713    4.90999985    2.19000006
   21.09583473  221.23800659    4.90999985    1.88000000
   21.09916687  260.90600586    4.90999985    2.01999998
   21.10916710   97.10340118    4.90999985    1.71000004
   21.11250114  330.35598755    4.90999985    1.78999996
   21.11555672  213.34199524    4.90999985    2.07999992
   21.11888885  177.91799927    4.90999985    2.26999998
   21.12194443  154.02400208    4.90999985    2.28999996
   21.12305641  151.99600220    4.90999985    2.28999996
   21.12583351  146.93299866    4.90999985    2.30999994
   21.12888908  157.21699524    4.90999985    2.30999994
   21.13222313  137.11900330    4.90999985    2.36999989
   21.13527679  140.06100464    4.90999985    2.40000010
   21.13861084  146.46400452    4.90999985    2.30999994
   21.14194489  149.31500244    4.90999985    2.32999992
   21.14777756  149.31500244    4.90999985    2.32999992
   21.15194321  152.98300171    4.90999985    2.36999989
   21.15527725  144.49400330    4.90999985    2.39000010
   21.15638924  144.32800293    4.90999985    2.39000010
   21.15888786  199.81500244    4.90999985    2.39000010
   21.16194344  180.60800171    4.90999985    2.25000000
   21.16527748  155.28799438    4.90999985    2.26999998
   21.16833305  155.46699524    4.90999985    2.28999996
   21.17166519  238.19500732    4.90999985    2.30999994
   21.17499924  300.18701172    4.90999985    2.13000011
   21.17805481  209.09500122    4.90999985    2.05999994
   21.18138885  296.15301514    4.90999985    2.09999990
   21.18472099  267.79098511    4.90999985    2.03999996
   21.19083214  267.79098511    4.90999985    2.13000011
   21.19499969  154.53799438    4.90999985    2.23000002
   21.19805527  214.05900574    4.90999985    2.25000000
   21.20138931  304.50100708    4.90999985    2.09999990
   21.20472336   91.72810364    4.90999985    2.03999996
   21.20777893  335.57199097    4.90999985    1.88000000
   21.21111107  112.80400085    4.90999985    2.00000000
   21.21444511  310.29998779    4.90999985    1.86000001
   21.21750069   99.31490326    4.90999985    1.89999998
   21.22083473  219.85899353    4.90999985    1.88000000
   21.22305679  348.15499878    4.90999985    1.86000001
   21.22444534  369.33801270    4.90999985    1.89999998
   21.22750092  286.18701172    4.90999985    2.00000000
   21.23361206  286.18701172    4.90999985    1.98000002
   21.23777771  320.01998901    4.90999985    2.00000000
   21.24083328  240.20599365    4.90999985    2.00000000
   21.24416733  202.28399658    4.90999985    1.91999996
   21.24749947  361.98400879    4.90999985    1.91999996
   21.25055504  230.83399963    4.90999985    2.05999994
   21.25388908  201.95599365    4.90999985    1.85000002
   21.25638962  198.67500305    4.90999985    2.07999992
   21.25749969  292.29199219    4.90999985    2.07999992
   21.26055527  201.38999939    4.90999985    2.03999996
   21.26388931  178.66700745    4.90999985    2.00000000
   21.26694489  263.63400269    4.90999985    1.85000002
   21.27027702  342.91500854    4.90999985    1.91999996
   21.27638817  342.91500854    4.90999985    2.07999992
   21.28055573   -1.00000000    4.90999985    2.05999994
   21.28388786   -1.00000000    4.90999985    1.48000002
   21.28694344   -1.00000000    4.90999985    1.11000001
   21.29055595   -1.00000000    4.90999985    0.92000002
   21.29388809   -1.00000000    4.90999985    0.86000001
   21.29722214   -1.00000000    4.90999985    0.95999998
   21.30027771   -1.00000000    4.90999985    1.00000000
   21.30360985   -1.00000000    4.90999985    0.92000002
   21.30666542   -1.00000000    4.90999985    1.03999996
   21.30999947   -1.00000000    4.90999985    1.21000004
   21.31333351   -1.00000000    4.90999985    1.48000002
   21.32333374   -1.00000000    4.90999985    1.55999994
   21.32666779   -1.00000000    4.90999985    1.48000002
   21.32972336   -1.00000000    4.90999985    1.51999998
   21.33305550   -1.00000000    4.90999985    1.50000000
   21.33638954   95.78209686    4.90999985    1.63000000
   21.33944511  115.17099762    4.90999985    1.85000002
   21.34277916  265.00201416    4.90999985    1.89999998
   21.34583473  190.36399841    4.90999985    2.13000011
   21.34916687  190.18600464    4.90999985    2.28999996
   21.35250092   39.27819824    4.90999985    2.30999994
   21.35555649   -1.00000000    4.90999985    1.94000006
   21.36611176   -1.00000000    4.90999985    1.25000000
   21.36944389   -1.00000000    4.90999985    1.25000000
   21.37277794   -1.00000000    4.90999985    1.25000000
   21.37583351   -1.00000000    4.90999985    1.25000000
   21.37916756   -1.00000000    4.90999985    1.25000000
   21.38222313   -1.00000000    4.90999985    1.25000000
   21.38555527   -1.00000000    4.90999985    1.25000000
   21.38888931   -1.00000000    4.90999985    1.25000000
   21.39222145   -1.00000000    4.90999985    1.25000000
   21.39555550   -1.00000000    4.90999985    1.25000000
   21.39888954   -1.00000000    4.90999985    1.25000000
   21.40916634   -1.00000000    4.90999985    1.25000000
   21.41222191   -1.00000000    4.90999985    1.25000000
   21.41555595   -1.00000000    4.90999985    1.25000000
   21.41860962   -1.00000000    4.90999985    1.25000000
   21.42194366   -1.00000000    4.90999985    1.25000000
   21.42527771   -1.00000000    4.90999985    1.25000000
   21.42860985   -1.00000000    4.90999985    1.25000000
   21.43194389   -1.00000000    4.90999985    1.25000000
   21.43499947  282.05801392    4.90999985    1.25000000
   21.43833160  356.92999268    4.90999985    1.25000000
   21.44138718   -1.00000000    4.90999985    1.25000000
   21.45194435   -1.00000000    4.90999985    1.25000000
